#kx 	ky 	kz 	real 	imag 	intensity
1.800000 1.800000 -6.200000 -22.511189 -18.127138 835.346741
1.800000 1.800000 -6.160000 -3.018880 -35.221672 1249.679810
1.800000 1.800000 -6.120000 22.706219 -29.137342 1364.557129
1.800000 1.800000 -6.080000 32.694042 -5.391942 1097.973389
1.800000 1.800000 -6.040000 20.218056 15.122792 637.468628
1.800000 1.800000 -6.000000 -1.287007 16.534256 275.038025
1.800000 1.800000 -5.960000 -12.827610 1.727043 167.530258
1.800000 1.800000 -5.920000 -7.849544 -13.312168 238.829163
1.800000 1.800000 -5.880000 4.329460 -16.697674 297.556549
1.800000 1.800000 -5.840000 11.064269 -10.806212 239.192276
1.800000 1.800000 -5.800000 9.845213 -6.174068 135.047333
1.800000 1.840000 -6.200000 -5.352178 -29.819931 917.874084
1.800000 1.840000 -6.160000 18.760328 -34.239471 1524.291382
1.800000 1.840000 -6.120000 37.301338 -18.580238 1736.614990
1.800000 1.840000 -6.080000 37.113968 3.826515 1392.088867
1.800000 1.840000 -6.040000 21.944954 15.691122 727.792297
1.800000 1.840000 -6.000000 7.027429 11.295807 176.980011
1.800000 1.840000 -5.960000 3.947812 -0.539972 15.876786
1.800000 1.840000 -5.920000 11.352599 -7.197063 180.679230
1.800000 1.840000 -5.880000 19.367672 -4.380566 394.296082
1.800000 1.840000 -5.840000 21.100327 2.295705 450.494049
1.800000 1.840000 -5.800000 18.451073 5.870668 374.906830
1.800000 1.880000 -6.200000 12.611902 -23.520718 712.284241
1.800000 1.880000 -6.160000 31.767551 -17.259342 1307.062256
1.800000 1.880000 -6.120000 40.100372 0.285833 1608.121582
1.800000 1.880000 -6.080000 34.144585 16.331757 1432.578979
1.800000 1.880000 -6.040000 21.701752 21.659039 940.079956
1.800000 1.880000 -6.000000 13.367119 17.455278 483.366608
1.800000 1.880000 -5.960000 13.182690 11.907326 315.567719
1.800000 1.880000 -5.920000 17.039896 11.431759 421.043152
1.800000 1.880000 -5.880000 18.713978 15.660049 595.450073
1.800000 1.880000 -5.840000 16.191618 20.000626 662.193481
1.800000 1.880000 -5.800000 12.125767 21.505293 609.511841
1.800000 1.920000 -6.200000 17.042603 -7.613610 348.417358
1.800000 1.920000 -6.160000 27.634556 1.849360 767.088806
1.800000 1.920000 -6.120000 29.135040 15.315826 1083.425171
1.800000 1.920000 -6.080000 22.654373 25.114105 1143.938965
1.800000 1.920000 -6.040000 14.144727 28.010115 984.639832
1.800000 1.920000 -6.000000 8.700822 26.474640 776.610840
1.800000 1.920000 -5.960000 6.919698 25.027847 674.275330
1.800000 1.920000 -5.920000 5.951831 25.878380 705.114868
1.800000 1.920000 -5.880000 3.166477 27.799601 782.844360
1.800000 1.920000 -5.840000 -1.476700 28.337650 805.203064
1.800000 1.920000 -5.800000 -6.087419 26.461704 737.278442
1.800000 1.960000 -6.200000 7.804655 2.600118 67.673248
1.800000 1.960000 -6.160000 12.897883 9.706161 260.564941
1.800000 1.960000 -6.120000 12.407084 18.416519 493.103882
1.800000 1.960000 -6.080000 7.331393 24.603884 659.100403
1.800000 1.960000 -6.040000 1.049149 26.682236 713.042419
1.800000 1.960000 -6.000000 -3.713907 26.114529 695.761719
1.800000 1.960000 -5.960000 -6.812078 25.338688 688.453552
1.800000 1.960000 -5.920000 -9.986835 25.245943 737.094543
1.800000 1.960000 -5.880000 -14.531488 24.515457 812.171753
1.800000 1.960000 -5.840000 -19.589994 21.234392 834.667297
1.800000 1.960000 -5.800000 -22.694040 15.148522 744.497192
1.800000 2.000000 -6.200000 -3.215387 0.171066 10.367976
1.800000 2.000000 -6.160000 0.539082 4.888703 24.190029
1.800000 2.000000 -6.120000 -0.316489 10.860663 118.054176
1.800000 2.000000 -6.080000 -4.599862 14.236290 223.830688
1.800000 2.000000 -6.040000 -8.801685 14.191156 278.858582
1.800000 2.000000 -6.000000 -10.963657 13.137753 292.802368
1.800000 2.000000 -5.960000 -12.558769 13.411674 337.595673
1.800000 2.000000 -5.920000 -16.294464 14.142200 465.511383
1.800000 2.000000 -5.880000 -22.259007 11.937696 637.971985
1.800000 2.000000 -5.840000 -26.773590 4.817476 740.033203
1.800000 2.000000 -5.800000 -25.546658 -4.743915 675.136414
1.800000 2.040000 -6.200000 -5.672773 -8.568432 105.598381
1.800000 2.040000 -6.160000 -2.955856 -3.947248 24.317848
1.800000 2.040000 -6.120000 -5.055727 -0.695411 26.043978
1.800000 2.040000 -6.080000 -7.526127 -1.669970 59.431385
1.800000 2.040000 -6.040000 -6.334145 -3.838223 54.853344
1.800000 2.040000 -6.000000 -3.092424 -2.301415 14.859602
1.800000 2.040000 -5.960000 -3.472708 3.134224 21.883060
1.800000 2.040000 -5.920000 -10.301841 6.611732 149.842926
1.800000 2.040000 -5.880000 -19.118801 2.159662 370.192719
1.800000 2.040000 -5.840000 -21.611568 -9.257571 552.762512
1.800000 2.040000 -5.800000 -13.897342 -19.412912 569.997314
1.800000 2.080000 -6.200000 -0.601357 -13.106436 172.140289
1.800000 2.080000 -6.160000 -1.323828 -9.249011 87.296722
1.800000 2.080000 -6.120000 -3.583068 -11.321719 141.019699
1.800000 2.080000 -6.080000 0.132047 -16.397156 268.884155
1.800000 2.080000 -6.040000 9.769854 -15.747640 343.438202
1.800000 2.080000 -6.000000 16.350636 -5.466948 297.230804
1.800000 2.080000 -5.960000 11.420683 7.431342 185.656830
1.800000 2.080000 -5.920000 -2.793842 11.053576 129.987106
1.800000 2.080000 -5.880000 -14.073702 0.988848 199.046890
1.800000 2.080000 -5.840000 -11.845592 -14.226542 342.712524
1.800000 2.080000 -5.800000 2.124369 -20.831013 438.444031
1.800000 2.120000 -6.200000 3.117719 -10.684999 123.889389
1.800000 2.120000 -6.160000 -0.864772 -11.862592 141.468918
1.800000 2.120000 -6.120000 1.796824 -20.067068 405.915802
1.800000 2.120000 -6.080000 15.554037 -23.687878 803.043579
1.800000 2.120000 -6.040000 30.772411 -12.602203 1105.756836
1.800000 2.120000 -6.000000 32.392963 9.058743 1131.364868
1.800000 2.120000 -5.960000 16.033709 24.843510 874.279785
1.800000 2.120000 -5.920000 -5.871491 21.724354 506.421936
1.800000 2.120000 -5.880000 -15.249195 3.480346 244.650757
1.800000 2.120000 -5.840000 -5.800382 -12.587744 192.095718
1.800000 2.120000 -5.800000 11.281425 -12.453213 282.353058
1.800000 2.160000 -6.200000 0.249246 -8.092655 65.553192
1.800000 2.160000 -6.160000 -1.583725 -17.165276 297.154877
1.800000 2.160000 -6.120000 11.188501 -26.533865 829.228577
1.800000 2.160000 -6.080000 32.606995 -20.231848 1472.543701
1.800000 2.160000 -6.040000 43.854122 4.545980 1943.849976
1.800000 2.160000 -6.000000 31.741634 31.756634 2016.015137
1.800000 2.160000 -5.960000 3.179338 40.515339 1651.600830
1.800000 2.160000 -5.920000 -20.034779 25.171257 1034.984497
1.800000 2.160000 -5.880000 -21.488138 0.824171 462.419342
1.800000 2.160000 -5.840000 -4.994335 -11.433691 155.672668
1.800000 2.160000 -5.800000 10.718365 -4.323044 133.572052
1.800000 2.200000 -6.200000 -4.691671 -12.517365 178.696198
1.800000 2.200000 -6.160000 2.444845 -26.012165 682.610046
1.800000 2.200000 -6.120000 24.553293 -27.798626 1375.627808
1.800000 2.200000 -6.080000 44.222481 -7.323615 2009.263184
1.800000 2.200000 -6.040000 41.665733 25.228191 2372.495117
1.800000 2.200000 -6.000000 14.540853 46.280777 2353.346680
1.800000 2.200000 -5.960000 -18.299446 40.334984 1961.780640
1.800000 2.200000 -5.920000 -33.576508 14.290172 1331.590820
1.800000 2.200000 -5.880000 -24.338688 -9.562635 683.815674
1.800000 2.200000 -5.840000 -4.416541 -14.493353 229.563110
1.800000 2.200000 -5.800000 6.761483 -3.088768 55.258144
1.840000 1.800000 -6.200000 12.365047 -29.578768 1027.797852
1.840000 1.800000 -6.160000 36.038689 -22.659271 1812.229736
1.840000 1.800000 -6.120000 45.371548 2.163927 2063.260010
1.840000 1.800000 -6.080000 31.896130 24.785881 1631.703003
1.840000 1.800000 -6.040000 8.055611 28.132069 856.306152
1.840000 1.800000 -6.000000 -6.371771 13.981092 236.070404
1.840000 1.800000 -5.960000 -3.736015 -1.260910 15.547705
1.840000 1.800000 -5.920000 6.412197 -4.722488 63.418167
1.840000 1.800000 -5.880000 10.356743 1.001780 108.265686
1.840000 1.800000 -5.840000 5.576201 3.898898 46.295425
1.840000 1.800000 -5.800000 1.695174 -1.992558 6.843904
1.840000 1.840000 -6.200000 26.555380 -16.945747 992.346558
1.840000 1.840000 -6.160000 44.872871 -4.482609 2033.668335
1.840000 1.840000 -6.120000 48.819519 18.930391 2741.705078
1.840000 1.840000 -6.080000 35.846073 38.185356 2743.062500
1.840000 1.840000 -6.040000 15.834919 43.399044 2134.221680
1.840000 1.840000 -6.000000 0.657471 36.486763 1331.716064
1.840000 1.840000 -5.960000 -5.441029 26.041164 707.747070
1.840000 1.840000 -5.920000 -5.851332 17.991089 357.917358
1.840000 1.840000 -5.880000 -4.603737 12.269787 171.742065
1.840000 1.840000 -5.840000 -1.722421 7.165480 54.310829
1.840000 1.840000 -5.800000 4.296871 4.170821 35.858845
1.840000 1.880000 -6.200000 24.582697 1.899286 607.916260
1.840000 1.880000 -6.160000 38.498886 15.360711 1718.115601
1.840000 1.880000 -6.120000 40.393871 38.332203 3101.022461
1.840000 1.880000 -6.080000 26.057325 59.497398 4218.924805
1.840000 1.880000 -6.040000 0.758005 67.960182 4619.161133
1.840000 1.880000 -6.000000 -24.297749 59.746529 4160.028320
1.840000 1.880000 -5.960000 -38.633919 39.527645 3055.014404
1.840000 1.880000 -5.920000 -37.965141 17.352633 1742.465820
1.840000 1.880000 -5.880000 -25.754786 2.921064 671.841553
1.840000 1.880000 -5.840000 -10.568487 0.624503 112.082932
1.840000 1.880000 -5.800000 -0.928508 7.863466 62.696228
1.840000 1.920000 -6.200000 8.798808 10.285017 183.200592
1.840000 1.920000 -6.160000 21.490406 24.577866 1065.909058
1.840000 1.920000 -6.120000 20.095139 50.247208 2928.596680
1.840000 1.920000 -6.080000 -2.492802 72.461563 5256.892090
1.840000 1.920000 -6.040000 -38.536148 74.515839 7037.645020
1.840000 1.920000 -6.000000 -68.836197 51.160416 7355.810059
1.840000 1.920000 -5.960000 -76.255554 14.124924 6014.423340
1.840000 1.920000 -5.920000 -58.684669 -15.816525 3694.052734
1.840000 1.920000 -5.880000 -30.300583 -24.194756 1503.511475
1.840000 1.920000 -5.840000 -9.980229 -12.789234 263.169495
1.840000 1.920000 -5.800000 -6.957465 3.946239 63.979122
1.840000 1.960000 -6.200000 -5.328416 1.957650 32.224411
1.840000 1.960000 -6.160000 5.949155 20.316603 448.156799
1.840000 1.960000 -6.120000 -4.018075 47.789375 2299.969482
1.840000 1.960000 -6.080000 -37.901215 61.959785 5275.517090
1.840000 1.960000 -6.040000 -77.328094 45.705986 8068.671387
1.840000 1.960000 -6.000000 -95.709381 3.701612 9173.987305
1.840000 1.960000 -5.960000 -80.109184 -39.253365 7958.308105
1.840000 1.960000 -5.920000 -42.267334 -57.823921 5130.133301
1.840000 1.960000 -5.880000 -8.397807 -46.236832 2208.367676
1.840000 1.960000 -5.840000 2.748124 -20.816023 440.858978
1.840000 1.960000 -5.800000 -6.640214 -3.664403 57.520290
1.840000 2.000000 -6.200000 -5.031196 -13.038336 195.311127
1.840000 2.000000 -6.160000 -0.122759 10.307363 106.256790
1.840000 2.000000 -6.120000 -21.578522 32.202179 1502.612915
1.840000 2.000000 -6.080000 -59.249794 28.393644 4316.737305
1.840000 2.000000 -6.040000 -85.106827 -7.000539 7292.179199
1.840000 2.000000 -6.000000 -76.874268 -53.471546 8768.859375
1.840000 2.000000 -5.960000 -38.119415 -80.248672 7892.939453
1.840000 2.000000 -5.920000 4.571165 -72.242355 5239.853516
1.840000 2.000000 -5.880000 24.719398 -41.529503 2335.748291
1.840000 2.000000 -5.840000 17.392185 -14.335113 507.983551
1.840000 2.000000 -5.800000 -0.572210 -7.219714 52.451691
1.840000 2.040000 -6.200000 7.239194 -19.315683 425.501526
1.840000 2.040000 -6.160000 0.992870 3.674419 14.487149
1.840000 2.040000 -6.120000 -26.704159 11.118622 836.735840
1.840000 2.040000 -6.080000 -53.282490 -10.994511 2959.902832
1.840000 2.040000 -6.040000 -52.968010 -50.811165 5387.384766
1.840000 2.040000 -6.000000 -20.817902 -79.222214 6709.544434
1.840000 2.040000 -5.960000 21.889652 -75.292572 6148.127930
1.840000 2.040000 -5.920000 46.434074 -44.293022 4117.995117
1.840000 2.040000 -5.880000 41.406654 -11.329116 1842.859863
1.840000 2.040000 -5.840000 19.934753 2.180187 402.147583
1.840000 2.040000 -5.800000 4.102210 -4.221146 34.646194
1.840000 2.080000 -6.200000 17.488922 -11.962334 448.959839
1.840000 2.080000 -6.160000 1.788650 1.832637 6.557828
1.840000 2.080000 -6.120000 -20.225792 -7.189690 460.774323
1.840000 2.080000 -6.080000 -24.795862 -35.198299 1853.755127
1.840000 2.080000 -6.040000 -1.964304 -58.932335 3476.878418
1.840000 2.080000 -6.000000 33.789780 -56.683266 4354.742188
1.840000 2.080000 -5.960000 56.236565 -28.437946 3971.268066
1.840000 2.080000 -5.920000 51.043270 4.595535 2626.534424
1.840000 2.080000 -5.880000 27.309479 20.027672 1146.915283
1.840000 2.080000 -5.840000 6.651607 13.654892 230.699936
1.840000 2.080000 -5.800000 2.228534 -0.264095 5.036111
1.840000 2.120000 -6.200000 15.396955 -0.627919 237.460495
1.840000 2.120000 -6.160000 -0.739405 -0.923811 1.400148
1.840000 2.120000 -6.120000 -6.920482 -18.083368 374.901276
1.840000 2.120000 -6.080000 8.149569 -34.939777 1287.203613
1.840000 2.120000 -6.040000 35.148956 -32.032768 2261.547363
1.840000 2.120000 -6.000000 51.868820 -6.864423 2737.494873
1.840000 2.120000 -5.960000 43.963894 23.033514 2463.366699
1.840000 2.120000 -5.920000 18.094677 36.340820 1648.072632
1.840000 2.120000 -5.880000 -5.263834 27.177048 766.299866
1.840000 2.120000 -5.840000 -11.334763 8.449800 199.875977
1.840000 2.120000 -5.800000 -3.034090 -2.626703 16.105270
1.840000 2.160000 -6.200000 4.689120 1.661716 24.749147
1.840000 2.160000 -6.160000 -1.766152 -8.761716 79.886955
1.840000 2.160000 -6.120000 8.303728 -20.690241 497.037964
1.840000 2.160000 -6.080000 28.784695 -17.179697 1123.700684
1.840000 2.160000 -6.040000 40.772816 5.395921 1691.538452
1.840000 2.160000 -6.000000 30.452894 32.170464 1962.317505
1.840000 2.160000 -5.960000 2.850044 42.857899 1844.922241
1.840000 2.160000 -5.920000 -22.434132 30.320402 1422.617065
1.840000 2.160000 -5.880000 -29.114716 6.344904 887.924500
1.840000 2.160000 -5.840000 -17.903522 -10.454673 429.836304
1.840000 2.160000 -5.800000 -3.131025 -11.655320 145.649796
1.840000 2.200000 -6.200000 -1.781291 -7.633735 61.446903
1.840000 2.200000 -6.160000 4.946054 -17.934059 346.093903
1.840000 2.200000 -6.120000 21.804758 -15.893039 728.036133
1.840000 2.200000 -6.080000 32.507782 3.485065 1068.901489
1.840000 2.200000 -6.040000 23.118053 28.142132 1326.423950
1.840000 2.200000 -6.000000 -3.866429 38.700188 1512.653687
1.840000 2.200000 -5.960000 -30.552422 25.915461 1605.061523
1.840000 2.200000 -5.920000 -39.131405 -1.000638 1532.268066
1.840000 2.200000 -5.880000 -26.856106 -23.037155 1251.960938
1.840000 2.200000 -5.840000 -6.522140 -28.051117 829.403503
1.840000 2.200000 -5.800000 6.711308 -19.276827 416.637695
1.880000 1.800000 -6.200000 46.226639 -4.866098 2160.581055
1.880000 1.800000 -6.160000 52.533562 22.682102 3274.252930
1.880000 1.800000 -6.120000 33.637142 47.530518 3390.607422
1.880000 1.800000 -6.080000 2.822264 49.437805 2452.061768
1.880000 1.800000 -6.040000 -16.021011 29.610939 1133.480469
1.880000 1.800000 -6.000000 -12.479309 8.417645 226.589890
1.880000 1.800000 -5.960000 1.485542 3.459591 14.175605
1.880000 1.800000 -5.920000 6.511320 12.201355 191.270355
1.880000 1.800000 -5.880000 -2.696008 17.384251 309.480621
1.880000 1.800000 -5.840000 -12.967417 7.916939 230.831818
1.880000 1.800000 -5.800000 -9.074995 -8.510157 154.778305
1.880000 1.840000 -6.200000 35.744858 20.670132 1704.949219
1.880000 1.840000 -6.160000 37.079914 40.598652 3023.170410
1.880000 1.840000 -6.120000 23.700117 58.997986 4042.458008
1.880000 1.840000 -6.080000 1.633930 65.988632 4357.169434
1.880000 1.840000 -6.040000 -19.218796 60.435944 4021.865234
1.880000 1.840000 -6.000000 -33.344933 47.539154 3371.855713
1.880000 1.840000 -5.960000 -40.688087 31.903893 2673.378906
1.880000 1.840000 -5.920000 -41.777061 14.998772 1970.286011
1.880000 1.840000 -5.880000 -35.014351 -1.279133 1227.640991
1.880000 1.840000 -5.840000 -20.108912 -11.504951 536.732178
1.880000 1.840000 -5.800000 -2.669093 -10.056562 108.258507
1.880000 1.880000 -6.200000 8.947140 28.613142 898.763245
1.880000 1.880000 -6.160000 15.207685 44.987068 2255.109863
1.880000 1.880000 -6.120000 6.191599 69.694580 4895.670410
1.880000 1.880000 -6.080000 -23.389927 87.638161 8227.536133
1.880000 1.880000 -6.040000 -64.532578 82.792099 11018.985352
1.880000 1.880000 -6.000000 -97.269302 50.556549 12017.282227
1.880000 1.880000 -5.960000 -103.334839 3.376816 10689.492188
1.880000 1.880000 -5.920000 -79.306694 -35.960430 7582.704102
1.880000 1.880000 -5.880000 -39.765751 -49.419514 4023.603271
1.880000 1.880000 -5.840000 -7.235985 -35.829441 1336.108398
1.880000 1.880000 -5.800000 3.563757 -10.447297 121.846390
1.880000 1.920000 -6.200000 -12.670879 12.395575 314.201447
1.880000 1.920000 -6.160000 -1.592880 36.331238 1322.496094
1.880000 1.920000 -6.120000 -19.851246 71.512848 5508.159180
1.880000 1.920000 -6.080000 -70.995697 86.268517 12482.646484
1.880000 1.920000 -6.040000 -128.296417 56.037254 19600.144531
1.880000 1.920000 -6.000000 -152.384796 -12.233467 23370.785156
1.880000 1.920000 -5.960000 -123.230530 -81.159714 21772.662109
1.880000 1.920000 -5.920000 -57.969059 -110.959732 15672.474609
1.880000 1.920000 -5.880000 2.334133 -90.502205 8196.096680
1.880000 1.920000 -5.840000 25.474342 -43.874023 2573.872070
1.880000 1.920000 -5.800000 11.189461 -7.694860 184.414886
1.880000 1.960000 -6.200000 -11.546774 -13.174013 306.882629
1.880000 1.960000 -6.160000 -7.193521 23.613335 609.336365
1.880000 1.960000 -6.120000 -46.556473 57.292526 5449.938477
1.880000 1.960000 -6.080000 -113.292313 46.112343 14961.496094
1.880000 1.960000 -6.040000 -158.539917 -21.593906 25601.203125
1.880000 1.960000 -6.000000 -140.870468 -110.354294 32022.558594
1.880000 1.960000 -5.960000 -64.065147 -163.118362 30711.943359
1.880000 1.960000 -5.920000 23.604195 -148.152130 22506.210938
1.880000 1.960000 -5.880000 69.199402 -84.284973 11892.513672
1.880000 1.960000 -5.840000 57.286758 -21.828619 3758.261230
1.880000 1.960000 -5.800000 16.571781 1.408342 276.607361
1.880000 2.000000 -6.200000 9.358610 -25.378929 731.673584
1.880000 2.000000 -6.160000 -5.167862 15.896561 279.407440
1.880000 2.000000 -6.120000 -61.579155 28.860233 4624.905273
1.880000 2.000000 -6.080000 -118.704437 -17.557360 14399.003906
1.880000 2.000000 -6.040000 -122.453362 -105.022560 26024.564453
1.880000 2.000000 -6.000000 -55.268082 -174.706497 33576.921875
1.880000 2.000000 -5.960000 44.160892 -175.832291 32867.179688
1.880000 2.000000 -5.920000 111.775787 -109.387527 24459.457031
1.880000 2.000000 -5.880000 111.593292 -25.814632 13119.458008
1.880000 2.000000 -5.840000 61.994926 20.174561 4250.383789
1.880000 2.000000 -5.800000 12.649756 13.935479 354.213928
1.880000 2.040000 -6.200000 29.757217 -14.817883 1105.061646
1.880000 2.040000 -6.160000 -3.868467 14.441813 223.530991
1.880000 2.040000 -6.120000 -57.675613 -2.500132 3332.727051
1.880000 2.040000 -6.080000 -80.549355 -68.761337 11216.320312
1.880000 2.040000 -6.040000 -38.370449 -139.727097 20995.953125
1.880000 2.040000 -6.000000 50.675804 -158.310226 27630.164062
1.880000 2.040000 -5.960000 127.673340 -105.418343 27413.507812
1.880000 2.040000 -5.920000 142.612305 -17.487043 20644.066406
1.880000 2.040000 -5.880000 95.633232 45.858330 11248.701172
1.880000 2.040000 -5.840000 31.858892 52.576061 3779.231201
1.880000 2.040000 -5.800000 -2.235126 19.605364 389.366089
1.880000 2.080000 -6.200000 31.722523 6.713135 1051.384644
1.880000 2.080000 -6.160000 -7.397402 13.059092 225.261429
1.880000 2.080000 -6.120000 -38.350208 -23.932318 2043.494385
1.880000 2.080000 -6.080000 -23.231661 -80.694687 7051.342285
1.880000 2.080000 -6.040000 39.466766 -108.700722 13373.472656
1.880000 2.080000 -6.000000 108.297684 -77.431488 17724.023438
1.880000 2.080000 -5.960000 132.962784 -3.597469 17692.042969
1.880000 2.080000 -5.920000 97.805450 62.345299 13452.842773
1.880000 2.080000 -5.880000 33.503201 79.856354 7499.501465
1.880000 2.080000 -5.840000 -12.833339 50.447735 2709.668457
1.880000 2.080000 -5.800000 -18.564642 9.540675 435.670410
1.880000 2.120000 -6.200000 16.017063 18.920208 614.520630
1.880000 2.120000 -6.160000 -11.680913 5.954523 171.900070
1.880000 2.120000 -6.120000 -14.497250 -29.806141 1098.576294
1.880000 2.120000 -6.080000 19.340956 -56.312943 3545.219971
1.880000 2.120000 -6.040000 67.912621 -43.902283 6539.534180
1.880000 2.120000 -6.000000 92.275162 5.913113 8549.669922
1.880000 2.120000 -5.960000 70.774933 59.367714 8533.617188
1.880000 2.120000 -5.920000 18.389652 79.336876 6632.519043
1.880000 2.120000 -5.880000 -27.319057 56.788578 3971.273438
1.880000 2.120000 -5.840000 -39.325256 15.379560 1783.006714
1.880000 2.120000 -5.800000 -21.324829 -13.033021 624.607971
1.880000 2.160000 -6.200000 -0.660093 12.747440 162.932968
1.880000 2.160000 -6.160000 -9.438795 -5.274515 116.911362
1.880000 2.160000 -6.120000 4.110826 -23.613451 574.494019
1.880000 2.160000 -6.080000 31.241604 -21.238701 1427.120239
1.880000 2.160000 -6.040000 47.808105 6.303528 2325.349365
1.880000 2.160000 -6.000000 35.610649 40.406765 2900.824951
1.880000 2.160000 -5.960000 -0.235764 54.589420 2980.060547
1.880000 2.160000 -5.920000 -34.988064 37.613838 2638.965332
1.880000 2.160000 -5.880000 -45.655235 2.646132 2091.402344
1.880000 2.160000 -5.840000 -29.617580 -25.580715 1531.573975
1.880000 2.160000 -5.800000 -3.610995 -32.227158 1051.629028
1.880000 2.200000 -6.200000 -3.312524 -2.619712 17.835705
1.880000 2.200000 -6.160000 1.406149 -12.724325 163.885696
1.880000 2.200000 -6.120000 14.253685 -12.588224 361.630920
1.880000 2.200000 -6.080000 22.080036 1.320387 489.271393
1.880000 2.200000 -6.040000 13.821049 19.108292 556.148193
1.880000 2.200000 -6.000000 -8.445862 24.922268 692.452026
1.880000 2.200000 -5.960000 -29.806072 10.831358 1005.720215
1.880000 2.200000 -5.920000 -34.591682 -15.708208 1443.332275
1.880000 2.200000 -5.880000 -19.256714 -37.838501 1802.573242
1.880000 2.200000 -5.840000 5.602077 -43.021667 1882.247192
1.880000 2.200000 -5.800000 25.056160 -31.800323 1639.071777
1.920000 1.800000 -6.200000 47.971329 41.507454 4024.117188
1.920000 1.800000 -6.160000 25.198275 69.520851 5468.102051
1.920000 1.800000 -6.120000 -14.557028 71.438004 5315.295410
1.920000 1.800000 -6.080000 -41.949890 43.559402 3657.214844
1.920000 1.800000 -6.040000 -38.633606 9.443034 1581.726440
1.920000 1.800000 -6.000000 -15.460815 -3.822880 253.651230
1.920000 1.800000 -5.960000 -0.038010 7.259644 52.703869
1.920000 1.800000 -5.920000 -7.318596 21.068192 497.430542
1.920000 1.800000 -5.880000 -25.029409 15.801090 876.145752
1.920000 1.800000 -5.840000 -28.945845 -6.811800 884.262573
1.920000 1.800000 -5.800000 -10.245511 -24.422842 701.445740
1.920000 1.840000 -6.200000 9.440388 53.777424 2981.132080
1.920000 1.840000 -6.160000 -6.381905 66.204323 4423.740723
1.920000 1.840000 -6.120000 -29.149092 68.050827 5480.584473
1.920000 1.840000 -6.080000 -49.890541 58.031414 5856.710938
1.920000 1.840000 -6.040000 -63.440556 41.151974 5718.188965
1.920000 1.840000 -6.000000 -70.144516 21.759247 5393.717773
1.920000 1.840000 -5.960000 -70.575172 0.415977 4981.027832
1.920000 1.840000 -5.920000 -61.812496 -21.759529 4294.261719
1.920000 1.840000 -5.880000 -41.428455 -38.254044 3179.688721
1.920000 1.840000 -5.840000 -14.565172 -40.121044 1821.842529
1.920000 1.840000 -5.800000 6.025057 -25.359816 679.421570
1.920000 1.880000 -6.200000 -24.297482 32.019608 1615.622803
1.920000 1.880000 -6.160000 -25.291838 47.083675 2856.549561
1.920000 1.880000 -6.120000 -46.349552 65.703156 6465.185547
1.920000 1.880000 -6.080000 -87.611450 66.595901 12110.780273
1.920000 1.880000 -6.040000 -129.387268 34.209854 17911.378906
1.920000 1.880000 -6.000000 -143.701294 -25.423027 21296.392578
1.920000 1.880000 -5.960000 -115.659500 -84.637878 20540.691406
1.920000 1.880000 -5.920000 -57.037807 -112.449196 15898.132812
1.920000 1.880000 -5.880000 0.604847 -97.313095 9470.205078
1.920000 1.880000 -5.840000 28.719448 -55.331352 3886.365234
1.920000 1.880000 -5.800000 21.801559 -16.768297 756.483765
1.920000 1.920000 -6.200000 -27.458107 -6.320736 793.899353
1.920000 1.920000 -6.160000 -26.870491 27.080008 1455.350098
1.920000 1.920000 -6.120000 -69.717789 55.488396 7939.532227
1.920000 1.920000 -6.080000 -138.342209 36.577835 20476.503906
1.920000 1.920000 -6.040000 -181.817383 -40.751740 34718.265625
1.920000 1.920000 -6.000000 -157.019775 -138.600098 43865.195312
1.920000 1.920000 -5.960000 -68.164917 -196.077667 43092.910156
1.920000 1.920000 -5.920000 32.896339 -178.358948 32894.082031
1.920000 1.920000 -5.880000 87.745041 -104.635933 18647.871094
1.920000 1.920000 -5.840000 77.053459 -29.833229 6827.256836
1.920000 1.920000 -5.800000 30.369268 1.941774 926.062988
1.920000 1.960000 -6.200000 0.191574 -29.853746 891.282837
1.920000 1.960000 -6.160000 -19.363903 17.466984 680.056274
1.920000 1.960000 -6.120000 -90.066330 28.930061 8948.892578
1.920000 1.960000 -6.080000 -160.185562 -34.487881 26848.828125
1.920000 1.960000 -6.040000 -160.946106 -149.532837 48263.718750
1.920000 1.960000 -6.000000 -69.432976 -240.662247 62739.253906
1.920000 1.960000 -5.960000 64.765045 -241.387268 62462.324219
1.920000 1.960000 -5.920000 157.614304 -151.512527 47798.316406
1.920000 1.960000 -5.880000 159.765472 -36.504848 26857.609375
1.920000 1.960000 -5.840000 93.075226 29.801819 9551.146484
1.920000 1.960000 -5.800000 23.354362 24.539057 1147.591553
1.920000 2.000000 -6.200000 33.257000 -21.013933 1547.613525
1.920000 2.000000 -6.160000 -14.913726 17.749378 537.459656
1.920000 2.000000 -6.120000 -92.515068 -9.545425 8650.153320
1.920000 2.000000 -6.080000 -125.458069 -109.621155 27756.523438
1.920000 2.000000 -6.040000 -61.427292 -218.363953 51456.128906
1.920000 2.000000 -6.000000 75.555313 -249.723923 68070.640625
1.920000 2.000000 -5.960000 197.997757 -171.211319 68516.429688
1.920000 2.000000 -5.920000 227.229431 -34.436531 52819.089844
1.920000 2.000000 -5.880000 158.282410 69.311073 29857.345703
1.920000 2.000000 -5.840000 57.567551 86.074280 10722.804688
1.920000 2.000000 -5.800000 -0.687504 36.827858 1356.763794
1.920000 2.040000 -6.200000 44.119461 9.315466 2033.304810
1.920000 2.040000 -6.160000 -18.512478 18.656567 690.779297
1.920000 2.040000 -6.120000 -71.356766 -43.237488 6961.268555
1.920000 2.040000 -6.080000 -49.096352 -142.712036 22777.175781
1.920000 2.040000 -6.040000 57.711395 -198.971405 42920.226562
1.920000 2.040000 -6.000000 183.683472 -153.890701 57421.964844
1.920000 2.040000 -5.960000 239.940216 -27.435648 58324.023438
1.920000 2.040000 -5.920000 190.063385 96.299843 45397.750000
1.920000 2.040000 -5.880000 79.159401 140.701782 26063.203125
1.920000 2.040000 -5.840000 -10.022676 98.175095 9738.803711
1.920000 2.040000 -5.800000 -29.255562 25.884235 1525.881592
1.920000 2.080000 -6.200000 27.056692 33.780972 1873.218628
1.920000 2.080000 -6.160000 -24.909975 12.342609 772.846863
1.920000 2.080000 -6.120000 -36.806789 -56.780800 4578.798828
1.920000 2.080000 -6.080000 23.046150 -118.759766 14635.006836
1.920000 2.080000 -6.040000 123.846329 -110.845947 27624.738281
1.920000 2.080000 -6.000000 191.442200 -21.748146 37123.097656
1.920000 2.080000 -5.960000 171.469574 92.543045 37966.031250
1.920000 2.080000 -5.920000 77.526909 154.692657 29940.240234
1.920000 2.080000 -5.880000 -21.827251 131.302933 17716.890625
1.920000 2.080000 -5.840000 -63.792774 56.304916 7239.761719
1.920000 2.080000 -5.800000 -41.054558 -6.433381 1726.865112
1.920000 2.120000 -6.200000 0.461606 34.302586 1176.880493
1.920000 2.120000 -6.160000 -25.239752 -0.179241 637.077148
1.920000 2.120000 -6.120000 -6.600418 -48.742905 2419.436279
1.920000 2.120000 -6.080000 54.034981 -64.309029 7055.430664
1.920000 2.120000 -6.040000 112.052330 -20.213459 12964.308594
1.920000 2.120000 -6.000000 116.682404 60.376862 17260.148438
1.920000 2.120000 -5.960000 57.089584 120.288116 17728.453125
1.920000 2.120000 -5.920000 -26.208488 116.909927 14354.815430
1.920000 2.120000 -5.880000 -76.298477 57.937702 9178.234375
1.920000 2.120000 -5.840000 -67.764816 -8.893459 4671.164062
1.920000 2.120000 -5.800000 -22.655254 -39.857315 2101.866211
1.920000 2.160000 -6.200000 -12.966526 16.381735 436.492035
1.920000 2.160000 -6.160000 -16.128769 -10.783479 376.420593
1.920000 2.160000 -6.120000 8.532549 -30.762812 1019.154968
1.920000 2.160000 -6.080000 44.037308 -19.889740 2334.886230
1.920000 2.160000 -6.040000 58.191498 20.588020 3810.117188
1.920000 2.160000 -6.000000 32.553776 61.162273 4800.572266
1.920000 2.160000 -5.960000 -18.512138 68.113304 4982.121582
1.920000 2.160000 -5.920000 -58.345139 33.372238 4517.861328
1.920000 2.160000 -5.880000 -59.132259 -18.273285 3830.536865
1.920000 2.160000 -5.840000 -24.368113 -51.297592 3225.247803
1.920000 2.160000 -5.800000 17.575851 -49.082455 2717.998047
1.920000 2.200000 -6.200000 -7.096893 -0.147232 50.387573
1.920000 2.200000 -6.160000 -2.677558 -12.393324 160.763794
1.920000 2.200000 -6.120000 10.920753 -15.497261 359.427948
1.920000 2.200000 -6.080000 21.390171 -4.346989 476.435730
1.920000 2.200000 -6.040000 16.428993 12.465839 425.308960
1.920000 2.200000 -6.000000 -3.466171 18.306293 347.134735
1.920000 2.200000 -5.960000 -22.951683 3.446255 538.656372
1.920000 2.200000 -5.920000 -24.094498 -24.696320 1190.453003
1.920000 2.200000 -5.880000 -2.123412 -46.512924 2167.960938
1.920000 2.200000 -5.840000 30.114515 -46.300606 3050.630127
1.920000 2.200000 -5.800000 53.040428 -24.610340 3418.956055
1.960000 1.800000 -6.200000 11.819725 74.531281 5694.617676
1.960000 1.800000 -6.160000 -31.634865 80.352219 7457.243652
1.960000 1.800000 -6.120000 -68.820679 49.634312 7199.850586
1.960000 1.800000 -6.080000 -70.990173 2.175423 5044.336914
1.960000 1.800000 -6.040000 -40.053883 -26.349686 2298.619385
1.960000 1.800000 -6.000000 -7.220509 -19.360283 426.956299
1.960000 1.800000 -5.960000 -1.387932 5.073288 27.664606
1.960000 1.800000 -5.920000 -20.629585 14.541931 637.047546
1.960000 1.800000 -5.880000 -36.641411 -3.504230 1354.872681
1.960000 1.800000 -5.840000 -26.384956 -30.110390 1602.801514
1.960000 1.800000 -5.800000 3.717258 -36.915543 1376.575317
1.960000 1.840000 -6.200000 -34.704140 54.593803 4184.860840
1.960000 1.840000 -6.160000 -56.569000 49.690044 5669.152344
1.960000 1.840000 -6.120000 -74.374084 32.792919 6606.879883
1.960000 1.840000 -6.080000 -81.834061 10.150526 6799.846680
1.960000 1.840000 -6.040000 -80.271957 -11.250275 6570.155762
1.960000 1.840000 -6.000000 -73.827576 -30.137947 6358.806641
1.960000 1.840000 -5.960000 -62.323570 -48.461678 6232.761719
1.960000 1.840000 -5.920000 -41.845161 -63.792137 5820.454102
1.960000 1.840000 -5.880000 -12.999691 -67.612610 4740.457031
1.960000 1.840000 -5.840000 13.870756 -53.688774 3074.882324
1.960000 1.840000 -5.800000 25.096647 -27.634100 1393.485107
1.960000 1.880000 -6.200000 -48.346516 6.899559 2384.989502
1.960000 1.880000 -6.160000 -54.442505 17.708376 3277.572998
1.960000 1.880000 -6.120000 -81.828094 22.402863 7197.725098
1.960000 1.880000 -6.080000 -119.056396 -0.782375 14175.038086
1.960000 1.880000 -6.040000 -137.497345 -56.076675 22050.113281
1.960000 1.880000 -6.000000 -113.149559 -120.732430 27379.140625
1.960000 1.880000 -5.960000 -48.599533 -158.462219 27472.189453
1.960000 1.880000 -5.920000 25.031792 -146.678986 22141.314453
1.960000 1.880000 -5.880000 69.866020 -94.716545 13852.484375
1.960000 1.880000 -5.840000 69.200401 -36.728775 6137.698242
1.960000 1.880000 -5.800000 37.987423 -5.098709 1469.041138
1.960000 1.920000 -6.200000 -20.281639 -31.023067 1373.775635
1.960000 1.920000 -6.160000 -37.355827 2.901541 1403.876831
1.960000 1.920000 -6.120000 -95.527893 5.403820 9154.779297
1.960000 1.920000 -6.080000 -150.041138 -55.351448 25576.126953
1.960000 1.920000 -6.040000 -142.580963 -157.907822 45264.210938
1.960000 1.920000 -6.000000 -54.699837 -236.505478 58926.910156
1.960000 1.920000 -5.960000 69.512527 -233.535797 59370.960938
1.960000 1.920000 -5.920000 155.836884 -148.961853 46474.765625
1.960000 1.920000 -5.880000 159.667419 -40.666939 27147.486328
1.960000 1.920000 -5.840000 99.076218 24.526169 10417.629883
1.960000 1.920000 -5.800000 32.881283 23.627949 1639.458740
1.960000 1.960000 -6.200000 23.975796 -30.739830 1519.775879
1.960000 1.960000 -6.160000 -24.761751 5.639362 644.946777
1.960000 1.960000 -6.120000 -102.614418 -27.044479 11261.123047
1.960000 1.960000 -6.080000 -131.701263 -134.843628 35528.027344
1.960000 1.960000 -6.040000 -57.676411 -249.355560 65504.765625
1.960000 1.960000 -6.000000 92.940414 -279.442108 86725.812500
1.960000 1.960000 -5.960000 226.393768 -191.063705 87759.476562
1.960000 1.960000 -5.920000 258.290588 -39.889561 68305.210938
1.960000 1.960000 -5.880000 182.991364 75.524048 39189.722656
1.960000 1.960000 -5.840000 72.036217 96.017387 14408.554688
1.960000 1.960000 -5.800000 6.715164 43.263763 1916.846558
1.960000 2.000000 -6.200000 47.814774 3.060684 2295.620361
1.960000 2.000000 -6.160000 -25.861200 11.882637 809.998779
1.960000 2.000000 -6.120000 -87.035187 -65.404167 11852.828125
1.960000 2.000000 -6.080000 -55.854958 -187.807449 38391.414062
1.960000 2.000000 -6.040000 79.419922 -256.078430 71883.687500
1.960000 2.000000 -6.000000 238.255554 -198.171967 96037.843750
1.960000 2.000000 -5.960000 310.223328 -38.231613 97700.171875
1.960000 2.000000 -5.920000 249.036621 119.408226 76277.562500
1.960000 2.000000 -5.880000 109.907867 178.323792 43879.113281
1.960000 2.000000 -5.840000 -3.542221 127.447838 16255.498047
1.960000 2.000000 -5.800000 -29.342026 37.697227 2282.035400
1.960000 2.040000 -6.200000 35.447231 39.330490 2803.393555
1.960000 2.040000 -6.160000 -34.087563 8.746029 1238.454956
1.960000 2.040000 -6.120000 -48.683346 -88.322037 10170.850586
1.960000 2.040000 -6.080000 37.540497 -176.304230 32492.470703
1.960000 2.040000 -6.040000 183.252640 -166.024414 61145.636719
1.960000 2.040000 -6.000000 284.005066 -38.946960 82175.742188
1.960000 2.040000 -5.960000 260.457275 127.578461 84114.257812
1.960000 2.040000 -5.920000 128.606293 222.897858 66223.031250
1.960000 2.040000 -5.880000 -15.345348 196.184021 38723.652344
1.960000 2.040000 -5.840000 -80.037445 92.862717 15029.476562
1.960000 2.040000 -5.800000 -51.869743 4.075760 2707.082031
1.960000 2.080000 -6.200000 2.604071 50.096413 2516.431885
1.960000 2.080000 -6.160000 -36.741695 -4.009105 1366.025024
1.960000 2.080000 -6.120000 -6.310425 -82.899689 6912.179688
1.960000 2.080000 -6.080000 94.183418 -110.934097 21176.890625
1.960000 2.080000 -6.040000 194.988800 -41.037045 39704.671875
1.960000 2.080000 -6.000000 211.372025 93.946846 53504.140625
1.960000 2.080000 -5.960000 119.824631 201.921707 55130.316406
1.960000 2.080000 -5.920000 -18.144676 209.037659 44025.972656
1.960000 2.080000 -5.880000 -108.963303 121.549286 26647.230469
1.960000 2.080000 -5.840000 -106.070175 14.361387 11457.130859
1.960000 2.080000 -5.800000 -40.815998 -39.110325 3195.563232
1.960000 2.120000 -6.200000 -21.910145 33.561314 1606.416260
1.960000 2.120000 -6.160000 -28.282612 -16.359360 1067.534790
1.960000 2.120000 -6.120000 18.884874 -56.870438 3590.885010
1.960000 2.120000 -6.080000 92.245369 -39.621639 10079.082031
1.960000 2.120000 -6.040000 129.951385 39.825386 18473.423828
1.960000 2.120000 -6.000000 90.007896 128.972275 24735.269531
1.960000 2.120000 -5.960000 -7.988983 159.909424 25634.847656
1.960000 2.120000 -5.920000 -96.271568 108.500519 21040.578125
1.960000 2.120000 -5.880000 -116.543304 14.846001 13802.745117
1.960000 2.120000 -5.840000 -67.337105 -53.958992 7445.858398
1.960000 2.120000 -5.800000 2.170080 -61.439747 3779.551758
1.960000 2.160000 -6.200000 -23.430304 10.362413 656.358765
1.960000 2.160000 -6.160000 -14.303179 -19.444998 582.688843
1.960000 2.160000 -6.120000 21.393555 -30.299755 1375.759277
1.960000 2.160000 -6.080000 55.932217 -3.163555 3138.420898
1.960000 2.160000 -6.040000 54.379906 47.423714 5206.182617
1.960000 2.160000 -6.000000 8.671425 80.828964 6608.515137
1.960000 2.160000 -5.960000 -50.451279 65.409378 6823.718262
1.960000 2.160000 -5.920000 -77.899399 8.309265 6137.360352
1.960000 2.160000 -5.880000 -53.168159 -49.552338 5282.287109
1.960000 2.160000 -5.840000 3.242493 -68.839821 4749.434570
1.960000 2.160000 -5.800000 50.410427 -43.573002 4439.817383
1.960000 2.200000 -6.200000 -10.938305 0.284786 119.727615
1.960000 2.200000 -6.160000 -4.286100 -13.627634 204.083054
1.960000 2.200000 -6.120000 12.825682 -16.758816 445.356018
1.960000 2.200000 -6.080000 25.657776 -3.317337 669.326172
1.960000 2.200000 -6.040000 20.181892 15.607001 650.887268
1.960000 2.200000 -6.000000 -1.089088 20.319008 414.048218
1.960000 2.200000 -5.960000 -18.418587 1.735794 342.257294
1.960000 2.200000 -5.920000 -12.032210 -27.674225 910.636841
1.960000 2.200000 -5.880000 18.908813 -43.319435 2234.116699
1.960000 2.200000 -5.840000 54.372917 -29.968552 3854.528076
1.960000 2.200000 -5.800000 70.567734 5.291674 5007.807129
2.000000 1.800000 -6.200000 -36.647221 69.344803 6151.720703
2.000000 1.800000 -6.160000 -77.947861 44.901340 8091.999512
2.000000 1.800000 -6.120000 -89.650078 -6.829491 8083.778320
2.000000 1.800000 -6.080000 -59.609169 -50.279285 6081.259766
2.000000 1.800000 -6.040000 -12.158173 -55.227497 3197.897461
2.000000 1.800000 -6.000000 14.333342 -26.291763 896.701538
2.000000 1.800000 -5.960000 4.550255 2.391808 26.425562
2.000000 1.800000 -5.920000 -20.548706 2.069244 426.531097
2.000000 1.800000 -5.880000 -27.616573 -22.771353 1281.209595
2.000000 1.800000 -5.840000 -5.831564 -42.063511 1803.346069
2.000000 1.800000 -5.800000 23.888664 -33.506218 1693.334961
2.000000 1.840000 -6.200000 -63.702267 22.011684 4542.493164
2.000000 1.840000 -6.160000 -77.498848 1.700199 6008.961914
2.000000 1.840000 -6.120000 -78.946648 -24.927773 6853.967285
2.000000 1.840000 -6.080000 -67.547104 -47.811565 6848.557129
2.000000 1.840000 -6.040000 -50.354458 -61.646706 6335.887695
2.000000 1.840000 -6.000000 -33.349213 -69.041855 5878.947754
2.000000 1.840000 -5.960000 -15.645638 -73.897217 5705.584961
2.000000 1.840000 -5.920000 6.155060 -73.948990 5506.337891
2.000000 1.840000 -5.880000 29.193920 -62.662239 4778.841309
2.000000 1.840000 -5.840000 43.048580 -39.052460 3378.274902
2.000000 1.840000 -5.800000 39.378410 -13.342421 1728.679321
2.000000 1.880000 -6.200000 -44.058212 -27.216116 2681.843018
2.000000 1.880000 -6.160000 -52.284061 -22.114067 3222.655029
2.000000 1.880000 -6.120000 -75.146477 -32.911476 6730.158203
2.000000 1.880000 -6.080000 -91.088593 -71.625603 13427.359375
2.000000 1.880000 -6.040000 -74.132523 -125.791283 21319.078125
2.000000 1.880000 -6.000000 -17.557404 -163.319717 26981.591797
2.000000 1.880000 -5.960000 55.829193 -156.339828 27559.041016
2.000000 1.880000 -5.920000 108.031326 -104.607376 22613.470703
2.000000 1.880000 -5.880000 114.158516 -37.502468 14438.601562
2.000000 1.880000 -5.840000 80.777924 8.065525 6590.125488
2.000000 1.880000 -5.800000 38.678276 15.157291 1725.752563
2.000000 1.920000 -6.200000 4.255843 -40.577744 1664.665405
2.000000 1.920000 -6.160000 -28.094700 -19.410439 1166.077271
2.000000 1.920000 -6.120000 -78.808685 -48.536072 8566.559570
2.000000 1.920000 -6.080000 -90.899483 -129.993896 25161.128906
2.000000 1.920000 -6.040000 -26.513359 -211.954620 45627.718750
2.000000 1.920000 -6.000000 92.306366 -227.642792 60341.707031
2.000000 1.920000 -5.960000 194.797928 -153.584076 61534.304688
2.000000 1.920000 -5.920000 218.120270 -32.878983 48657.480469
2.000000 1.920000 -5.880000 158.495880 59.568348 28669.332031
2.000000 1.920000 -5.840000 70.455582 78.195312 11078.496094
2.000000 1.920000 -5.800000 16.987562 38.600029 1778.539551
2.000000 1.960000 -6.200000 40.936562 -11.602461 1810.419189
2.000000 1.960000 -6.160000 -22.446896 -5.991146 539.756958
2.000000 1.960000 -6.120000 -72.391891 -77.683517 11275.314453
2.000000 1.960000 -6.080000 -37.156548 -187.454590 36519.832031
2.000000 1.960000 -6.040000 91.605438 -244.451828 68148.250000
2.000000 1.960000 -6.000000 238.534973 -184.521027 90946.937500
2.000000 1.960000 -5.960000 302.623596 -32.045589 92607.960938
2.000000 1.960000 -5.920000 242.906921 115.979202 72454.953125
2.000000 1.960000 -5.880000 111.727692 171.019348 41730.695312
2.000000 1.960000 -5.840000 5.430994 123.749184 15343.356445
2.000000 1.960000 -5.800000 -18.560732 40.682983 1999.605835
2.000000 2.000000 -6.200000 39.246811 31.552732 2535.887207
2.000000 2.000000 -6.160000 -31.235130 -1.855392 979.075867
2.000000 2.000000 -6.120000 -42.162724 -104.398888 12676.823242
2.000000 2.000000 -6.080000 53.861130 -194.761002 40832.867188
2.000000 2.000000 -6.040000 211.077011 -178.675583 76478.468750
2.000000 2.000000 -6.000000 317.609192 -38.227833 102336.968750
2.000000 2.000000 -5.960000 289.835815 142.545609 104324.046875
2.000000 2.000000 -5.920000 146.476318 245.319275 81636.859375
2.000000 2.000000 -5.880000 -8.619349 216.804901 47078.656250
2.000000 2.000000 -5.840000 -77.835152 106.890732 17483.939453
2.000000 2.000000 -5.800000 -47.628471 13.940512 2462.809082
2.000000 2.040000 -6.200000 6.962136 53.778244 2940.571045
2.000000 2.040000 -6.160000 -37.580063 -12.054816 1557.579712
2.000000 2.040000 -6.120000 3.275570 -106.476166 11347.903320
2.000000 2.040000 -6.080000 128.690582 -137.055359 35345.437500
2.000000 2.040000 -6.040000 252.570618 -47.230106 66022.601562
2.000000 2.040000 -6.000000 271.499451 121.620056 88503.390625
2.000000 2.040000 -5.960000 157.674454 256.297272 90549.523438
2.000000 2.040000 -5.920000 -12.824608 266.843140 71369.726562
2.000000 2.040000 -5.880000 -125.445518 161.717194 41889.031250
2.000000 2.040000 -5.840000 -123.926468 33.051098 16450.144531
2.000000 2.040000 -5.800000 -47.648094 -29.677744 3151.109375
2.000000 2.080000 -6.200000 -25.619320 43.512672 2549.702148
2.000000 2.080000 -6.160000 -30.938498 -25.346928 1599.657349
2.000000 2.080000 -6.120000 38.732708 -79.195381 7772.130859
2.000000 2.080000 -6.080000 143.826675 -50.268471 23213.033203
2.000000 2.080000 -6.040000 196.732269 66.677856 43149.523438
2.000000 2.080000 -6.000000 138.616119 196.792786 57941.828125
2.000000 2.080000 -5.960000 -2.324028 244.192505 59635.382812
2.000000 2.080000 -5.920000 -130.483322 175.106888 47688.320312
2.000000 2.080000 -5.880000 -164.195404 45.942890 29070.880859
2.000000 2.080000 -5.840000 -101.797485 -49.665257 12829.365234
2.000000 2.080000 -5.800000 -12.137128 -61.727894 3957.642578
2.000000 2.120000 -6.200000 -35.743240 17.779840 1593.701904
2.000000 2.120000 -6.160000 -16.266254 -28.924900 1101.240845
2.000000 2.120000 -6.120000 46.146576 -41.220646 3828.648193
2.000000 2.120000 -6.080000 103.469391 11.301819 10833.646484
2.000000 2.120000 -6.040000 97.350159 102.258614 19933.878906
2.000000 2.120000 -6.000000 15.598030 162.761353 26734.556641
2.000000 2.120000 -5.960000 -89.581345 140.323288 27715.441406
2.000000 2.120000 -5.920000 -143.403564 47.144466 22787.183594
2.000000 2.120000 -5.880000 -112.397141 -49.742737 15107.457031
2.000000 2.120000 -5.840000 -29.832924 -87.135651 8482.625000
2.000000 2.120000 -5.800000 39.348923 -56.444508 4734.320312
2.000000 2.160000 -6.200000 -25.989868 0.635918 675.877686
2.000000 2.160000 -6.160000 -5.908695 -21.830425 511.480164
2.000000 2.160000 -6.120000 30.796074 -16.747326 1228.871094
2.000000 2.160000 -6.080000 50.784653 22.641956 3091.739258
2.000000 2.160000 -6.040000 27.428116 68.261604 5411.948242
2.000000 2.160000 -6.000000 -29.394943 78.469795 7021.571289
2.000000 2.160000 -5.960000 -76.674347 36.994034 7247.514160
2.000000 2.160000 -5.920000 -74.874001 -28.977005 6445.782715
2.000000 2.160000 -5.880000 -23.360443 -70.949165 5579.494629
2.000000 2.160000 -5.840000 39.707848 -60.859955 5280.647461
2.000000 2.160000 -5.800000 71.995079 -12.486092 5339.193848
2.000000 2.200000 -6.200000 -15.031177 -0.370489 226.073532
2.000000 2.200000 -6.160000 -5.443460 -13.756354 218.868546
2.000000 2.200000 -6.120000 13.591917 -13.533638 367.899567
2.000000 2.200000 -6.080000 24.517326 3.413126 612.748718
2.000000 2.200000 -6.040000 15.121700 21.615002 695.874084
2.000000 2.200000 -6.000000 -6.347496 21.144760 487.391602
2.000000 2.200000 -5.960000 -16.697445 -1.129074 280.079468
2.000000 2.200000 -5.920000 -0.104279 -25.718395 661.446716
2.000000 2.200000 -5.880000 35.133095 -27.453987 1988.055786
2.000000 2.200000 -5.840000 62.774345 1.054382 3941.730225
2.000000 2.200000 -5.800000 61.786114 42.684883 5639.523438
2.040000 1.800000 -6.200000 -63.249153 32.470474 5054.787109
2.040000 1.800000 -6.160000 -82.241135 -10.309788 6869.895508
2.040000 1.800000 -6.120000 -62.473206 -58.723179 7351.312988
2.040000 1.800000 -6.080000 -12.949394 -77.660278 6198.805664
2.040000 1.800000 -6.040000 30.620907 -54.927242 3954.641846
2.040000 1.800000 -6.000000 38.517326 -13.867149 1675.882324
2.040000 1.800000 -5.960000 14.537483 9.090164 293.969513
2.040000 1.800000 -5.920000 -9.921059 -0.714424 98.937805
2.040000 1.800000 -5.880000 -8.521210 -24.541210 674.882019
2.040000 1.800000 -5.840000 14.931763 -32.546989 1282.264038
2.040000 1.800000 -5.800000 33.971687 -15.181811 1384.562988
2.040000 1.840000 -6.200000 -58.522408 -18.093380 3752.242432
2.040000 1.840000 -6.160000 -57.064548 -42.703583 5079.958984
2.040000 1.840000 -6.120000 -41.107788 -65.061378 5922.833008
2.040000 1.840000 -6.080000 -16.083748 -75.332275 5933.638672
2.040000 1.840000 -6.040000 7.355434 -72.249527 5274.096680
2.040000 1.840000 -6.000000 23.238564 -62.664524 4466.873535
2.040000 1.840000 -5.960000 33.861488 -52.842377 3938.917236
2.040000 1.840000 -5.920000 43.537857 -42.170330 3673.881836
2.040000 1.840000 -5.880000 50.882927 -26.673714 3300.559326
2.040000 1.840000 -5.840000 49.615921 -7.501488 2518.011719
2.040000 1.840000 -5.800000 37.317497 6.851183 1439.534302
2.040000 1.880000 -6.200000 -17.077618 -44.298725 2254.021973
2.040000 1.880000 -6.160000 -24.177467 -44.737705 2586.012207
2.040000 1.880000 -6.120000 -33.445343 -63.802250 5189.317871
2.040000 1.880000 -6.080000 -23.441996 -98.387634 10229.654297
2.040000 1.880000 -6.040000 17.031830 -126.142372 16201.981445
2.040000 1.880000 -6.000000 75.486664 -121.732239 20516.974609
2.040000 1.880000 -5.960000 121.793213 -78.485184 20993.511719
2.040000 1.880000 -5.920000 130.358292 -16.339920 17260.277344
2.040000 1.880000 -5.880000 100.073181 31.933472 11034.388672
2.040000 1.880000 -5.840000 54.772766 45.196815 5042.808105
2.040000 1.880000 -5.800000 23.911703 28.371811 1376.729248
2.040000 1.920000 -6.200000 25.954754 -27.785030 1445.657227
2.040000 1.920000 -6.160000 -9.051331 -26.995283 810.671875
2.040000 1.920000 -6.120000 -32.448799 -73.518814 6457.940430
2.040000 1.920000 -6.080000 -0.567413 -139.538727 19471.378906
2.040000 1.920000 -6.040000 88.125618 -167.133102 35699.597656
2.040000 1.920000 -6.000000 183.086533 -118.281723 47511.246094
2.040000 1.920000 -5.960000 220.212173 -12.075211 48639.214844
2.040000 1.920000 -5.920000 175.653976 87.496750 38510.000000
2.040000 1.920000 -5.880000 85.428101 123.725937 22606.068359
2.040000 1.920000 -5.840000 13.051666 91.746902 8587.839844
2.040000 1.920000 -5.800000 -3.708540 35.975399 1307.982666
2.040000 1.960000 -6.200000 37.071663 13.340694 1552.282349
2.040000 1.960000 -6.160000 -15.163153 -13.649200 416.221863
2.040000 1.960000 -6.120000 -18.144203 -93.320335 9037.896484
2.040000 1.960000 -6.080000 63.053524 -159.424835 29392.023438
2.040000 1.960000 -6.040000 188.966873 -138.562225 54907.968750
2.040000 1.960000 -6.000000 270.004089 -19.979786 73301.406250
2.040000 1.960000 -5.960000 241.912643 126.846237 74611.695312
2.040000 1.960000 -5.920000 122.802780 207.793045 58258.472656
2.040000 1.960000 -5.880000 -2.774765 182.581940 33343.863281
2.040000 1.960000 -5.840000 -57.310585 93.436440 12014.871094
2.040000 1.960000 -5.800000 -31.707254 20.173599 1412.324097
2.040000 2.000000 -6.200000 12.932062 43.616852 2069.667969
2.040000 2.000000 -6.160000 -25.459007 -17.445255 952.498047
2.040000 2.000000 -6.120000 16.537010 -102.431313 10765.646484
2.040000 2.000000 -6.080000 135.141571 -125.129616 33920.664062
2.040000 2.000000 -6.040000 248.377487 -35.506668 62952.097656
2.040000 2.000000 -6.000000 261.115265 124.833687 83764.625000
2.040000 2.000000 -5.960000 150.610565 249.642303 85004.828125
2.040000 2.000000 -5.920000 -9.854143 257.094910 66194.890625
2.040000 2.000000 -5.880000 -113.685257 158.022491 37895.445312
2.040000 2.000000 -5.840000 -110.759140 39.882614 13858.209961
2.040000 2.000000 -5.800000 -40.399506 -14.650017 1846.742920
2.040000 2.040000 -6.200000 -21.172707 42.850204 2284.423584
2.040000 2.040000 -6.160000 -23.400337 -29.942230 1444.113037
2.040000 2.040000 -6.120000 54.277725 -83.465279 9912.524414
2.040000 2.040000 -6.080000 166.627365 -46.525257 29929.279297
2.040000 2.040000 -6.040000 219.462128 83.202255 55086.242188
2.040000 2.040000 -6.000000 152.370209 223.442810 73143.367188
2.040000 2.040000 -5.960000 -1.328079 272.523499 74270.820312
2.040000 2.040000 -5.920000 -138.482407 197.379395 58136.000000
2.040000 2.040000 -5.880000 -173.822144 60.673187 33895.371094
2.040000 2.040000 -5.840000 -108.718430 -37.918968 13257.544922
2.040000 2.040000 -5.800000 -18.323425 -47.877388 2627.992188
2.040000 2.080000 -6.200000 -38.306870 20.361687 1882.014526
2.040000 2.080000 -6.160000 -9.824261 -34.654568 1297.455200
2.040000 2.080000 -6.120000 69.362099 -43.299591 6685.955078
2.040000 2.080000 -6.080000 137.299438 28.714518 19675.660156
2.040000 2.080000 -6.040000 123.283447 144.722412 36143.382812
2.040000 2.080000 -6.000000 16.344543 218.633835 48067.898438
2.040000 2.080000 -5.960000 -116.238998 188.486053 49038.496094
2.040000 2.080000 -5.920000 -183.246567 72.982178 38905.703125
2.040000 2.080000 -5.880000 -147.112289 -44.482906 23620.753906
2.040000 2.080000 -5.840000 -51.393845 -89.062538 10573.462891
2.040000 2.080000 -5.800000 25.204998 -54.327381 3586.756348
2.040000 2.120000 -6.200000 -33.582962 -0.045622 1127.817383
2.040000 2.120000 -6.160000 1.078106 -26.391933 697.696472
2.040000 2.120000 -6.120000 53.804214 -8.277039 2963.402832
2.040000 2.120000 -6.080000 74.389610 57.504333 8840.562500
2.040000 2.120000 -6.040000 28.729324 125.010590 16453.021484
2.040000 2.120000 -6.000000 -62.338909 134.761322 22046.753906
2.040000 2.120000 -5.960000 -134.121613 68.689079 22706.796875
2.040000 2.120000 -5.920000 -132.822998 -29.680641 18522.890625
2.040000 2.120000 -5.880000 -62.423664 -91.644455 12295.419922
2.040000 2.120000 -5.840000 21.303699 -81.974754 7173.708008
2.040000 2.120000 -5.800000 62.192078 -23.979626 4442.876953
2.040000 2.160000 -6.200000 -22.503502 -5.523404 536.915588
2.040000 2.160000 -6.160000 -0.371050 -15.599626 243.485992
2.040000 2.160000 -6.120000 25.301914 1.077040 641.346924
2.040000 2.160000 -6.080000 25.653809 38.166565 2114.804688
2.040000 2.160000 -6.040000 -9.992004 63.465561 4127.717773
2.040000 2.160000 -6.000000 -57.545700 47.698425 5586.647461
2.040000 2.160000 -5.960000 -76.070564 -4.733772 5809.139648
2.040000 2.160000 -5.920000 -45.168396 -55.541714 5125.065918
2.040000 2.160000 -5.880000 14.987396 -65.324081 4491.857910
2.040000 2.160000 -5.840000 61.223190 -27.905682 4527.005859
2.040000 2.160000 -5.800000 65.094971 26.776062 4954.312500
2.040000 2.200000 -6.200000 -19.874569 -3.434180 406.792084
2.040000 2.200000 -6.160000 -8.567736 -14.827679 293.266174
2.040000 2.200000 -6.120000 9.076849 -11.264952 209.288330
2.040000 2.200000 -6.080000 15.682549 5.726141 278.731018
2.040000 2.200000 -6.040000 4.423794 18.836426 374.380890
2.040000 2.200000 -6.000000 -11.603887 13.125519 306.929443
2.040000 2.200000 -5.960000 -11.668808 -6.564125 179.248825
2.040000 2.200000 -5.920000 10.627663 -18.356495 449.908112
2.040000 2.200000 -5.880000 38.923817 -4.455115 1534.911499
2.040000 2.200000 -5.840000 48.506027 30.854246 3304.819336
2.040000 2.200000 -5.800000 28.981611 64.673683 5022.618652
2.080000 1.800000 -6.200000 -54.561768 -6.058018 3013.686035
2.080000 1.800000 -6.160000 -47.780785 -45.646427 4366.599609
2.080000 1.800000 -6.120000 -10.198275 -71.693504 5243.963379
2.080000 1.800000 -6.080000 36.453842 -62.278839 5207.536133
2.080000 1.800000 -6.040000 60.204567 -23.274273 4166.281738
2.080000 1.800000 -6.000000 47.776535 15.318696 2517.259766
2.080000 1.800000 -5.960000 16.274857 26.589594 971.877441
2.080000 1.800000 -5.920000 -4.287487 10.464333 127.884804
2.080000 1.800000 -5.880000 0.358123 -9.487282 90.136765
2.080000 1.800000 -5.840000 17.897976 -11.568666 454.171600
2.080000 1.800000 -5.800000 25.771185 3.330608 675.246948
2.080000 1.840000 -6.200000 -29.240864 -37.166992 2236.413330
2.080000 1.840000 -6.160000 -15.961475 -54.689857 3245.749268
2.080000 1.840000 -6.120000 8.366783 -63.278954 4074.229248
2.080000 1.840000 -6.080000 34.250969 -56.161552 4327.249023
2.080000 1.840000 -6.040000 50.246582 -37.025112 3895.577881
2.080000 1.840000 -6.000000 52.646004 -16.599979 3047.161133
2.080000 1.840000 -5.960000 47.051964 -2.856644 2222.047607
2.080000 1.840000 -5.920000 40.960747 4.510315 1698.125610
2.080000 1.840000 -5.880000 36.303841 10.195103 1421.908936
2.080000 1.840000 -5.840000 30.068695 15.723923 1151.368164
2.080000 1.840000 -5.800000 21.089645 17.595833 754.386475
2.080000 1.880000 -6.200000 9.061063 -35.415417 1336.354614
2.080000 1.880000 -6.160000 5.763140 -39.378746 1583.899414
2.080000 1.880000 -6.120000 10.762614 -55.145573 3156.868164
2.080000 1.880000 -6.080000 34.558517 -69.737213 6057.569824
2.080000 1.880000 -6.040000 71.791435 -64.973274 9375.537109
2.080000 1.880000 -6.000000 102.684364 -33.410442 11660.336914
2.080000 1.880000 -5.960000 107.571136 13.334251 11749.352539
2.080000 1.880000 -5.920000 82.646851 51.750443 9508.610352
2.080000 1.880000 -5.880000 43.503281 63.717163 5952.412109
2.080000 1.880000 -5.840000 13.294809 49.530575 2630.029785
2.080000 1.880000 -5.800000 5.566204 26.141321 714.351257
2.080000 1.920000 -6.200000 28.630566 -5.637764 851.493652
2.080000 1.920000 -6.160000 5.334257 -20.551704 450.826843
2.080000 1.920000 -6.120000 11.081038 -60.541344 3788.043701
2.080000 1.920000 -6.080000 60.690464 -87.911575 11411.777344
2.080000 1.920000 -6.040000 128.717621 -65.536560 20863.267578
2.080000 1.920000 -6.000000 166.270645 7.455902 27701.517578
2.080000 1.920000 -5.960000 141.989410 90.113312 28281.402344
2.080000 1.920000 -5.920000 70.028473 131.783829 22270.962891
2.080000 1.920000 -5.880000 -1.418411 113.547180 12894.973633
2.080000 1.920000 -5.840000 -30.567907 61.390511 4703.191406
2.080000 1.920000 -5.800000 -14.249016 20.462145 621.733826
2.080000 1.960000 -6.200000 17.050465 24.591831 895.476562
2.080000 1.960000 -6.160000 -6.064283 -16.515820 309.547852
2.080000 1.960000 -6.120000 26.539425 -70.556625 5682.578125
2.080000 1.960000 -6.080000 108.439865 -78.912674 17986.414062
2.080000 1.960000 -6.040000 181.783203 -10.998447 33166.097656
2.080000 1.960000 -6.000000 183.511093 101.140038 43905.628906
2.080000 1.960000 -5.960000 102.045128 184.299530 44379.523438
2.080000 1.960000 -5.920000 -9.793835 185.113571 34362.953125
2.080000 1.960000 -5.880000 -79.327408 114.364784 19372.140625
2.080000 1.960000 -5.840000 -74.626160 33.724010 6706.372070
2.080000 1.960000 -5.800000 -25.214622 -0.574049 636.106689
2.080000 2.000000 -6.200000 -10.496120 32.115044 1141.544556
2.080000 2.000000 -6.160000 -9.572475 -25.490242 741.384705
2.080000 2.000000 -6.120000 54.927814 -64.365997 7160.045898
2.080000 2.000000 -6.080000 143.744659 -29.218908 21516.271484
2.080000 2.000000 -6.040000 181.352936 78.260750 39013.632812
2.080000 2.000000 -6.000000 122.288620 190.164032 51116.867188
2.080000 2.000000 -5.960000 -3.527690 226.283951 51216.871094
2.080000 2.000000 -5.920000 -112.618988 163.333374 39360.828125
2.080000 2.000000 -5.880000 -138.631546 53.987534 22133.359375
2.080000 2.000000 -5.840000 -85.682625 -21.895784 7820.937500
2.080000 2.000000 -5.800000 -15.911097 -26.033978 930.931030
2.080000 2.040000 -6.200000 -29.472883 17.644567 1179.981567
2.080000 2.040000 -6.160000 0.042357 -31.328592 981.482483
2.080000 2.040000 -6.120000 74.265060 -34.333595 6694.095215
2.080000 2.040000 -6.080000 134.011093 37.128372 19337.488281
2.080000 2.040000 -6.040000 115.667145 145.863373 34655.011719
2.080000 2.040000 -6.000000 12.749668 212.014954 45112.894531
2.080000 2.040000 -5.960000 -110.420731 181.162750 45012.679688
2.080000 2.040000 -5.920000 -170.769012 73.826721 34612.437500
2.080000 2.040000 -5.880000 -136.917404 -32.200638 19783.255859
2.080000 2.040000 -5.840000 -51.647106 -70.103012 7581.855469
2.080000 2.040000 -5.800000 12.642143 -37.469852 1563.813721
2.080000 2.080000 -6.200000 -29.927311 -0.316909 895.744324
2.080000 2.080000 -6.160000 10.573570 -24.011757 688.364868
2.080000 2.080000 -6.120000 65.715927 2.396534 4324.326172
2.080000 2.080000 -6.080000 81.424652 77.333115 12610.384766
2.080000 2.080000 -6.040000 25.235390 148.682922 22743.435547
2.080000 2.080000 -6.000000 -76.027550 154.595871 29680.070312
2.080000 2.080000 -5.960000 -152.392059 80.353760 29680.066406
2.080000 2.080000 -5.920000 -149.806122 -24.658691 23049.925781
2.080000 2.080000 -5.880000 -76.677429 -88.612305 13731.568359
2.080000 2.080000 -5.840000 6.626419 -78.391296 6189.104980
2.080000 2.080000 -5.800000 43.610626 -22.234369 2396.253906
2.080000 2.120000 -6.200000 -21.789789 -7.425031 529.926025
2.080000 2.120000 -6.160000 8.582728 -11.160482 198.219589
2.080000 2.120000 -6.120000 34.766411 19.474571 1587.962280
2.080000 2.120000 -6.080000 23.025173 68.950653 5284.351074
2.080000 2.120000 -6.040000 -32.362484 94.771378 10028.944336
2.080000 2.120000 -6.000000 -95.466454 65.312561 13379.574219
2.080000 2.120000 -5.960000 -116.227730 -6.903503 13556.542969
2.080000 2.120000 -5.920000 -75.285294 -71.781837 10820.507812
2.080000 2.120000 -5.880000 -2.338703 -84.322655 7115.779785
2.080000 2.120000 -5.840000 50.530842 -42.733803 4379.543945
2.080000 2.120000 -5.800000 54.233299 14.300404 3145.752197
2.080000 2.160000 -6.200000 -19.103851 -6.757058 410.614960
2.080000 2.160000 -6.160000 -3.894151 -8.362281 85.092148
2.080000 2.160000 -6.120000 7.197588 7.716381 111.347809
2.080000 2.160000 -6.080000 -3.170601 29.559029 883.788879
2.080000 2.160000 -6.040000 -32.443413 32.895123 2134.664062
2.080000 2.160000 -6.000000 -55.420063 6.263603 3110.615967
2.080000 2.160000 -5.960000 -46.612286 -33.455559 3291.979492
2.080000 2.160000 -5.920000 -6.184143 -53.494770 2899.934082
2.080000 2.160000 -5.880000 37.671631 -34.930878 2639.317871
2.080000 2.160000 -5.840000 53.380104 9.884356 2947.135986
2.080000 2.160000 -5.800000 33.275787 49.420013 3549.615723
2.080000 2.200000 -6.200000 -22.876911 -10.804037 640.080322
2.080000 2.200000 -6.160000 -11.195034 -20.278717 536.555176
2.080000 2.200000 -6.120000 3.860521 -15.930872 268.696289
2.080000 2.200000 -6.080000 8.448023 -2.358879 76.933395
2.080000 2.200000 -6.040000 0.818143 5.919701 35.712212
2.080000 2.200000 -6.000000 -6.364376 1.172260 41.879478
2.080000 2.200000 -5.960000 -0.271172 -7.962603 63.476578
2.080000 2.200000 -5.920000 16.820251 -5.117208 309.106689
2.080000 2.200000 -5.880000 28.272205 15.953651 1053.836548
2.080000 2.200000 -5.840000 19.342049 43.599068 2274.993408
2.080000 2.200000 -5.800000 -8.272561 58.756443 3520.754883
2.120000 1.800000 -6.200000 -26.279547 -20.562435 1113.428345
2.120000 1.800000 -6.160000 -6.700249 -42.368904 1840.017334
2.120000 1.800000 -6.120000 27.739321 -44.429382 2743.439941
2.120000 1.800000 -6.080000 55.702003 -19.523226 3483.869385
2.120000 1.800000 -6.040000 57.438736 18.262135 3632.714111
2.120000 1.800000 -6.000000 32.716660 43.983833 3004.957520
2.120000 1.800000 -5.960000 1.339275 43.124222 1861.492188
2.120000 1.800000 -5.920000 -14.739777 23.161880 753.733765
2.120000 1.800000 -5.880000 -10.142092 4.484449 122.972305
2.120000 1.800000 -5.840000 2.327616 0.501548 5.669345
2.120000 1.800000 -5.800000 7.251844 7.098560 102.978806
2.120000 1.840000 -6.200000 -2.654372 -28.385141 812.761963
2.120000 1.840000 -6.160000 12.919401 -34.780495 1376.593750
2.120000 1.840000 -6.120000 33.793030 -30.065674 2045.913574
2.120000 1.840000 -6.080000 49.164909 -11.587208 2551.451660
2.120000 1.840000 -6.040000 49.632763 12.762663 2626.296631
2.120000 1.840000 -6.000000 35.766045 30.376871 2201.964355
2.120000 1.840000 -5.960000 17.474607 34.284454 1480.785767
2.120000 1.840000 -5.920000 5.109951 27.755314 796.468994
2.120000 1.840000 -5.880000 1.552597 19.320240 375.682220
2.120000 1.840000 -5.840000 2.667688 14.363367 213.422882
2.120000 1.840000 -5.800000 4.031619 12.145777 163.773849
2.120000 1.880000 -6.200000 15.873018 -14.430787 460.200317
2.120000 1.880000 -6.160000 17.129570 -18.592867 639.116882
2.120000 1.880000 -6.120000 28.444319 -23.519506 1362.246460
2.120000 1.880000 -6.080000 47.282112 -17.897459 2555.917236
2.120000 1.880000 -6.040000 61.683620 2.938267 3813.502441
2.120000 1.880000 -6.000000 59.779827 31.590881 4571.611328
2.120000 1.880000 -5.960000 39.819550 53.383247 4435.367676
2.120000 1.880000 -5.920000 12.153591 57.307938 3431.909424
2.120000 1.880000 -5.880000 -8.327637 44.056007 2010.281250
2.120000 1.880000 -5.840000 -12.808354 24.838945 781.027161
2.120000 1.880000 -5.800000 -3.855476 12.688630 175.866028
2.120000 1.920000 -6.200000 14.942045 6.432590 264.642944
2.120000 1.920000 -6.160000 8.790316 -10.628223 190.228775
2.120000 1.920000 -6.120000 27.468651 -28.730503 1579.968628
2.120000 1.920000 -6.080000 63.184166 -23.221436 4531.473633
2.120000 1.920000 -6.040000 88.725212 14.205059 8073.946777
2.120000 1.920000 -6.000000 79.656273 64.949554 10563.566406
2.120000 1.920000 -5.960000 36.347942 96.728516 10677.578125
2.120000 1.920000 -5.920000 -14.727352 89.974243 8312.258789
2.120000 1.920000 -5.880000 -42.373165 53.851719 4695.492676
2.120000 1.920000 -5.840000 -35.709152 17.511408 1581.792969
2.120000 1.920000 -5.800000 -10.665291 5.124826 140.012268
2.120000 1.960000 -6.200000 -0.422009 16.001743 256.233887
2.120000 1.960000 -6.160000 2.817379 -14.932793 230.925919
2.120000 1.960000 -6.120000 40.224190 -31.957514 2639.268066
2.120000 1.960000 -6.080000 87.071419 -6.957313 7629.836426
2.120000 1.960000 -6.040000 102.133408 55.290802 13488.306641
2.120000 1.960000 -6.000000 63.676682 115.558266 17408.433594
2.120000 1.960000 -5.960000 -8.561016 131.150955 17273.863281
2.120000 1.960000 -5.920000 -67.773392 92.426041 13135.805664
2.120000 1.960000 -5.880000 -79.061600 30.842934 7202.022949
2.120000 1.960000 -5.840000 -47.272400 -9.104506 2317.571777
2.120000 1.960000 -5.800000 -8.732784 -7.532336 132.997604
2.120000 2.000000 -6.200000 -13.997135 10.229051 300.553284
2.120000 2.000000 -6.160000 7.784456 -20.186584 468.095947
2.120000 2.000000 -6.120000 56.601482 -18.267569 3537.431885
2.120000 2.000000 -6.080000 92.843994 31.691584 9624.363281
2.120000 2.000000 -6.040000 76.796844 103.226639 16553.494141
2.120000 2.000000 -6.000000 6.820244 144.477417 20920.240234
2.120000 2.000000 -5.960000 -73.949623 121.964661 20343.925781
2.120000 2.000000 -5.920000 -112.098091 51.013752 15168.384766
2.120000 2.000000 -5.880000 -88.940399 -16.999098 8199.364258
2.120000 2.000000 -5.840000 -34.010033 -39.238853 2696.370117
2.120000 2.000000 -5.800000 4.654291 -15.823157 272.034729
2.120000 2.040000 -6.200000 -16.330622 -0.123124 266.704376
2.120000 2.040000 -6.160000 16.247715 -14.935120 487.046051
2.120000 2.040000 -6.120000 56.766899 9.035709 3304.124756
2.120000 2.040000 -6.080000 65.058899 67.781738 8827.024414
2.120000 2.040000 -6.040000 19.072876 121.064423 15020.369141
2.120000 2.040000 -6.000000 -59.072922 123.576347 18760.722656
2.120000 2.040000 -5.960000 -116.659195 66.246536 17997.972656
2.120000 2.040000 -5.920000 -114.441887 -12.670294 13257.481445
2.120000 2.040000 -5.880000 -60.393639 -59.573441 7196.386719
2.120000 2.040000 -5.840000 -0.706774 -51.112045 2612.940674
2.120000 2.040000 -5.800000 22.740929 -10.387846 625.057190
2.120000 2.080000 -6.200000 -12.557964 -4.184711 175.214264
2.120000 2.080000 -6.160000 14.567986 -2.381309 217.896820
2.120000 2.080000 -6.120000 33.781467 28.779613 1969.453613
2.120000 2.080000 -6.080000 17.827805 72.745026 5609.669434
2.120000 2.080000 -6.040000 -34.799286 92.501503 9767.518555
2.120000 2.080000 -6.000000 -91.013687 63.129318 12268.801758
2.120000 2.080000 -5.960000 -108.298309 -1.801952 11731.770508
2.120000 2.080000 -5.920000 -72.401825 -58.212242 8630.689453
2.120000 2.080000 -5.880000 -10.883445 -68.833015 4856.433105
2.120000 2.080000 -5.840000 31.577839 -34.672001 2199.307617
2.120000 2.080000 -5.800000 32.314411 9.466510 1133.835938
2.120000 2.120000 -6.200000 -12.935704 -3.291472 178.166229
2.120000 2.120000 -6.160000 0.505326 2.576668 6.894571
2.120000 2.120000 -6.120000 3.854988 23.114962 549.162415
2.120000 2.120000 -6.080000 -15.755049 42.709412 2072.315430
2.120000 2.120000 -6.040000 -50.245831 38.495789 4006.569336
2.120000 2.120000 -6.000000 -72.430832 4.041470 5262.559082
2.120000 2.120000 -5.960000 -59.597309 -39.651665 5124.093750
2.120000 2.120000 -5.920000 -16.402515 -59.961926 3864.475098
2.120000 2.120000 -5.880000 27.043858 -41.628334 2464.288574
2.120000 2.120000 -5.840000 41.457504 -0.327486 1718.831909
2.120000 2.120000 -5.800000 23.381994 32.784519 1621.542358
2.120000 2.160000 -6.200000 -18.559853 -7.306923 397.859253
2.120000 2.160000 -6.160000 -12.121214 -9.081425 229.396103
2.120000 2.160000 -6.120000 -8.201561 -2.903116 75.693680
2.120000 2.160000 -6.080000 -14.197279 3.407961 213.176926
2.120000 2.160000 -6.040000 -25.001019 -1.524212 627.374146
2.120000 2.160000 -6.000000 -26.091568 -18.077202 1007.555115
2.120000 2.160000 -5.960000 -9.116768 -31.818802 1095.551636
2.120000 2.160000 -5.920000 16.897797 -26.471218 986.260925
2.120000 2.160000 -5.880000 31.976416 -0.764912 1023.076233
2.120000 2.160000 -5.840000 23.612398 28.933142 1394.672119
2.120000 2.160000 -5.800000 -1.848312 43.496002 1895.318481
2.120000 2.200000 -6.200000 -19.324368 -20.365711 788.193359
2.120000 2.200000 -6.160000 -7.682569 -28.391109 865.076965
2.120000 2.200000 -6.120000 6.278090 -24.921272 660.484253
2.120000 2.200000 -6.080000 12.840433 -14.053459 362.376434
2.120000 2.200000 -6.040000 11.366608 -5.144695 155.667664
2.120000 2.200000 -6.000000 9.164921 -1.823509 87.320961
2.120000 2.200000 -5.960000 11.349808 1.295217 130.495712
2.120000 2.200000 -5.920000 13.992769 10.810945 312.674133
2.120000 2.200000 -5.880000 8.499184 25.207724 707.665466
2.120000 2.200000 -5.840000 -8.063694 35.044930 1293.170288
2.120000 2.200000 -5.800000 -28.738317 32.371662 1873.815430
2.160000 1.800000 -6.200000 -5.048432 -9.968281 124.853294
2.160000 1.800000 -6.160000 10.536854 -15.006296 336.214203
2.160000 1.800000 -6.120000 29.399084 -6.169273 902.366089
2.160000 1.800000 -6.080000 38.307121 16.748510 1747.948120
2.160000 1.800000 -6.040000 27.854399 41.862431 2528.330566
2.160000 1.800000 -6.000000 1.929690 53.180557 2831.895264
2.160000 1.800000 -5.960000 -24.004681 43.668900 2483.197510
2.160000 1.800000 -5.920000 -35.151680 21.089937 1680.426025
2.160000 1.800000 -5.880000 -28.932461 0.850965 837.811401
2.160000 1.800000 -5.840000 -15.093079 -7.174822 279.279114
2.160000 1.800000 -5.800000 -5.062879 -5.231720 53.003639
2.160000 1.840000 -6.200000 3.306147 -8.399698 81.485535
2.160000 1.840000 -6.160000 13.466115 -7.792792 242.063873
2.160000 1.840000 -6.120000 24.515472 2.055129 605.231934
2.160000 1.840000 -6.080000 26.898726 20.426395 1140.779053
2.160000 1.840000 -6.040000 15.005590 37.633987 1641.484741
2.160000 1.840000 -6.000000 -6.235089 42.415329 1837.936523
2.160000 1.840000 -5.960000 -24.436823 31.733753 1604.189453
2.160000 1.840000 -5.920000 -29.803516 13.359827 1066.734619
2.160000 1.840000 -5.880000 -22.465000 -1.133280 505.960571
2.160000 1.840000 -5.840000 -10.459906 -5.754492 142.523804
2.160000 1.840000 -5.800000 -1.463099 -2.868145 10.366916
2.160000 1.880000 -6.200000 5.389846 -1.858123 32.503067
2.160000 1.880000 -6.160000 9.361762 -3.446498 99.520935
2.160000 1.880000 -6.120000 17.209621 0.975623 297.122925
2.160000 1.880000 -6.080000 21.025490 13.395105 621.500061
2.160000 1.880000 -6.040000 14.413456 27.668453 973.291016
2.160000 1.880000 -6.000000 -1.189944 34.460609 1188.949585
2.160000 1.880000 -5.960000 -17.244698 29.130789 1145.982422
2.160000 1.880000 -5.920000 -24.864794 15.374750 854.640930
2.160000 1.880000 -5.880000 -21.281170 1.923793 456.589172
2.160000 1.880000 -5.840000 -10.813766 -4.021801 133.112427
2.160000 1.880000 -5.800000 -0.725063 -0.934747 1.399469
2.160000 1.920000 -6.200000 1.704777 1.591288 5.438462
2.160000 1.920000 -6.160000 6.013935 -6.014488 72.341484
2.160000 1.920000 -6.120000 18.164310 -5.356558 358.634888
2.160000 1.920000 -6.080000 27.653969 7.912174 827.344482
2.160000 1.920000 -6.040000 24.106354 27.427254 1333.370605
2.160000 1.920000 -6.000000 6.263879 40.346863 1667.105591
2.160000 1.920000 -5.960000 -16.114176 37.402771 1658.633911
2.160000 1.920000 -5.920000 -29.408297 20.522173 1286.007446
2.160000 1.920000 -5.880000 -26.647429 1.560749 712.521362
2.160000 1.920000 -5.840000 -12.700745 -6.901051 208.933411
2.160000 1.920000 -5.800000 -0.012895 -1.086767 1.181228
2.160000 1.960000 -6.200000 -1.024167 -0.040994 1.050599
2.160000 1.960000 -6.160000 9.697619 -9.252988 179.661606
2.160000 1.960000 -6.120000 27.468796 -4.621662 775.894470
2.160000 1.960000 -6.080000 37.581985 16.299259 1678.071533
2.160000 1.960000 -6.040000 27.912268 42.127365 2553.809570
2.160000 1.960000 -6.000000 0.224148 54.811378 3004.337402
2.160000 1.960000 -5.960000 -29.159107 44.105083 2795.511963
2.160000 1.960000 -5.920000 -41.551537 16.943493 2013.612061
2.160000 1.960000 -5.880000 -31.188507 -7.450580 1028.234131
2.160000 1.960000 -5.840000 -9.942046 -13.336750 276.713196
2.160000 1.960000 -5.800000 3.205912 -1.270276 11.891470
2.160000 2.000000 -6.200000 0.559402 -1.366583 2.180481
2.160000 2.000000 -6.160000 16.110062 -4.646837 281.127167
2.160000 2.000000 -6.120000 32.486515 8.553253 1128.531738
2.160000 2.000000 -6.080000 34.047081 35.100662 2391.260254
2.160000 2.000000 -6.040000 12.683256 58.310501 3560.979492
2.160000 2.000000 -6.000000 -22.222006 59.607502 4046.871826
2.160000 2.000000 -5.960000 -48.520592 34.916325 3573.397461
2.160000 2.000000 -5.920000 -48.897079 0.215992 2390.970947
2.160000 2.000000 -5.880000 -26.018597 -20.805132 1109.820801
2.160000 2.000000 -5.840000 -0.388600 -16.799641 282.378937
2.160000 2.000000 -5.800000 7.937292 2.066652 67.271652
2.160000 2.040000 -6.200000 1.887993 2.075932 7.874012
2.160000 2.040000 -6.160000 14.478236 6.622153 253.472229
2.160000 2.040000 -6.120000 21.657351 23.763531 1033.746216
2.160000 2.040000 -6.080000 11.953403 45.855850 2245.642822
2.160000 2.040000 -6.040000 -15.372423 56.058701 3378.889160
2.160000 2.040000 -6.000000 -45.098297 42.080750 3804.645996
2.160000 2.040000 -5.960000 -56.218555 9.405453 3248.988525
2.160000 2.040000 -5.920000 -40.258221 -20.480562 2040.177734
2.160000 2.040000 -5.880000 -10.041878 -27.692816 867.731323
2.160000 2.040000 -5.840000 11.035114 -11.426985 252.349731
2.160000 2.040000 -5.800000 9.911119 10.003213 198.294556
2.160000 2.080000 -6.200000 -3.272157 6.537116 53.440895
2.160000 2.080000 -6.160000 0.979178 12.569045 158.939682
2.160000 2.080000 -6.120000 -0.583284 24.005743 576.615906
2.160000 2.080000 -6.080000 -13.567014 33.695942 1319.480347
2.160000 2.080000 -6.040000 -34.011364 30.280167 2073.661377
2.160000 2.080000 -6.000000 -47.647865 9.970860 2369.737061
2.160000 2.080000 -5.960000 -41.496727 -16.184402 1983.913330
2.160000 2.080000 -5.920000 -17.339270 -29.555485 1174.177002
2.160000 2.080000 -5.880000 7.702782 -20.532076 480.898987
2.160000 2.080000 -5.840000 15.933138 2.052340 258.076996
2.160000 2.080000 -5.800000 5.156447 19.141167 392.973236
2.160000 2.120000 -6.200000 -13.278946 3.353858 187.578766
2.160000 2.120000 -6.160000 -14.055342 2.990409 206.495178
2.160000 2.120000 -6.120000 -15.347359 4.340601 254.382233
2.160000 2.120000 -6.080000 -20.292599 4.550079 432.492767
2.160000 2.120000 -6.040000 -26.149620 -1.646082 686.512207
2.160000 2.120000 -6.000000 -24.956619 -13.805537 813.425659
2.160000 2.120000 -5.960000 -12.345949 -22.927654 678.099731
2.160000 2.120000 -5.920000 5.353409 -19.105680 393.686035
2.160000 2.120000 -5.880000 15.105635 -2.301272 233.476059
2.160000 2.120000 -5.840000 9.403129 16.036171 345.577606
2.160000 2.120000 -5.800000 -6.183230 23.459894 588.598999
2.160000 2.160000 -6.200000 -17.809803 -10.196611 421.159973
2.160000 2.160000 -6.160000 -14.854578 -17.545408 528.499817
2.160000 2.160000 -6.120000 -7.597447 -20.322437 470.722656
2.160000 2.160000 -6.080000 -1.291033 -18.328098 337.585968
2.160000 2.160000 -6.040000 2.488985 -15.129170 235.086853
2.160000 2.160000 -6.000000 6.142692 -12.116688 184.546783
2.160000 2.160000 -5.960000 10.723654 -6.593934 158.476715
2.160000 2.160000 -5.920000 12.596444 3.627152 171.826645
2.160000 2.160000 -5.880000 6.970007 15.310499 282.992401
2.160000 2.160000 -5.840000 -5.744707 21.509001 495.638763
2.160000 2.160000 -5.800000 -18.962105 18.593187 705.268066
2.160000 2.200000 -6.200000 -8.142545 -25.076454 695.129578
2.160000 2.200000 -6.160000 3.164062 -31.540361 1004.805664
2.160000 2.200000 -6.120000 17.507769 -28.210239 1102.339600
2.160000 2.200000 -6.080000 26.964058 -16.279510 992.082886
2.160000 2.200000 -6.040000 28.039400 -1.665089 788.980469
2.160000 2.200000 -6.000000 22.302904 10.576340 609.278503
2.160000 2.200000 -5.960000 12.733367 18.671772 510.773712
2.160000 2.200000 -5.920000 1.151749 22.353704 501.014648
2.160000 2.200000 -5.880000 -10.910614 20.984966 559.410278
2.160000 2.200000 -5.840000 -20.760540 14.527339 642.043579
2.160000 2.200000 -5.800000 -25.873869 5.364752 698.237671
2.200000 1.800000 -6.200000 -3.992177 6.955457 64.315857
2.200000 1.800000 -6.160000 -0.084442 6.954698 48.374954
2.200000 1.800000 -6.120000 5.503877 11.967853 173.522156
2.200000 1.800000 -6.080000 6.289039 23.672600 599.943970
2.200000 1.800000 -6.040000 -4.087875 35.998268 1312.586060
2.200000 1.800000 -6.000000 -23.980663 38.331013 2044.338623
2.200000 1.800000 -5.960000 -42.504433 24.973251 2430.290039
2.200000 1.800000 -5.920000 -47.639641 1.525959 2271.864014
2.200000 1.800000 -5.880000 -36.423176 -18.832935 1681.327148
2.200000 1.800000 -5.840000 -17.168823 -26.139566 978.045410
2.200000 1.800000 -5.800000 -1.559661 -21.036831 444.980804
2.200000 1.840000 -6.200000 -7.242064 2.213423 57.346737
2.200000 1.840000 -6.160000 -3.709572 2.667698 20.877535
2.200000 1.840000 -6.120000 -0.394874 9.025111 81.608551
2.200000 1.840000 -6.080000 -4.378846 19.289459 391.257538
2.200000 1.840000 -6.040000 -17.924088 24.894569 941.012451
2.200000 1.840000 -6.000000 -34.244820 18.198658 1503.898804
2.200000 1.840000 -5.960000 -42.188873 0.356040 1780.027710
2.200000 1.840000 -5.920000 -35.747326 -18.617973 1624.500244
2.200000 1.840000 -5.880000 -19.157852 -28.003016 1151.192139
2.200000 1.840000 -5.840000 -2.695182 -24.833870 623.985046
2.200000 1.840000 -5.800000 6.189615 -14.637263 252.560822
2.200000 1.880000 -6.200000 -6.015395 -4.984830 61.033508
2.200000 1.880000 -6.160000 -2.420065 -3.784353 20.178045
2.200000 1.880000 -6.120000 -1.818742 2.225660 8.261386
2.200000 1.880000 -6.080000 -8.149282 7.842343 127.913139
2.200000 1.880000 -6.040000 -18.668762 6.412958 389.648712
2.200000 1.880000 -6.000000 -25.770430 -3.527607 676.559082
2.200000 1.880000 -5.960000 -23.650303 -16.437420 829.525635
2.200000 1.880000 -5.920000 -13.219322 -24.424320 771.297913
2.200000 1.880000 -5.880000 -0.810567 -23.567482 556.083252
2.200000 1.880000 -5.840000 7.380699 -15.962327 309.270599
2.200000 1.880000 -5.800000 9.353022 -6.486153 129.549194
2.200000 1.920000 -6.200000 1.718835 -9.663879 96.344955
2.200000 1.920000 -6.160000 4.831824 -6.602760 66.942963
2.200000 1.920000 -6.120000 3.257170 -2.164540 15.294388
2.200000 1.920000 -6.080000 -1.795495 -1.250693 4.788034
2.200000 1.920000 -6.040000 -5.617929 -5.179665 58.390057
2.200000 1.920000 -6.000000 -4.823070 -10.795663 139.808334
2.200000 1.920000 -5.960000 -0.117537 -13.943810 194.443634
2.200000 1.920000 -5.920000 5.283124 -13.054479 198.330811
2.200000 1.920000 -5.880000 8.894922 -9.279177 165.222763
2.200000 1.920000 -5.840000 10.094387 -4.206882 119.594505
2.200000 1.920000 -5.800000 8.678663 1.388102 77.246025
2.200000 1.960000 -6.200000 11.880892 -5.900364 175.969894
2.200000 1.960000 -6.160000 12.318840 -0.784118 152.368652
2.200000 1.960000 -6.120000 9.157642 1.295010 85.539459
2.200000 1.960000 -6.080000 7.270709 -0.381769 53.008957
2.200000 1.960000 -6.040000 8.896160 -1.994772 83.120781
2.200000 1.960000 -6.000000 11.501896 -0.384715 132.441620
2.200000 1.960000 -5.960000 11.535706 3.263133 143.720551
2.200000 1.960000 -5.920000 8.927423 5.524323 110.217026
2.200000 1.960000 -5.880000 6.632087 5.438371 73.560448
2.200000 1.960000 -5.840000 6.083821 5.571107 68.050110
2.200000 1.960000 -5.800000 4.732939 7.884423 84.564842
2.200000 2.000000 -6.200000 15.584677 6.130020 280.459290
2.200000 2.000000 -6.160000 11.178061 10.892860 243.603455
2.200000 2.000000 -6.120000 7.230405 9.524260 142.990265
2.200000 2.000000 -6.080000 8.461347 6.943420 119.805466
2.200000 2.000000 -6.040000 12.114023 8.941189 226.694412
2.200000 2.000000 -6.000000 11.965876 14.987144 367.796692
2.200000 2.000000 -5.960000 6.207284 19.137032 404.756348
2.200000 2.000000 -5.920000 -0.457645 17.473896 305.546478
2.200000 2.000000 -5.880000 -2.804320 12.718390 169.621643
2.200000 2.000000 -5.840000 -1.501521 10.418925 110.808563
2.200000 2.000000 -5.800000 -1.888883 11.539343 136.724304
2.200000 2.040000 -6.200000 7.236016 17.624767 362.992340
2.200000 2.040000 -6.160000 -1.345153 17.821766 319.424774
2.200000 2.040000 -6.120000 -3.993353 11.962760 159.054489
2.200000 2.040000 -6.080000 0.394887 9.006320 81.269737
2.200000 2.040000 -6.040000 4.551292 13.267795 196.748642
2.200000 2.040000 -6.000000 1.985388 20.032330 405.235992
2.200000 2.040000 -5.960000 -5.663624 21.843842 509.230042
2.200000 2.040000 -5.920000 -11.343449 17.262609 426.671509
2.200000 2.040000 -5.880000 -11.291451 11.735443 265.217499
2.200000 2.040000 -5.840000 -8.888680 10.173205 182.502731
2.200000 2.040000 -5.800000 -9.289416 10.905771 205.229095
2.200000 2.080000 -6.200000 -8.389650 17.777977 386.442688
2.200000 2.080000 -6.160000 -16.699772 10.776318 395.011414
2.200000 2.080000 -6.120000 -14.668034 1.268006 216.759048
2.200000 2.080000 -6.080000 -6.091702 -0.918922 37.953243
2.200000 2.080000 -6.040000 -0.603237 5.333348 28.808498
2.200000 2.080000 -6.000000 -3.096727 12.760242 172.413513
2.200000 2.080000 -5.960000 -9.811214 14.619179 309.980316
2.200000 2.080000 -5.920000 -14.173577 11.311903 328.849426
2.200000 2.080000 -5.880000 -14.366106 7.884374 268.548370
2.200000 2.080000 -5.840000 -13.666054 6.941969 234.951965
2.200000 2.080000 -5.800000 -14.521402 6.288353 250.414520
2.200000 2.120000 -6.200000 -18.484360 4.329310 360.414490
2.200000 2.120000 -6.160000 -20.984749 -7.883454 502.508545
2.200000 2.120000 -6.120000 -11.933704 -17.097649 434.742889
2.200000 2.120000 -6.080000 0.929961 -15.428004 238.888138
2.200000 2.120000 -6.040000 7.633065 -4.981141 83.075447
2.200000 2.120000 -6.000000 4.887559 5.844971 58.051914
2.200000 2.120000 -5.960000 -3.011825 10.825693 126.266724
2.200000 2.120000 -5.920000 -10.164400 9.984756 203.010391
2.200000 2.120000 -5.880000 -14.203194 6.700151 246.622742
2.200000 2.120000 -5.840000 -15.840137 3.257034 261.518219
2.200000 2.120000 -5.800000 -15.740713 0.217881 247.817520
2.200000 2.160000 -6.200000 -13.346623 -12.675569 338.802399
2.200000 2.160000 -6.160000 -7.913562 -24.095224 643.204285
2.200000 2.160000 -6.120000 6.535615 -27.735165 811.953613
2.200000 2.160000 -6.080000 20.481476 -19.064140 782.932251
2.200000 2.160000 -6.040000 24.922218 -2.708405 628.452393
2.200000 2.160000 -6.000000 17.875580 12.166218 467.553223
2.200000 2.160000 -5.960000 4.293158 18.832916 373.109955
2.200000 2.160000 -5.920000 -8.684565 16.360245 343.079285
2.200000 2.160000 -5.880000 -16.140917 8.368237 330.556580
2.200000 2.160000 -5.840000 -16.998533 0.014826 288.950348
2.200000 2.160000 -5.800000 -13.669239 -4.527761 207.348724
2.200000 2.200000 -6.200000 4.039856 -18.863400 372.148285
2.200000 2.200000 -6.160000 13.861187 -23.877684 762.276306
2.200000 2.200000 -6.120000 28.001495 -19.502628 1164.436279
2.200000 2.200000 -6.080000 37.470436 -4.339950 1422.868774
2.200000 2.200000 -6.040000 35.031441 15.454141 1466.032227
2.200000 2.200000 -6.000000 20.276640 30.194187 1322.831055
2.200000 2.200000 -5.960000 -0.099143 32.824051 1077.428223
2.200000 2.200000 -5.920000 -16.496527 23.187950 809.816406
2.200000 2.200000 -5.880000 -22.311258 7.919963 560.518066
2.200000 2.200000 -5.840000 -17.968828 -3.953786 338.511200
2.200000 2.200000 -5.800000 -10.379881 -7.171115 159.166809
