#kx 	ky 	kz 	real 	imag 	intensity
6.800000 6.800000 -1.200000 -3.243836 -28.958195 849.099487
6.800000 6.800000 -1.160000 4.670794 -25.572754 675.782043
6.800000 6.800000 -1.120000 6.265097 -20.561180 462.013550
6.800000 6.800000 -1.080000 4.550935 -20.329353 433.993591
6.800000 6.800000 -1.040000 6.808737 -24.767412 659.783569
6.800000 6.800000 -1.000000 16.245388 -26.740774 978.981689
6.800000 6.800000 -0.960000 27.546806 -19.536366 1140.496094
6.800000 6.800000 -0.920000 31.584209 -4.435582 1017.236633
6.800000 6.800000 -0.880000 24.427065 9.885309 694.400879
6.800000 6.800000 -0.840000 11.022547 15.587337 364.461609
6.800000 6.800000 -0.800000 -0.224006 12.557858 157.750000
6.800000 6.840000 -1.200000 10.522731 -31.144138 1080.685181
6.800000 6.840000 -1.160000 17.278662 -27.691164 1065.352661
6.800000 6.840000 -1.120000 21.128502 -24.762897 1059.614746
6.800000 6.840000 -1.080000 25.913145 -22.856747 1193.921875
6.800000 6.840000 -1.040000 32.715565 -18.105453 1398.115723
6.800000 6.840000 -1.000000 37.329666 -7.898356 1455.888062
6.800000 6.840000 -0.960000 34.710838 4.498719 1225.080811
6.800000 6.840000 -0.920000 25.246155 12.328732 789.365967
6.800000 6.840000 -0.880000 15.182996 12.360371 383.302124
6.800000 6.840000 -0.840000 10.202211 8.369940 174.141006
6.800000 6.840000 -0.800000 9.378520 6.640076 132.047241
6.800000 6.880000 -1.200000 21.720179 -25.736549 1134.136108
6.800000 6.880000 -1.160000 29.963917 -22.454643 1402.047363
6.800000 6.880000 -1.120000 37.886517 -16.970032 1723.370117
6.800000 6.880000 -1.080000 44.528751 -7.104534 2033.284058
6.800000 6.880000 -1.040000 45.314377 6.896254 2100.951172
6.800000 6.880000 -1.000000 37.130337 19.242043 1748.918091
6.800000 6.880000 -0.960000 23.882246 22.809202 1090.621338
6.800000 6.880000 -0.920000 14.710222 17.002867 505.488098
6.800000 6.880000 -0.880000 15.177031 9.840883 327.185242
6.800000 6.880000 -0.840000 20.813530 10.432041 542.030518
6.800000 6.880000 -0.800000 21.075970 19.039932 806.715515
6.800000 6.920000 -1.200000 28.496140 -16.783396 1093.712402
6.800000 6.920000 -1.160000 38.681980 -10.039391 1597.084839
6.800000 6.920000 -1.120000 46.009331 2.245727 2121.901611
6.800000 6.920000 -1.080000 45.680984 18.591612 2432.400391
6.800000 6.920000 -1.040000 34.977921 32.038620 2249.928223
6.800000 6.920000 -1.000000 18.993027 34.550545 1554.475220
6.800000 6.920000 -0.960000 8.798212 25.724960 739.182129
6.800000 6.920000 -0.920000 11.417362 15.572113 372.846863
6.800000 6.920000 -0.880000 21.633537 16.169100 729.449707
6.800000 6.920000 -0.840000 25.586145 29.268284 1511.283203
6.800000 6.920000 -0.800000 14.241838 43.172333 2066.680176
6.800000 6.960000 -1.200000 31.526192 -5.597404 1025.231689
6.800000 6.960000 -1.160000 38.740200 7.080766 1550.940308
6.800000 6.960000 -1.120000 38.037064 23.261656 1987.922852
6.800000 6.960000 -1.080000 27.361057 36.451561 2077.343750
6.800000 6.960000 -1.040000 11.430745 39.139019 1662.524780
6.800000 6.960000 -1.000000 0.815056 30.496696 930.712830
6.800000 6.960000 -0.960000 3.055925 19.887516 404.851990
6.800000 6.960000 -0.920000 13.977630 19.919762 592.171021
6.800000 6.960000 -0.880000 19.532024 34.032383 1539.703125
6.800000 6.960000 -0.840000 8.502064 51.356216 2709.746094
6.800000 6.960000 -0.800000 -15.805386 55.596989 3340.835449
6.800000 7.000000 -1.200000 28.998545 8.090925 906.378662
6.800000 7.000000 -1.160000 26.939823 22.401426 1227.578003
6.800000 7.000000 -1.120000 16.674129 32.809547 1354.493042
6.800000 7.000000 -1.080000 3.064724 33.990650 1164.756836
6.800000 7.000000 -1.040000 -5.299091 26.245630 716.913513
6.800000 7.000000 -1.000000 -2.779940 17.742331 322.518341
6.800000 7.000000 -0.960000 6.602221 18.970108 403.454315
6.800000 7.000000 -0.920000 10.549681 32.704720 1180.894409
6.800000 7.000000 -0.880000 -1.105093 49.323917 2434.070068
6.800000 7.000000 -0.840000 -26.039444 53.731300 3565.105469
6.800000 7.000000 -0.800000 -49.782013 38.652161 3972.238281
6.800000 7.040000 -1.200000 17.064690 20.707129 719.988831
6.800000 7.040000 -1.160000 5.902463 26.908535 758.908325
6.800000 7.040000 -1.120000 -5.349396 23.810917 595.575806
6.800000 7.040000 -1.080000 -9.164238 14.649723 298.597656
6.800000 7.040000 -1.040000 -3.131721 8.294077 78.599388
6.800000 7.040000 -1.000000 6.365279 12.879210 206.390823
6.800000 7.040000 -0.960000 7.693971 28.017813 844.195007
6.800000 7.040000 -0.920000 -6.506178 43.029884 1893.901245
6.800000 7.040000 -0.880000 -31.826031 44.475735 2990.987305
6.800000 7.040000 -0.840000 -54.194206 27.271507 3680.747070
6.800000 7.040000 -0.800000 -60.668491 -0.615174 3681.044189
6.800000 7.080000 -1.200000 -3.577549 23.762869 577.472778
6.800000 7.080000 -1.160000 -14.309324 15.261011 437.655212
6.800000 7.080000 -1.120000 -13.821712 1.591396 193.572281
6.800000 7.080000 -1.080000 -1.577105 -5.463821 32.340603
6.800000 7.080000 -1.040000 12.352406 2.396973 158.327408
6.800000 7.080000 -1.000000 14.006243 21.782455 670.650208
6.800000 7.080000 -0.960000 -2.822744 38.414112 1483.611938
6.800000 7.080000 -0.920000 -30.211979 37.832787 2344.083496
6.800000 7.080000 -0.880000 -51.467987 17.214403 2945.289307
6.800000 7.080000 -0.840000 -54.086502 -12.312117 3076.937744
6.800000 7.080000 -0.800000 -38.832718 -34.955070 2729.836914
6.800000 7.120000 -1.200000 -23.463383 11.024734 672.075073
6.800000 7.120000 -1.160000 -21.443335 -8.125385 525.838501
6.800000 7.120000 -1.120000 -3.594671 -19.403149 389.403839
6.800000 7.120000 -1.080000 17.940351 -11.377792 451.310364
6.800000 7.120000 -1.040000 25.121511 12.766630 794.077148
6.800000 7.120000 -1.000000 9.062921 35.424591 1337.038086
6.800000 7.120000 -0.960000 -21.092049 38.014984 1890.013550
6.800000 7.120000 -0.920000 -44.603943 16.490072 2261.434082
6.800000 7.120000 -0.880000 -45.882652 -15.315897 2339.794434
6.800000 7.120000 -0.840000 -26.391218 -37.686554 2116.772705
6.800000 7.120000 -0.800000 -1.202979 -40.931793 1676.858887
6.800000 7.160000 -1.200000 -29.818478 -13.138126 1061.751953
6.800000 7.160000 -1.160000 -10.420801 -30.068970 1012.736023
6.800000 7.160000 -1.120000 17.696472 -26.213762 1000.326416
6.800000 7.160000 -1.080000 33.928570 -0.686396 1151.619019
6.800000 7.160000 -1.040000 24.111298 29.257210 1437.338989
6.800000 7.160000 -1.000000 -6.129375 40.760162 1698.960083
6.800000 7.160000 -0.960000 -34.540745 24.432583 1790.014160
6.800000 7.160000 -0.920000 -40.387890 -7.487600 1687.245850
6.800000 7.160000 -0.880000 -21.317230 -31.884102 1471.020264
6.800000 7.160000 -0.840000 6.554235 -34.309727 1220.115356
6.800000 7.160000 -0.800000 24.331379 -19.023752 953.919128
6.800000 7.200000 -1.200000 -17.994934 -34.643684 1524.002441
6.800000 7.200000 -1.160000 11.622167 -37.818676 1565.326904
6.800000 7.200000 -1.120000 35.901489 -16.598928 1564.441284
6.800000 7.200000 -1.080000 36.362022 16.755135 1602.931152
6.800000 7.200000 -1.040000 11.507651 38.771706 1635.671143
6.800000 7.200000 -1.000000 -20.216053 33.681076 1543.103760
6.800000 7.200000 -0.960000 -35.048576 6.971737 1277.007812
6.800000 7.200000 -0.920000 -23.658140 -19.437414 937.520630
6.800000 7.200000 -0.880000 2.219318 -26.187313 690.700745
6.800000 7.200000 -0.840000 21.768869 -11.825909 613.735779
6.800000 7.200000 -0.800000 23.394869 9.166846 631.350952
6.840000 6.800000 -1.200000 19.608088 -8.578953 458.075562
6.840000 6.800000 -1.160000 14.092413 -4.177910 216.051025
6.840000 6.800000 -1.120000 8.870481 -8.272978 147.127594
6.840000 6.800000 -1.080000 12.029618 -16.315392 410.903687
6.840000 6.800000 -1.040000 23.687405 -18.322384 896.802856
6.840000 6.800000 -1.000000 34.782005 -8.719917 1285.824829
6.840000 6.800000 -0.960000 35.383629 7.557916 1309.123291
6.840000 6.800000 -0.920000 24.285677 19.401522 966.213135
6.840000 6.800000 -0.880000 9.877121 20.068306 500.294434
6.840000 6.800000 -0.840000 1.419767 12.866142 167.553345
6.840000 6.800000 -0.800000 0.251430 6.192837 38.414444
6.840000 6.840000 -1.200000 20.323124 -1.752280 416.099854
6.840000 6.840000 -1.160000 20.081030 -3.787972 417.596497
6.840000 6.840000 -1.120000 26.226547 -5.446680 717.498108
6.840000 6.840000 -1.080000 35.384098 0.770794 1252.628540
6.840000 6.840000 -1.040000 38.024918 15.424214 1683.800781
6.840000 6.840000 -1.000000 28.194796 29.474390 1663.686157
6.840000 6.840000 -0.960000 10.939550 32.204750 1156.819580
6.840000 6.840000 -0.920000 -1.363403 22.205818 494.957214
6.840000 6.840000 -0.880000 -1.026705 9.480288 90.929977
6.840000 6.840000 -0.840000 7.115707 5.495094 80.829353
6.840000 6.840000 -0.800000 10.926382 11.235252 245.616730
6.840000 6.880000 -1.200000 17.010773 1.836282 292.738312
6.840000 6.880000 -1.160000 26.485071 1.656430 704.202759
6.840000 6.880000 -1.120000 37.103195 12.858683 1541.992798
6.840000 6.880000 -1.080000 36.182922 33.499996 2431.453613
6.840000 6.880000 -1.040000 17.867575 49.533173 2772.785400
6.840000 6.880000 -1.000000 -7.951334 46.704063 2244.493164
6.840000 6.880000 -0.960000 -22.281338 25.555984 1149.566406
6.840000 6.880000 -0.920000 -14.646437 3.246094 225.055237
6.840000 6.880000 -0.880000 5.860777 -1.657204 37.095028
6.840000 6.880000 -0.840000 18.507454 12.871170 508.192871
6.840000 6.880000 -0.800000 11.016859 30.119656 1028.564819
6.840000 6.920000 -1.200000 15.229806 1.885678 235.502777
6.840000 6.920000 -1.160000 28.578691 12.681034 977.550171
6.840000 6.920000 -1.120000 29.549341 36.199490 2183.566650
6.840000 6.920000 -1.080000 8.944684 56.361809 3256.660889
6.840000 6.920000 -1.040000 -23.260059 54.037922 3461.127197
6.840000 6.920000 -1.000000 -43.007359 26.764769 2565.985840
6.840000 6.920000 -0.960000 -33.641911 -5.199219 1158.810059
6.840000 6.920000 -0.920000 -3.297709 -15.456989 249.793396
6.840000 6.920000 -0.880000 20.747641 3.816053 445.026855
6.840000 6.920000 -0.840000 17.042427 33.758640 1430.090088
6.840000 6.920000 -0.800000 -9.920959 46.467373 2257.642334
6.840000 6.960000 -1.200000 16.479614 3.706248 285.313965
6.840000 6.960000 -1.160000 21.415018 25.011681 1084.187134
6.840000 6.960000 -1.120000 4.833186 47.286911 2259.411621
6.840000 6.960000 -1.080000 -27.618929 49.410759 3204.228271
6.840000 6.960000 -1.040000 -52.031269 23.529430 3260.886963
6.840000 6.960000 -1.000000 -46.437828 -13.012291 2325.791748
6.840000 6.960000 -0.960000 -13.305398 -30.076487 1081.628662
6.840000 6.960000 -0.920000 19.511175 -12.272702 531.305176
6.840000 6.960000 -0.880000 23.001217 25.243687 1166.299683
6.840000 6.960000 -0.840000 -6.133871 49.700256 2507.739746
6.840000 6.960000 -0.800000 -42.614223 40.752167 3476.711182
6.840000 7.000000 -1.200000 15.185906 10.308377 336.874390
6.840000 7.000000 -1.160000 4.932928 30.215416 937.305176
6.840000 7.000000 -1.120000 -21.645395 35.947746 1760.763672
6.840000 7.000000 -1.080000 -45.861652 16.470972 2374.584229
6.840000 7.000000 -1.040000 -45.324631 -17.289963 2353.265137
6.840000 7.000000 -1.000000 -16.371811 -37.857475 1701.224609
6.840000 7.000000 -0.960000 18.436914 -25.396992 984.927002
6.840000 7.000000 -0.920000 28.377888 11.972782 948.652039
6.840000 7.000000 -0.880000 2.668723 43.230362 1875.986206
6.840000 7.000000 -0.840000 -38.872017 41.858952 3263.205566
6.840000 7.000000 -0.800000 -63.761463 9.418756 4154.237305
6.840000 7.040000 -1.200000 5.481428 16.289131 295.381836
6.840000 7.040000 -1.160000 -13.107038 21.535091 635.554626
6.840000 7.040000 -1.120000 -31.773350 8.177258 1076.413330
6.840000 7.040000 -1.080000 -32.855358 -17.969025 1402.360474
6.840000 7.040000 -1.040000 -10.482166 -36.206963 1420.819946
6.840000 7.040000 -1.000000 19.788105 -28.046026 1178.148682
6.840000 7.040000 -0.960000 31.636076 3.873763 1015.847351
6.840000 7.040000 -0.920000 11.405107 34.828316 1343.088135
6.840000 7.040000 -0.880000 -27.967850 38.441246 2259.929932
6.840000 7.040000 -0.840000 -57.188255 10.036051 3371.218994
6.840000 7.040000 -0.800000 -55.980198 -29.651283 4012.980957
6.840000 7.080000 -1.200000 -9.673928 12.063676 239.117157
6.840000 7.080000 -1.160000 -20.891382 0.820203 437.122589
6.840000 7.080000 -1.120000 -18.906784 -18.056885 683.517578
6.840000 7.080000 -1.080000 -0.371699 -29.999748 900.123108
6.840000 7.080000 -1.040000 23.270622 -21.858063 1019.296753
6.840000 7.080000 -1.000000 32.325363 4.622306 1066.294800
6.840000 7.080000 -0.960000 15.531745 30.756487 1187.196533
6.840000 7.080000 -0.920000 -18.185440 34.948257 1552.090942
6.840000 7.080000 -0.880000 -45.330513 11.176176 2179.762451
6.840000 7.080000 -0.840000 -46.890968 -25.404358 2844.144287
6.840000 7.080000 -0.800000 -23.460526 -51.348007 3187.014160
6.840000 7.120000 -1.200000 -18.524870 -4.985993 368.030945
6.840000 7.120000 -1.160000 -11.656159 -20.551964 558.249268
6.840000 7.120000 -1.120000 7.367082 -26.760086 770.376099
6.840000 7.120000 -1.080000 27.108578 -15.409279 972.320862
6.840000 7.120000 -1.040000 32.230000 9.272509 1124.752197
6.840000 7.120000 -1.000000 15.777551 31.157715 1219.734375
6.840000 7.120000 -0.960000 -13.423792 33.579948 1307.811035
6.840000 7.120000 -0.920000 -36.092117 12.781711 1466.013184
6.840000 7.120000 -0.880000 -37.050861 -18.556517 1717.110596
6.840000 7.120000 -0.840000 -16.525537 -41.263359 1975.758179
6.840000 7.120000 -0.800000 11.569575 -44.249519 2091.875000
6.840000 7.160000 -1.200000 -11.451345 -25.081062 760.192993
6.840000 7.160000 -1.160000 9.750765 -29.392170 958.977051
6.840000 7.160000 -1.120000 29.627401 -15.557689 1119.824585
6.840000 7.160000 -1.080000 33.621231 10.149539 1233.400391
6.840000 7.160000 -1.040000 16.974901 31.458054 1277.756348
6.840000 7.160000 -1.000000 -10.392891 33.708408 1244.269043
6.840000 7.160000 -0.960000 -30.580540 15.136230 1164.274902
6.840000 7.160000 -0.920000 -30.974836 -11.822253 1099.206177
6.840000 7.160000 -0.880000 -12.928775 -30.384317 1090.359985
6.840000 7.160000 -0.840000 11.042233 -31.617775 1121.614624
6.840000 7.160000 -0.800000 27.990664 -18.792603 1136.639160
6.840000 7.200000 -1.200000 8.328117 -33.766350 1209.523926
6.840000 7.200000 -1.160000 29.753740 -21.267778 1337.603394
6.840000 7.200000 -1.120000 36.304756 4.431799 1337.676147
6.840000 7.200000 -1.080000 22.230579 27.519787 1251.537354
6.840000 7.200000 -1.040000 -3.641089 33.143345 1111.738892
6.840000 7.200000 -1.000000 -24.242184 18.728199 938.428955
6.840000 7.200000 -0.960000 -27.169292 -4.502470 758.442688
6.840000 7.200000 -0.920000 -13.201056 -20.896397 610.927246
6.840000 7.200000 -0.880000 6.325097 -22.039959 525.766663
6.840000 7.200000 -0.840000 19.612392 -10.807072 501.438721
6.840000 7.200000 -0.800000 22.266062 4.019558 511.934357
6.880000 6.800000 -1.200000 16.353422 27.430843 1019.885620
6.880000 6.800000 -1.160000 -0.052700 20.129263 405.190002
6.880000 6.800000 -1.120000 -2.466966 3.033195 15.286196
6.880000 6.800000 -1.080000 11.046345 -7.425085 177.153625
6.880000 6.800000 -1.040000 27.320040 -0.782647 746.997131
6.880000 6.800000 -1.000000 30.566589 17.149351 1228.416626
6.880000 6.800000 -0.960000 17.708748 30.109026 1220.153198
6.880000 6.800000 -0.920000 0.774446 27.602974 762.523987
6.880000 6.800000 -0.880000 -6.031954 14.624480 250.259888
6.880000 6.800000 -0.840000 -0.625549 4.937973 24.774889
6.880000 6.800000 -0.800000 6.454136 5.661959 73.713646
6.880000 6.840000 -1.200000 -0.766216 26.865370 722.335205
6.880000 6.840000 -1.160000 -0.550999 14.839602 220.517380
6.880000 6.840000 -1.120000 10.805887 12.198416 265.568542
6.880000 6.840000 -1.080000 18.317314 24.463633 933.993286
6.880000 6.840000 -1.040000 9.351467 40.481293 1726.185059
6.880000 6.840000 -1.000000 -12.226217 42.821373 1983.150391
6.880000 6.840000 -0.960000 -28.445839 25.918476 1480.933105
6.880000 6.840000 -0.920000 -24.938223 2.957893 630.664124
6.880000 6.840000 -0.880000 -5.894794 -6.654667 79.033188
6.880000 6.840000 -0.840000 9.777557 3.096634 105.189774
6.880000 6.840000 -0.800000 7.837194 18.728422 412.175415
6.880000 6.880000 -1.200000 -11.502737 14.085079 330.702393
6.880000 6.880000 -1.160000 2.677767 13.958410 202.007660
6.880000 6.880000 -1.120000 8.895021 32.289860 1121.756470
6.880000 6.880000 -1.080000 -8.324484 52.362808 2811.160889
6.880000 6.880000 -1.040000 -41.284943 50.135941 4218.059082
6.880000 6.880000 -1.000000 -63.035156 19.319550 4346.675781
6.880000 6.880000 -0.960000 -52.541492 -19.091751 3125.103271
6.880000 6.880000 -0.920000 -16.492046 -34.711643 1476.885742
6.880000 6.880000 -0.880000 15.320474 -16.583384 509.725525
6.880000 6.880000 -0.840000 17.829918 16.020460 574.561157
6.880000 6.880000 -0.800000 -5.717638 32.357544 1079.702026
6.880000 6.920000 -1.200000 -8.844894 -0.514355 78.496719
6.880000 6.920000 -1.160000 2.966305 18.485661 350.518585
6.880000 6.920000 -1.120000 -12.806707 44.628098 2155.678955
6.880000 6.920000 -1.080000 -52.365364 46.884903 4940.325195
6.880000 6.920000 -1.040000 -83.715149 11.128735 7132.074707
6.880000 6.920000 -1.000000 -75.103302 -41.145302 7333.441895
6.880000 6.920000 -0.960000 -27.354431 -68.939713 5500.949219
6.880000 6.920000 -0.920000 23.451038 -49.502575 3000.456055
6.880000 6.920000 -0.880000 37.976688 -0.611605 1442.602905
6.880000 6.920000 -0.840000 9.694021 35.677410 1366.851562
6.880000 6.920000 -0.800000 -30.585489 32.268353 1976.718750
6.880000 6.960000 -1.200000 1.917913 -5.571781 34.723137
6.880000 6.960000 -1.160000 -4.217928 22.395794 519.362488
6.880000 6.960000 -1.120000 -40.230820 33.936356 2770.195068
6.880000 6.960000 -1.080000 -78.305603 5.316665 6160.034668
6.880000 6.960000 -1.040000 -79.422287 -50.804420 8888.989258
6.880000 6.960000 -1.000000 -32.204147 -90.960129 9310.852539
6.880000 6.960000 -0.960000 31.311691 -79.500267 7300.714355
6.880000 6.960000 -0.920000 61.928066 -23.480545 4386.421387
6.880000 6.960000 -0.880000 37.891922 31.948994 2456.535889
6.880000 6.960000 -0.840000 -15.730265 44.499146 2227.615234
6.880000 6.960000 -0.800000 -52.005020 12.165745 2852.527588
6.880000 7.000000 -1.200000 8.601463 -0.166933 74.013039
6.880000 7.000000 -1.160000 -15.487219 17.742615 554.654297
6.880000 7.000000 -1.120000 -51.606243 3.216078 2673.547607
6.880000 7.000000 -1.080000 -63.115414 -43.843853 5905.838867
6.880000 7.000000 -1.040000 -27.986370 -88.505447 8616.451172
6.880000 7.000000 -1.000000 34.810463 -89.543640 9229.832031
6.880000 7.000000 -0.960000 77.358566 -39.379276 7535.075195
6.880000 7.000000 -0.920000 65.207489 25.212275 4887.675293
6.880000 7.000000 -0.880000 9.456087 54.610901 3071.768066
6.880000 7.000000 -0.840000 -43.556984 30.530016 2829.292725
6.880000 7.000000 -0.800000 -54.903381 -19.994507 3414.161621
6.880000 7.040000 -1.200000 5.003949 5.599305 56.391720
6.880000 7.040000 -1.160000 -21.077723 2.961512 453.040955
6.880000 7.040000 -1.120000 -36.326324 -27.511856 2076.503906
6.880000 7.040000 -1.080000 -16.826450 -65.387970 4558.715820
6.880000 7.040000 -1.040000 32.515133 -75.135017 6702.504883
6.880000 7.040000 -1.000000 75.863014 -39.527031 7317.583008
6.880000 7.040000 -0.960000 76.153687 19.935848 6196.821777
6.880000 7.040000 -0.920000 29.846275 58.589539 4323.534180
6.880000 7.040000 -0.880000 -27.963123 47.573082 3045.134521
6.880000 7.040000 -0.840000 -54.309288 -1.033512 2950.566895
6.880000 7.040000 -0.800000 -35.471996 -47.104385 3477.085938
6.880000 7.080000 -1.200000 -2.544928 1.880435 10.012693
6.880000 7.080000 -1.160000 -13.395335 -13.867565 371.744354
6.880000 7.080000 -1.120000 -4.165931 -37.845165 1449.611572
6.880000 7.080000 -1.080000 27.232298 -47.449944 2993.095215
6.880000 7.080000 -1.040000 60.255074 -25.965628 4304.887695
6.880000 7.080000 -1.000000 66.164864 18.241924 4710.556641
6.880000 7.080000 -0.960000 34.283855 54.197201 4112.719238
6.880000 7.080000 -0.920000 -15.376273 53.543793 3103.367432
6.880000 7.080000 -0.880000 -47.278252 15.745823 2483.164062
6.880000 7.080000 -0.840000 -40.244892 -31.157085 2590.415283
6.880000 7.080000 -0.800000 -3.991907 -55.159119 3058.463623
6.880000 7.120000 -1.200000 -2.268777 -9.804420 101.274010
6.880000 7.120000 -1.160000 5.200541 -20.943802 465.688446
6.880000 7.120000 -1.120000 23.440056 -23.537659 1103.457520
6.880000 7.120000 -1.080000 42.010113 -8.952229 1844.992065
6.880000 7.120000 -1.040000 44.958752 19.238150 2391.395752
6.880000 7.120000 -1.000000 24.186638 43.853523 2508.125000
6.880000 7.120000 -0.960000 -10.795597 45.900440 2223.395264
6.880000 7.120000 -0.920000 -37.567043 20.666271 1838.377441
6.880000 7.120000 -0.880000 -37.750679 -16.736145 1705.212280
6.880000 7.120000 -0.840000 -11.585184 -42.541824 1944.023193
6.880000 7.120000 -0.800000 23.065668 -42.633980 2349.681152
6.880000 7.160000 -1.200000 9.837584 -17.862274 415.838928
6.880000 7.160000 -1.160000 23.299608 -13.003309 711.957825
6.880000 7.160000 -1.120000 31.404736 1.778249 989.419617
6.880000 7.160000 -1.080000 27.501987 20.460873 1175.006592
6.880000 7.160000 -1.040000 10.884895 33.191948 1220.186401
6.880000 7.160000 -1.000000 -11.484961 31.653152 1133.826416
6.880000 7.160000 -0.960000 -27.911776 14.671484 994.319641
6.880000 7.160000 -0.920000 -28.672150 -9.921932 920.536926
6.880000 7.160000 -0.880000 -12.311661 -29.253990 1007.372925
6.880000 7.160000 -0.840000 13.058794 -33.067215 1263.972778
6.880000 7.160000 -0.800000 34.732346 -19.800737 1598.405029
6.880000 7.200000 -1.200000 25.110315 -13.062920 801.167847
6.880000 7.200000 -1.160000 29.879875 3.804061 907.277832
6.880000 7.200000 -1.120000 21.608530 19.966831 865.602905
6.880000 7.200000 -1.080000 4.929793 26.447241 723.759399
6.880000 7.200000 -1.040000 -11.132537 20.771620 555.393555
6.880000 7.200000 -1.000000 -19.346458 7.077445 424.375702
6.880000 7.200000 -0.960000 -17.460236 -7.910990 367.443604
6.880000 7.200000 -0.920000 -7.251934 -18.601009 398.588104
6.880000 7.200000 -0.880000 7.641833 -21.504066 520.822510
6.880000 7.200000 -0.840000 22.480946 -14.897775 727.336609
6.880000 7.200000 -0.800000 31.432543 0.383657 988.151978
6.920000 6.800000 -1.200000 -17.526979 50.691391 2876.812256
6.920000 6.800000 -1.160000 -32.596733 25.203608 1697.768799
6.920000 6.800000 -1.120000 -22.527962 -0.175358 507.539825
6.920000 6.800000 -1.080000 0.975983 -5.490139 31.094168
6.920000 6.800000 -1.040000 15.250988 9.881676 330.240143
6.920000 6.800000 -1.000000 8.627330 27.475903 829.356079
6.920000 6.800000 -0.960000 -9.038628 28.946724 919.609619
6.920000 6.800000 -0.920000 -17.979908 14.299792 527.761169
6.920000 6.800000 -0.880000 -9.650658 0.235277 93.190552
6.920000 6.800000 -0.840000 5.261627 1.037909 28.761974
6.920000 6.800000 -0.800000 10.033059 13.209033 275.140808
6.920000 6.840000 -1.200000 -40.863697 28.344040 2473.226318
6.920000 6.840000 -1.160000 -32.106655 9.241827 1116.248657
6.920000 6.840000 -1.120000 -16.338659 9.169921 351.039246
6.920000 6.840000 -1.080000 -14.112400 22.828053 720.279846
6.920000 6.840000 -1.040000 -30.205275 29.389305 1776.089844
6.920000 6.840000 -1.000000 -47.801880 14.701462 2501.152832
6.920000 6.840000 -0.960000 -45.636364 -12.620584 2241.956787
6.920000 6.840000 -0.920000 -20.848888 -28.776260 1262.749268
6.920000 6.840000 -0.880000 6.683296 -19.012499 406.141541
6.920000 6.840000 -0.840000 13.903360 6.691040 238.073456
6.920000 6.840000 -0.800000 -1.955751 23.421383 552.386108
6.920000 6.880000 -1.200000 -41.680359 -3.474423 1749.323975
6.920000 6.880000 -1.160000 -24.251432 0.822018 588.807678
6.920000 6.880000 -1.120000 -27.390797 19.852684 1144.384766
6.920000 6.880000 -1.080000 -54.789078 24.570086 3605.532227
6.920000 6.880000 -1.040000 -80.560852 -3.272499 6500.760254
6.920000 6.880000 -1.000000 -73.621170 -49.004593 7821.526855
6.920000 6.880000 -0.960000 -30.228859 -75.933350 6679.657227
6.920000 6.880000 -0.920000 19.125641 -60.245758 3995.341309
6.920000 6.880000 -0.880000 37.162170 -15.035088 1607.080688
6.920000 6.880000 -0.840000 14.908707 21.475887 683.483276
6.920000 6.880000 -0.800000 -20.765221 22.279388 927.565552
6.920000 6.920000 -1.200000 -21.463547 -24.603903 1066.035889
6.920000 6.920000 -1.160000 -18.340912 0.055991 336.392181
6.920000 6.920000 -1.120000 -48.987053 13.334765 2577.547363
6.920000 6.920000 -1.080000 -86.071663 -14.499250 7618.559082
6.920000 6.920000 -1.040000 -86.169678 -73.478409 12824.290039
6.920000 6.920000 -1.000000 -33.966934 -117.536591 14968.603516
6.920000 6.920000 -0.960000 37.945602 -106.482948 12778.487305
6.920000 6.920000 -0.920000 76.219498 -45.654198 7893.717285
6.920000 6.920000 -0.880000 55.659309 17.307501 3397.508301
6.920000 6.920000 -0.840000 1.610374 36.294098 1319.854858
6.920000 6.920000 -0.800000 -36.027409 7.982332 1361.691772
6.920000 6.960000 -1.200000 3.362354 -24.815258 627.102478
6.920000 6.960000 -1.160000 -18.079258 -0.435734 327.049408
6.920000 6.960000 -1.120000 -59.948189 -14.237429 3796.489746
6.920000 6.960000 -1.080000 -74.698715 -71.184906 10647.189453
6.920000 6.960000 -1.040000 -30.616695 -128.727936 17508.263672
6.920000 6.960000 -1.000000 51.481743 -132.961517 20329.134766
6.920000 6.960000 -0.960000 111.668655 -71.003899 17511.441406
6.920000 6.960000 -0.920000 104.565811 13.310194 11111.169922
6.920000 6.960000 -0.880000 41.083897 57.995918 5051.413086
6.920000 6.960000 -0.840000 -23.064407 38.537807 2017.129395
6.920000 6.960000 -0.800000 -40.061131 -13.720026 1793.133301
6.920000 7.000000 -1.200000 16.517252 -11.074985 395.474884
6.920000 7.000000 -1.160000 -18.294106 -6.425677 375.963623
6.920000 7.000000 -1.120000 -44.602753 -45.716949 4079.445068
6.920000 7.000000 -1.080000 -21.245100 -103.094681 11079.868164
6.920000 7.000000 -1.040000 51.122269 -124.302803 18064.671875
6.920000 7.000000 -1.000000 122.336205 -77.912766 21036.544922
6.920000 7.000000 -0.960000 135.114502 10.299618 18362.009766
6.920000 7.000000 -0.920000 78.207718 76.737991 12005.166016
6.920000 7.000000 -0.880000 -2.485363 76.358299 5836.767090
6.920000 7.000000 -0.840000 -46.210297 21.376324 2592.338867
6.920000 7.000000 -0.800000 -31.171425 -34.623871 2170.470215
6.920000 7.040000 -1.200000 15.363991 1.318689 237.791153
6.920000 7.040000 -1.160000 -11.489260 -15.031919 357.961670
6.920000 7.040000 -1.120000 -8.802226 -57.370762 3368.883545
6.920000 7.040000 -1.080000 38.721329 -86.147186 8920.679688
6.920000 7.040000 -1.040000 102.435181 -63.100216 14474.603516
6.920000 7.040000 -1.000000 129.915466 8.511676 16950.478516
6.920000 7.040000 -0.960000 92.608719 80.461273 15050.391602
6.920000 7.040000 -0.920000 14.636362 100.089149 10232.060547
6.920000 7.040000 -0.880000 -47.061729 56.982651 5461.829102
6.920000 7.040000 -0.840000 -52.834244 -9.482730 2881.379395
6.920000 7.040000 -0.800000 -12.169035 -48.106812 2462.350830
6.920000 7.080000 -1.200000 10.030374 3.937911 116.115532
6.920000 7.080000 -1.160000 2.881944 -17.380098 310.373413
6.920000 7.080000 -1.120000 24.212463 -40.320396 2211.977783
6.920000 7.080000 -1.080000 65.891678 -35.161201 5578.023438
6.920000 7.080000 -1.040000 94.111694 8.707706 8932.834961
6.920000 7.080000 -1.000000 77.924423 66.553444 10501.576172
6.920000 7.080000 -0.960000 20.120863 95.548584 9534.380859
6.920000 7.080000 -0.920000 -41.086063 71.975716 6868.567871
6.920000 7.080000 -0.880000 -63.608711 13.069227 4216.873047
6.920000 7.080000 -0.840000 -36.945408 -38.106094 2817.037598
6.920000 7.080000 -0.800000 11.849028 -50.001808 2640.580322
6.920000 7.120000 -1.200000 10.628441 1.331993 114.737961
6.920000 7.120000 -1.160000 16.483740 -8.200836 338.967407
6.920000 7.120000 -1.120000 34.195293 -8.166615 1236.011719
6.920000 7.120000 -1.080000 50.364441 11.533344 2669.594971
6.920000 7.120000 -1.040000 45.747658 44.329372 4057.941406
6.920000 7.120000 -1.000000 13.599497 67.439766 4733.068359
6.920000 7.120000 -0.960000 -29.932037 59.529266 4439.660645
6.920000 7.120000 -0.920000 -55.830399 20.583221 3540.702393
6.920000 7.120000 -0.880000 -45.577923 -25.449043 2725.000977
6.920000 7.120000 -0.840000 -6.668698 -49.139648 2459.176514
6.920000 7.120000 -0.800000 34.170124 -38.719547 2666.800781
6.920000 7.160000 -1.200000 16.790049 3.104856 291.545868
6.920000 7.160000 -1.160000 19.840149 7.845337 455.180817
6.920000 7.160000 -1.120000 20.690014 16.101471 687.333984
6.920000 7.160000 -1.080000 15.671316 26.837183 965.824524
6.920000 7.160000 -1.040000 1.758152 34.763271 1211.576050
6.920000 7.160000 -1.000000 -18.353825 31.623117 1336.884399
6.920000 7.160000 -0.960000 -34.226311 12.958618 1339.366089
6.920000 7.160000 -0.920000 -33.350006 -15.187294 1342.876831
6.920000 7.160000 -0.880000 -11.490597 -37.292397 1522.756714
6.920000 7.160000 -0.840000 21.537319 -38.601604 1953.939941
6.920000 7.160000 -0.800000 47.282738 -16.661753 2513.271240
6.920000 7.200000 -1.200000 20.066019 12.017211 547.058472
6.920000 7.200000 -1.160000 11.734589 20.029985 538.900879
6.920000 7.200000 -1.120000 0.705491 20.413975 417.228088
6.920000 7.200000 -1.080000 -7.102737 14.920535 273.071228
6.920000 7.200000 -1.040000 -10.631714 7.927322 175.875778
6.920000 7.200000 -1.000000 -12.030350 0.719006 145.246277
6.920000 7.200000 -0.960000 -11.011672 -8.599884 195.214935
6.920000 7.200000 -0.920000 -3.223993 -19.379236 385.948944
6.920000 7.200000 -0.880000 14.010914 -24.606960 801.808228
6.920000 7.200000 -0.840000 34.830009 -15.483883 1452.880127
6.920000 7.200000 -0.800000 45.973167 8.864975 2192.120117
6.960000 6.800000 -1.200000 -60.525345 40.394112 5295.001465
6.960000 6.800000 -1.160000 -60.922401 1.859461 3714.996582
6.960000 6.800000 -1.120000 -35.011414 -21.506197 1688.315552
6.960000 6.800000 -1.080000 -6.295418 -16.791328 321.580994
6.960000 6.800000 -1.040000 2.828477 3.662552 21.414568
6.960000 6.800000 -1.000000 -8.315430 16.003891 325.270874
6.960000 6.800000 -0.960000 -20.592564 9.206221 508.808167
6.960000 6.800000 -0.920000 -16.862915 -5.291259 312.355316
6.960000 6.800000 -0.880000 -0.103065 -8.067745 65.099136
6.960000 6.800000 -0.840000 11.249838 6.108328 163.870514
6.960000 6.800000 -0.800000 4.843342 22.832527 544.782227
6.960000 6.840000 -1.200000 -70.741730 -3.001480 5013.400879
6.960000 6.840000 -1.160000 -50.375862 -21.539486 3001.677002
6.960000 6.840000 -1.120000 -32.227047 -17.754887 1353.818481
6.960000 6.840000 -1.080000 -32.244946 -7.509846 1096.134399
6.960000 6.840000 -1.040000 -43.487858 -11.339188 2019.770874
6.960000 6.840000 -1.000000 -44.334633 -31.610264 2964.768555
6.960000 6.840000 -0.960000 -22.827068 -49.015224 2923.567383
6.960000 6.840000 -0.920000 8.645874 -42.834824 1909.573242
6.960000 6.840000 -0.880000 24.578478 -13.843220 795.736328
6.960000 6.840000 -0.840000 12.387189 14.712362 369.896057
6.960000 6.840000 -0.800000 -14.102592 19.966892 597.559875
6.960000 6.880000 -1.200000 -48.510960 -40.937588 4029.199219
6.960000 6.880000 -1.160000 -31.914055 -31.486034 2009.877197
6.960000 6.880000 -1.120000 -40.893230 -19.803740 2064.444336
6.960000 6.880000 -1.080000 -61.454441 -33.222450 4880.379883
6.960000 6.880000 -1.040000 -60.780033 -71.278786 8774.877930
6.960000 6.880000 -1.000000 -22.418003 -102.287521 10965.303711
6.960000 6.880000 -0.960000 33.045300 -93.574341 9848.149414
6.960000 6.880000 -0.920000 64.745712 -45.351498 6248.765625
6.960000 6.880000 -0.880000 50.169479 6.944637 2565.204590
6.960000 6.880000 -0.840000 6.797421 25.354502 689.055664
6.960000 6.880000 -0.800000 -25.250443 4.534902 658.150146
6.960000 6.920000 -1.200000 -9.393663 -52.362274 2830.048828
6.960000 6.920000 -1.160000 -16.895493 -30.394501 1209.283325
6.960000 6.920000 -1.120000 -47.286659 -37.940323 3675.496094
6.960000 6.920000 -1.080000 -57.826038 -84.353912 10459.433594
6.960000 6.920000 -1.040000 -16.951233 -133.375031 18076.242188
6.960000 6.920000 -1.000000 58.904579 -135.213287 21752.382812
6.960000 6.920000 -0.960000 115.425629 -76.313705 19146.857422
6.960000 6.920000 -0.920000 109.986801 3.971424 12112.869141
6.960000 6.920000 -0.880000 51.759613 48.185184 5000.869629
6.960000 6.920000 -0.840000 -7.788797 33.037601 1152.148560
6.960000 6.920000 -0.800000 -23.985767 -12.432828 729.892212
6.960000 6.960000 -1.200000 22.204868 -36.534649 1827.836670
6.960000 6.960000 -1.160000 -8.090905 -26.641359 775.224792
6.960000 6.960000 -1.120000 -34.033699 -63.420044 5180.394531
6.960000 6.960000 -1.080000 -8.946745 -121.740295 14900.743164
6.960000 6.960000 -1.040000 69.006645 -143.014404 25215.035156
6.960000 6.960000 -1.000000 146.768127 -91.963768 29998.218750
6.960000 6.960000 -0.960000 162.369415 4.762548 26386.507812
6.960000 6.960000 -0.920000 103.106079 79.180649 16900.437500
6.960000 6.960000 -0.880000 17.768114 83.122490 7225.054199
6.960000 6.960000 -0.840000 -29.286917 29.874313 1750.198120
6.960000 6.960000 -0.800000 -16.014969 -23.626490 814.690186
6.960000 7.000000 -1.200000 32.531567 -10.109913 1160.513184
6.960000 7.000000 -1.160000 -0.654187 -24.104691 581.464111
6.960000 7.000000 -1.120000 0.016834 -74.292191 5519.330078
6.960000 7.000000 -1.080000 57.826874 -111.032913 15672.254883
6.960000 7.000000 -1.040000 138.795746 -83.797546 26286.289062
6.960000 7.000000 -1.000000 176.756287 5.769477 31276.072266
6.960000 7.000000 -0.960000 134.442078 98.528870 27782.609375
6.960000 7.000000 -0.920000 40.343704 128.966095 18259.869141
6.960000 7.000000 -0.880000 -36.307808 83.702644 8324.389648
6.960000 7.000000 -0.840000 -47.967804 10.221912 2405.397705
6.960000 7.000000 -0.800000 -7.205774 -30.851028 1003.709106
6.960000 7.040000 -1.200000 25.833801 9.390002 755.557434
6.960000 7.040000 -1.160000 8.770844 -19.104942 441.926514
6.960000 7.040000 -1.120000 35.161049 -56.628998 4443.142578
6.960000 7.040000 -1.080000 97.231018 -55.198586 12500.754883
6.960000 7.040000 -1.040000 144.685608 5.849108 20968.138672
6.960000 7.040000 -1.000000 128.670151 92.760864 25160.585938
6.960000 7.040000 -0.960000 49.765743 142.562378 22800.660156
6.960000 7.040000 -0.920000 -38.656506 118.925949 15637.707031
6.960000 7.040000 -0.880000 -76.858482 44.495796 7887.102051
6.960000 7.040000 -0.840000 -50.105171 -21.621302 2978.008789
6.960000 7.040000 -0.800000 4.206208 -37.804462 1446.869507
6.960000 7.080000 -1.200000 15.191889 16.848660 514.670776
6.960000 7.080000 -1.160000 16.166792 -7.341612 315.264435
6.960000 7.080000 -1.120000 47.627724 -19.536114 2650.059814
6.960000 7.080000 -1.080000 85.703735 7.251774 7397.718750
6.960000 7.080000 -1.040000 90.050255 66.270210 12500.789062
6.960000 7.080000 -1.000000 42.246315 116.128075 15270.480469
6.960000 7.080000 -0.960000 -32.380459 115.228699 14326.147461
6.960000 7.080000 -0.920000 -83.367096 59.941746 10543.085938
6.960000 7.080000 -0.880000 -78.152695 -10.899245 6226.637207
6.960000 7.080000 -0.840000 -28.657261 -49.939873 3315.229492
6.960000 7.080000 -0.800000 23.054264 -40.718334 2189.481934
6.960000 7.120000 -1.200000 8.652137 18.365610 412.155090
6.960000 7.120000 -1.160000 14.461257 8.221641 276.723328
6.960000 7.120000 -1.120000 31.438442 11.961803 1131.460449
6.960000 7.120000 -1.080000 40.451263 36.662186 2980.420410
6.960000 7.120000 -1.040000 22.433136 67.659729 5081.084473
6.960000 7.120000 -1.000000 -20.831512 77.342194 6415.766602
6.960000 7.120000 -0.960000 -63.057224 49.510277 6427.481445
6.960000 7.120000 -0.920000 -73.368042 -3.407570 5394.480957
6.960000 7.120000 -0.880000 -42.686905 -48.078400 4133.704102
6.960000 7.120000 -0.840000 8.175817 -57.047134 3321.219482
6.960000 7.120000 -0.800000 46.302502 -29.973522 3042.333740
6.960000 7.160000 -1.200000 4.711514 20.418962 439.132385
6.960000 7.160000 -1.160000 2.734982 18.404949 346.222290
6.960000 7.160000 -1.120000 3.387474 19.434286 389.166443
6.960000 7.160000 -1.080000 0.593716 25.433073 647.193665
6.960000 7.160000 -1.040000 -11.597523 30.158449 1044.034546
6.960000 7.160000 -1.000000 -30.062149 22.656034 1417.028687
6.960000 7.160000 -0.960000 -41.029800 -1.502838 1685.703125
6.960000 7.160000 -0.920000 -30.372936 -31.995831 1946.248413
6.960000 7.160000 -0.880000 2.392824 -48.654709 2373.006348
6.960000 7.160000 -0.840000 40.258499 -37.244576 3007.905273
6.960000 7.160000 -0.800000 60.357994 -2.161596 3647.760010
6.960000 7.200000 -1.200000 -0.972230 22.738117 517.967224
6.960000 7.200000 -1.160000 -10.838058 17.097521 409.788727
6.960000 7.200000 -1.120000 -13.558807 6.545662 226.686951
6.960000 7.200000 -1.080000 -9.161385 -0.989031 84.909149
6.960000 7.200000 -1.040000 -4.525600 -2.614803 27.318256
6.960000 7.200000 -1.000000 -4.274897 -3.859684 33.171902
6.960000 7.200000 -0.960000 -3.709751 -11.124622 137.519485
6.960000 7.200000 -0.920000 6.661108 -21.362259 500.716461
6.960000 7.200000 -0.880000 28.632847 -21.826363 1296.229980
6.960000 7.200000 -0.840000 49.809410 -2.421703 2486.842041
6.960000 7.200000 -0.800000 52.157837 31.521992 3714.075928
7.000000 6.800000 -1.200000 -82.955605 1.934672 6885.375488
7.000000 6.800000 -1.160000 -63.535374 -36.409378 5362.386719
7.000000 6.800000 -1.120000 -26.368383 -48.293964 3027.598633
7.000000 6.800000 -1.080000 1.675814 -32.575821 1063.992432
7.000000 6.800000 -1.040000 5.914249 -9.575756 126.673454
7.000000 6.800000 -1.000000 -4.784988 -0.108009 22.907780
7.000000 6.800000 -0.960000 -10.387096 -5.886744 142.545532
7.000000 6.800000 -0.920000 -1.945984 -11.131947 127.707085
7.000000 6.800000 -0.880000 9.995928 -2.360535 105.490692
7.000000 6.800000 -0.840000 9.052790 15.879052 334.097290
7.000000 6.800000 -0.800000 -7.365134 26.380573 750.179810
7.000000 6.840000 -1.200000 -68.707253 -46.819386 6912.741211
7.000000 6.840000 -1.160000 -39.780022 -57.839462 4927.853516
7.000000 6.840000 -1.120000 -20.339073 -49.940754 2907.756836
7.000000 6.840000 -1.080000 -16.954342 -41.650120 2022.182129
7.000000 6.840000 -1.040000 -16.930939 -45.424393 2350.032227
7.000000 6.840000 -1.000000 -4.648727 -54.286285 2968.611328
7.000000 6.840000 -0.960000 19.134430 -50.320671 2898.296387
7.000000 6.840000 -0.920000 36.183502 -25.973412 1983.864014
7.000000 6.840000 -0.880000 29.676571 5.039955 906.099976
7.000000 6.840000 -0.840000 3.122424 19.802761 401.898895
7.000000 6.840000 -0.800000 -21.370823 9.123034 539.941833
7.000000 6.880000 -1.200000 -25.497379 -72.477264 5903.069824
7.000000 6.880000 -1.160000 -11.875694 -60.574688 3810.324951
7.000000 6.880000 -1.120000 -17.573336 -57.191559 3579.696533
7.000000 6.880000 -1.080000 -19.388735 -75.446365 6068.076660
7.000000 6.880000 -1.040000 5.502396 -98.454254 9723.516602
7.000000 6.880000 -1.000000 51.725937 -95.360298 11769.159180
7.000000 6.880000 -0.960000 86.779030 -54.524811 10503.554688
7.000000 6.880000 -0.920000 81.613541 0.909111 6661.596680
7.000000 6.880000 -0.880000 40.002583 32.551044 2659.777344
7.000000 6.880000 -0.840000 -3.802120 22.496449 520.546326
7.000000 6.880000 -0.800000 -17.227354 -10.701490 411.303650
7.000000 6.920000 -1.200000 20.419455 -63.068512 4394.591309
7.000000 6.920000 -1.160000 8.497303 -50.381767 2610.526611
7.000000 6.920000 -1.120000 -5.787005 -70.687180 5030.166504
7.000000 6.920000 -1.080000 15.034307 -108.565025 12012.394531
7.000000 6.920000 -1.040000 75.056786 -119.527206 19920.273438
7.000000 6.920000 -1.000000 134.204224 -75.163383 23660.308594
7.000000 6.920000 -0.960000 143.754944 4.186691 20683.013672
7.000000 6.920000 -0.920000 93.621056 64.500938 12925.273438
7.000000 6.920000 -0.880000 23.338955 67.271568 5070.170898
7.000000 6.920000 -0.840000 -14.815119 23.888243 790.135864
7.000000 6.920000 -0.800000 -3.396651 -18.487343 353.319061
7.000000 6.960000 -1.200000 45.272465 -30.200459 2961.663574
7.000000 6.960000 -1.160000 19.588179 -36.353466 1705.271240
7.000000 6.960000 -1.120000 21.373299 -76.527901 6313.337402
7.000000 6.960000 -1.080000 74.320969 -105.728363 16702.093750
7.000000 6.960000 -1.040000 147.925140 -76.615433 27751.771484
7.000000 6.960000 -1.000000 180.796326 9.362907 32774.972656
7.000000 6.960000 -0.960000 138.842987 96.745552 28637.078125
7.000000 6.960000 -0.920000 49.883438 124.880135 18083.406250
7.000000 6.960000 -0.880000 -21.000601 83.070648 7341.757812
7.000000 6.960000 -0.840000 -30.970776 17.400852 1261.978638
7.000000 6.960000 -0.800000 5.371730 -15.862192 280.464630
7.000000 7.000000 -1.200000 43.633690 3.837027 1918.621704
7.000000 7.000000 -1.160000 25.035877 -22.022038 1111.765259
7.000000 7.000000 -1.120000 52.465759 -59.811203 6330.036133
7.000000 7.000000 -1.080000 118.855637 -56.290764 17295.312500
7.000000 7.000000 -1.040000 169.283630 11.669834 28793.132812
7.000000 7.000000 -1.000000 150.682053 106.944267 34142.156250
7.000000 7.000000 -0.960000 64.833504 161.236908 30200.722656
7.000000 7.000000 -0.920000 -29.681646 136.956390 19638.052734
7.000000 7.000000 -0.880000 -69.932037 60.785690 8585.389648
7.000000 7.000000 -0.840000 -43.671883 -3.750573 1921.300049
7.000000 7.000000 -0.800000 6.395041 -15.752752 289.045746
7.000000 7.040000 -1.200000 26.576130 24.055174 1284.942139
7.000000 7.040000 -1.160000 25.574787 -6.298456 693.740295
7.000000 7.040000 -1.120000 65.598602 -22.687670 4817.907227
7.000000 7.040000 -1.080000 115.377594 11.758974 13450.262695
7.000000 7.040000 -1.040000 121.769547 88.316513 22627.628906
7.000000 7.040000 -1.000000 61.501617 153.115845 27226.910156
7.000000 7.040000 -0.960000 -31.905506 153.966660 24723.693359
7.000000 7.040000 -0.920000 -95.184830 88.715500 16930.591797
7.000000 7.040000 -0.880000 -91.044312 7.168219 8340.450195
7.000000 7.040000 -0.840000 -38.250404 -34.925270 2682.867920
7.000000 7.040000 -0.800000 11.536180 -23.660381 692.897095
7.000000 7.080000 -1.200000 7.986391 29.603930 940.175110
7.000000 7.080000 -1.160000 17.972372 9.226664 408.137482
7.000000 7.080000 -1.120000 49.246334 13.371378 2603.995117
7.000000 7.080000 -1.080000 67.550385 54.301636 7511.722656
7.000000 7.080000 -1.040000 41.103874 106.242615 12977.021484
7.000000 7.080000 -1.000000 -25.375420 124.367111 16111.090820
7.000000 7.080000 -0.960000 -89.454903 85.765625 15357.921875
7.000000 7.080000 -0.920000 -106.490273 12.546776 11497.599609
7.000000 7.080000 -0.880000 -68.387726 -46.404884 6830.293945
7.000000 7.080000 -0.840000 -8.499383 -57.546921 3383.887695
7.000000 7.080000 -0.800000 30.516712 -28.075752 1719.517578
7.000000 7.120000 -1.200000 -5.755093 27.096828 767.359192
7.000000 7.120000 -1.160000 1.913250 17.652029 315.254639
7.000000 7.120000 -1.120000 15.128065 25.605921 884.521545
7.000000 7.120000 -1.080000 12.709713 49.342651 2596.234131
7.000000 7.120000 -1.040000 -16.270378 66.999100 4753.604492
7.000000 7.120000 -1.000000 -57.721840 54.664589 6320.028320
7.000000 7.120000 -0.960000 -80.996078 10.111515 6662.607422
7.000000 7.120000 -0.920000 -64.851799 -41.509487 5928.793457
7.000000 7.120000 -0.880000 -16.842747 -67.072594 4782.411133
7.000000 7.120000 -0.840000 32.450638 -52.525822 3812.005859
7.000000 7.120000 -0.800000 54.778282 -12.637296 3160.361328
7.000000 7.160000 -1.200000 -14.928741 21.377872 679.880737
7.000000 7.160000 -1.160000 -15.019154 13.310102 402.733826
7.000000 7.160000 -1.120000 -11.298656 10.861433 245.630371
7.000000 7.160000 -1.080000 -12.102386 14.071598 344.477631
7.000000 7.160000 -1.040000 -21.786089 14.048172 671.984802
7.000000 7.160000 -1.000000 -33.277210 0.934875 1108.246704
7.000000 7.160000 -0.960000 -31.778240 -24.203712 1595.676270
7.000000 7.160000 -0.920000 -8.360140 -46.097183 2194.842041
7.000000 7.160000 -0.880000 28.998356 -46.101555 2966.257812
7.000000 7.160000 -0.840000 58.770157 -18.525818 3797.137207
7.000000 7.160000 -0.800000 62.149071 22.819977 4383.258301
7.000000 7.200000 -1.200000 -20.124981 13.683357 592.249146
7.000000 7.200000 -1.160000 -22.263330 -0.152219 495.679047
7.000000 7.200000 -1.120000 -14.031464 -12.067713 342.511658
7.000000 7.200000 -1.080000 -1.374289 -14.719391 218.549133
7.000000 7.200000 -1.040000 6.439343 -9.972679 140.919479
7.000000 7.200000 -1.000000 7.460938 -6.923256 103.597061
7.000000 7.200000 -0.960000 9.937607 -10.649483 212.167511
7.000000 7.200000 -0.920000 22.599823 -14.195078 712.252258
7.000000 7.200000 -0.880000 42.159889 -4.295059 1795.903809
7.000000 7.200000 -0.840000 52.605495 23.593998 3324.014893
7.000000 7.200000 -0.800000 39.185875 56.773125 4758.720703
7.040000 6.800000 -1.200000 -72.118378 -38.190468 6659.572266
7.040000 6.800000 -1.160000 -38.686905 -64.128662 5609.162109
7.040000 6.800000 -1.120000 0.578847 -60.826149 3700.155273
7.040000 6.800000 -1.080000 23.016113 -35.954041 1822.434448
7.040000 6.800000 -1.040000 22.215111 -10.625887 606.420593
7.040000 6.800000 -1.000000 10.567413 0.262055 111.738899
7.040000 6.800000 -0.960000 4.205154 -0.450562 17.886328
7.040000 6.800000 -0.920000 6.614629 0.532898 44.037296
7.040000 6.800000 -0.880000 7.723041 10.112890 161.915894
7.040000 6.800000 -0.840000 -2.072902 21.029562 446.539429
7.040000 6.800000 -0.800000 -19.416243 20.989809 817.562561
7.040000 6.840000 -1.200000 -38.317780 -74.542725 7024.870117
7.040000 6.840000 -1.160000 -6.987329 -75.354874 5727.179688
7.040000 6.840000 -1.120000 12.783646 -62.279408 4042.146240
7.040000 6.840000 -1.080000 20.149918 -49.496078 2855.880859
7.040000 6.840000 -1.040000 24.976185 -42.516186 2431.436035
7.040000 6.840000 -1.000000 33.936188 -34.665550 2353.365234
7.040000 6.840000 -0.960000 41.648460 -17.835030 2052.682617
7.040000 6.840000 -0.920000 36.739029 5.014626 1374.902710
7.040000 6.840000 -0.880000 16.134544 20.058552 662.669006
7.040000 6.840000 -0.840000 -8.547678 16.127151 333.147827
7.040000 6.840000 -0.800000 -20.493734 -2.832903 428.018463
7.040000 6.880000 -1.200000 10.951372 -78.516159 6284.719727
7.040000 6.880000 -1.160000 22.856575 -66.412346 4933.022461
7.040000 6.880000 -1.120000 25.817469 -63.732498 4728.373047
7.040000 6.880000 -1.080000 37.992477 -69.666168 6296.803223
7.040000 6.880000 -1.040000 65.152763 -65.586304 8546.446289
7.040000 6.880000 -1.000000 90.472321 -36.717556 9533.419922
7.040000 6.880000 -0.960000 89.756393 8.176350 8123.062500
7.040000 6.880000 -0.920000 57.079117 41.172638 4953.211914
7.040000 6.880000 -0.880000 13.656876 40.716312 1844.328369
7.040000 6.880000 -0.840000 -10.370192 12.474658 263.157959
7.040000 6.880000 -0.800000 -3.435069 -15.975698 267.022644
7.040000 6.920000 -1.200000 48.186012 -50.693794 4891.752930
7.040000 6.920000 -1.160000 40.737648 -45.686066 3746.772461
7.040000 6.920000 -1.120000 45.061226 -61.270798 5784.624512
7.040000 6.920000 -1.080000 78.343506 -71.192795 11206.119141
7.040000 6.920000 -1.040000 122.639320 -45.173775 17081.074219
7.040000 6.920000 -1.000000 138.529785 15.878242 19442.621094
7.040000 6.920000 -0.960000 104.173462 74.871841 16457.902344
7.040000 6.920000 -0.920000 39.629780 91.199570 9887.880859
7.040000 6.920000 -0.880000 -9.718004 58.909714 3564.794189
7.040000 6.920000 -0.840000 -14.663776 11.617975 350.003693
7.040000 6.920000 -0.800000 12.915739 -10.476610 276.575684
7.040000 6.960000 -1.200000 57.610790 -10.352259 3426.172363
7.040000 6.960000 -1.160000 45.937294 -22.524616 2617.593262
7.040000 6.960000 -1.120000 66.996460 -44.999287 6513.461914
7.040000 6.960000 -1.080000 116.702988 -36.311806 14938.133789
7.040000 6.960000 -1.040000 152.103134 21.681751 23605.460938
7.040000 6.960000 -1.000000 131.716461 98.711327 27093.152344
7.040000 6.960000 -0.960000 58.802288 140.011383 23060.896484
7.040000 6.960000 -0.920000 -17.827263 117.139755 14039.534180
7.040000 6.960000 -0.880000 -47.845787 54.573921 5267.532227
7.040000 6.960000 -0.840000 -24.378117 5.287629 622.251587
7.040000 6.960000 -0.800000 14.514900 0.725115 211.208115
7.040000 7.000000 -1.200000 42.641644 21.466805 2279.133545
7.040000 7.000000 -1.160000 41.329926 -1.423702 1710.189697
7.040000 7.000000 -1.120000 76.940521 -12.486938 6075.767578
7.040000 7.000000 -1.080000 120.536774 23.036217 15059.781250
7.040000 7.000000 -1.040000 122.426163 96.236176 24249.566406
7.040000 7.000000 -1.000000 62.307941 155.780716 28149.910156
7.040000 7.000000 -0.960000 -26.088392 153.905930 24367.638672
7.040000 7.000000 -0.920000 -83.087646 91.934799 15355.564453
7.040000 7.000000 -0.880000 -76.951447 19.129898 6287.478027
7.040000 7.000000 -0.840000 -29.929716 -13.791922 1086.005005
7.040000 7.000000 -0.800000 7.977379 0.727206 64.167404
7.040000 7.040000 -1.200000 17.487770 35.313076 1552.835449
7.040000 7.040000 -1.160000 28.103294 15.191854 1020.587646
7.040000 7.040000 -1.120000 62.002579 22.414040 4346.708984
7.040000 7.040000 -1.080000 80.062347 70.161781 11332.655273
7.040000 7.040000 -1.040000 47.606110 128.013397 18653.771484
7.040000 7.040000 -1.000000 -27.361885 146.186005 22119.019531
7.040000 7.040000 -0.960000 -96.207138 102.593399 19781.218750
7.040000 7.040000 -0.920000 -112.308899 25.488218 13262.938477
7.040000 7.040000 -0.880000 -72.539070 -31.741901 6269.464844
7.040000 7.040000 -0.840000 -16.878260 -38.419704 1760.949341
7.040000 7.040000 -0.800000 11.624991 -9.770063 230.594574
7.040000 7.080000 -1.200000 -5.455107 33.579552 1157.344482
7.040000 7.080000 -1.160000 7.795698 22.644527 573.547485
7.040000 7.080000 -1.120000 26.727114 38.067780 2163.494629
7.040000 7.080000 -1.080000 20.605225 74.303833 5945.634766
7.040000 7.080000 -1.040000 -22.516258 98.401779 10189.891602
7.040000 7.080000 -1.000000 -78.944977 79.854698 12609.082031
7.040000 7.080000 -0.960000 -107.442932 21.513145 12006.798828
7.040000 7.080000 -0.920000 -86.048477 -40.042641 9007.753906
7.040000 7.080000 -0.880000 -31.677534 -66.049294 5365.975586
7.040000 7.080000 -0.840000 16.365080 -48.271584 2597.961670
7.040000 7.080000 -0.800000 31.624714 -11.750106 1138.187500
7.040000 7.120000 -1.200000 -20.703651 22.814526 949.143738
7.040000 7.120000 -1.160000 -12.784880 16.350037 430.776855
7.040000 7.120000 -1.120000 -6.763762 24.749851 658.303589
7.040000 7.120000 -1.080000 -17.802731 38.218666 1777.603638
7.040000 7.120000 -1.040000 -44.615936 36.339859 3311.166992
7.040000 7.120000 -1.000000 -66.811760 8.228794 4531.523926
7.040000 7.120000 -0.960000 -61.811790 -34.123642 4985.120605
7.040000 7.120000 -0.920000 -25.948082 -63.595360 4717.672852
7.040000 7.120000 -0.880000 20.701637 -60.417160 4078.791016
7.040000 7.120000 -0.840000 50.655479 -28.404289 3372.781250
7.040000 7.120000 -0.800000 50.946056 9.886757 2693.248779
7.040000 7.160000 -1.200000 -26.937138 8.488661 797.666748
7.040000 7.160000 -1.160000 -23.060400 -1.063667 532.913452
7.040000 7.160000 -1.120000 -17.047405 -4.606222 311.831299
7.040000 7.160000 -1.080000 -15.115353 -4.765165 251.180695
7.040000 7.160000 -1.040000 -17.451008 -8.912983 383.978943
7.040000 7.160000 -1.000000 -16.243238 -20.992699 704.536194
7.040000 7.160000 -0.960000 -2.536171 -35.010925 1232.197021
7.040000 7.160000 -0.920000 23.634998 -37.854530 1991.578613
7.040000 7.160000 -0.880000 49.928127 -20.380119 2908.167236
7.040000 7.160000 -0.840000 59.759735 13.011573 3740.526855
7.040000 7.160000 -0.800000 45.415329 45.811852 4161.277832
7.040000 7.200000 -1.200000 -24.226097 -4.407223 606.327393
7.040000 7.200000 -1.160000 -17.818254 -17.939625 639.320312
7.040000 7.200000 -1.120000 -2.820397 -25.238232 644.922974
7.040000 7.200000 -1.080000 13.231432 -21.634441 643.119812
7.040000 7.200000 -1.040000 22.268511 -11.064003 618.298706
7.040000 7.200000 -1.000000 23.940012 -2.017490 577.194397
7.040000 7.200000 -0.960000 25.488934 2.214626 654.590271
7.040000 7.200000 -0.920000 32.303230 7.840693 1104.975098
7.040000 7.200000 -0.880000 39.424297 23.345901 2099.306396
7.040000 7.200000 -0.840000 34.483906 47.779987 3472.066895
7.040000 7.200000 -0.800000 10.520045 67.654465 4687.797852
7.080000 6.800000 -1.200000 -41.203022 -55.736458 4804.241699
7.080000 6.800000 -1.160000 -5.472730 -65.310982 4295.475098
7.080000 6.800000 -1.120000 27.330795 -49.704704 3217.530029
7.080000 6.800000 -1.080000 40.661510 -19.392704 2029.435303
7.080000 6.800000 -1.040000 32.457649 7.130119 1104.337646
7.080000 6.800000 -1.000000 14.786112 18.316593 554.126709
7.080000 6.800000 -0.960000 1.507345 16.916849 288.451874
7.080000 6.800000 -0.920000 -3.563042 13.592285 197.445480
7.080000 6.800000 -0.880000 -6.834806 14.496502 256.863159
7.080000 6.800000 -0.840000 -14.870480 15.871884 473.047882
7.080000 6.800000 -0.800000 -25.764267 10.316032 770.217957
7.080000 6.840000 -1.200000 -3.139893 -73.193069 5367.084473
7.080000 6.840000 -1.160000 25.027451 -65.374786 4900.236328
7.080000 6.840000 -1.120000 42.334496 -46.164738 3923.392578
7.080000 6.840000 -1.080000 47.179035 -25.280876 2864.983887
7.080000 6.840000 -1.040000 44.113117 -8.285666 2014.619385
7.080000 6.840000 -1.000000 37.264908 4.874050 1412.429688
7.080000 6.840000 -0.960000 26.867065 15.272129 955.077148
7.080000 6.840000 -0.920000 12.078035 20.741741 576.098755
7.080000 6.840000 -0.880000 -4.155846 17.334225 317.746399
7.080000 6.840000 -0.840000 -14.878849 4.837666 244.783142
7.080000 6.840000 -0.800000 -14.680088 -10.462650 324.972046
7.080000 6.880000 -1.200000 37.227303 -60.749542 5076.378906
7.080000 6.880000 -1.160000 49.177628 -47.728111 4696.411621
7.080000 6.880000 -1.120000 56.772366 -37.405743 4622.291016
7.080000 6.880000 -1.080000 66.517784 -26.099180 5105.783203
7.080000 6.880000 -1.040000 74.989799 -6.050243 5660.075684
7.080000 6.880000 -1.000000 70.785225 21.807384 5486.109863
7.080000 6.880000 -0.960000 47.798134 44.085396 4228.183594
7.080000 6.880000 -0.920000 15.226042 45.976879 2345.705811
7.080000 6.880000 -0.880000 -7.777477 26.325542 753.523315
7.080000 6.880000 -0.840000 -8.706743 0.584568 76.149101
7.080000 6.880000 -0.800000 7.008479 -12.443196 203.951904
7.080000 6.920000 -1.200000 58.960373 -26.751968 4191.993652
7.080000 6.920000 -1.160000 59.147598 -21.329298 3953.377441
7.080000 6.920000 -1.120000 69.683121 -20.862040 5290.961914
7.080000 6.920000 -1.080000 90.277908 -6.831873 8196.775391
7.080000 6.920000 -1.040000 100.731369 29.113874 10994.425781
7.080000 6.920000 -1.000000 81.080482 70.772530 11582.794922
7.080000 6.920000 -0.960000 35.012512 89.294235 9199.335938
7.080000 6.920000 -0.920000 -9.342100 70.824394 5103.369629
7.080000 6.920000 -0.880000 -23.990253 31.352751 1558.527344
7.080000 6.920000 -0.840000 -6.724786 2.553571 51.743469
7.080000 6.920000 -0.800000 18.256252 2.430952 339.200256
7.080000 6.960000 -1.200000 55.031769 9.836409 3125.250488
7.080000 6.960000 -1.160000 54.660843 4.733817 3010.216797
7.080000 6.960000 -1.120000 74.077789 5.372833 5516.386230
7.080000 6.960000 -1.080000 96.468414 33.418633 10422.959961
7.080000 6.960000 -1.040000 90.747925 82.910744 15109.376953
7.080000 6.960000 -1.000000 45.001083 120.056320 16438.617188
7.080000 6.960000 -0.960000 -16.618727 114.124237 13300.523438
7.080000 6.960000 -0.920000 -53.362946 68.461380 7534.564453
7.080000 6.960000 -0.880000 -45.420265 18.940453 2421.741211
7.080000 6.960000 -0.840000 -11.371877 0.439579 129.512817
7.080000 6.960000 -0.800000 11.915417 15.325326 376.842773
7.080000 7.000000 -1.200000 32.883064 33.475231 2201.886963
7.080000 7.000000 -1.160000 38.609783 24.415070 2086.811035
7.080000 7.000000 -1.120000 60.528549 34.210339 4834.052734
7.080000 7.000000 -1.080000 69.357498 73.242188 10174.880859
7.080000 7.000000 -1.040000 38.867966 117.627747 15347.005859
7.080000 7.000000 -1.000000 -23.097366 128.568665 17063.390625
7.080000 7.000000 -0.960000 -76.842529 90.630547 14118.669922
7.080000 7.000000 -0.920000 -86.413437 29.176411 8318.544922
7.080000 7.000000 -0.880000 -53.028831 -12.190340 2960.661377
7.080000 7.000000 -0.840000 -12.239729 -11.841427 290.030334
7.080000 7.000000 -0.800000 1.768171 12.670841 163.676651
7.080000 7.040000 -1.200000 5.478206 39.057304 1555.483765
7.080000 7.040000 -1.160000 14.974562 32.894798 1306.305298
7.080000 7.040000 -1.120000 28.734962 49.668259 3292.634033
7.080000 7.040000 -1.080000 18.554869 83.793045 7365.557617
7.080000 7.040000 -1.040000 -25.214582 104.050499 11462.281250
7.080000 7.040000 -1.000000 -78.357071 83.351837 13087.359375
7.080000 7.040000 -0.960000 -102.315414 27.788507 11240.645508
7.080000 7.040000 -0.920000 -80.220268 -26.073372 7115.112305
7.080000 7.040000 -0.880000 -32.770233 -44.200485 3027.571045
7.080000 7.040000 -0.840000 2.236202 -25.244459 642.283325
7.080000 7.040000 -0.800000 5.429447 2.126627 34.001438
7.080000 7.080000 -1.200000 -16.744907 29.701826 1162.590454
7.080000 7.080000 -1.160000 -9.132384 26.459946 783.529175
7.080000 7.080000 -1.120000 -6.174179 39.512737 1599.376831
7.080000 7.080000 -1.080000 -24.294525 55.158562 3632.690918
7.080000 7.080000 -1.040000 -58.400215 49.651237 5875.830566
7.080000 7.080000 -1.000000 -82.696465 14.324333 7043.891602
7.080000 7.080000 -0.960000 -74.088928 -32.371315 6537.071289
7.080000 7.080000 -0.920000 -34.977486 -59.704041 4787.997070
7.080000 7.080000 -0.880000 8.061937 -52.157959 2785.447510
7.080000 7.080000 -0.840000 28.469433 -22.200077 1303.352051
7.080000 7.080000 -0.800000 22.303745 3.760208 511.596222
7.080000 7.120000 -1.200000 -27.967579 11.961174 925.255188
7.080000 7.120000 -1.160000 -23.366795 6.926650 593.985535
7.080000 7.120000 -1.120000 -22.851776 8.954557 602.387756
7.080000 7.120000 -1.080000 -31.478432 8.077484 1056.137451
7.080000 7.120000 -1.040000 -41.402363 -5.666920 1746.269653
7.080000 7.120000 -1.000000 -38.169899 -29.908516 2351.460449
7.080000 7.120000 -0.960000 -15.243343 -49.392456 2671.974365
7.080000 7.120000 -0.920000 17.869202 -48.764832 2697.317139
7.080000 7.120000 -0.880000 42.511093 -26.431194 2505.801025
7.080000 7.120000 -0.840000 46.268036 4.008854 2156.802002
7.080000 7.120000 -0.800000 32.100182 25.722527 1692.070068
7.080000 7.160000 -1.200000 -26.321308 -6.287994 732.350159
7.080000 7.160000 -1.160000 -20.523785 -15.243023 653.575500
7.080000 7.160000 -1.120000 -12.256049 -20.430973 567.635376
7.080000 7.160000 -1.080000 -3.875236 -22.739801 532.116028
7.080000 7.160000 -1.040000 4.738453 -23.897274 593.532654
7.080000 7.160000 -1.000000 15.472626 -23.543743 793.710022
7.080000 7.160000 -0.960000 28.766666 -18.409924 1166.446411
7.080000 7.160000 -0.920000 40.958420 -5.060484 1703.200684
7.080000 7.160000 -0.880000 45.350983 15.863387 2308.358643
7.080000 7.160000 -0.840000 36.907974 37.900486 2798.645508
7.080000 7.160000 -0.800000 16.846804 51.898918 2977.312500
7.080000 7.200000 -1.200000 -14.762897 -16.923248 504.339478
7.080000 7.200000 -1.160000 -4.408835 -26.292242 710.719788
7.080000 7.200000 -1.120000 13.031249 -28.474781 980.626587
7.080000 7.200000 -1.080000 30.319771 -18.931490 1277.689819
7.080000 7.200000 -1.040000 38.918041 -1.051365 1515.719238
7.080000 7.200000 -1.000000 36.669693 16.464098 1615.732910
7.080000 7.200000 -0.960000 29.010145 27.841774 1616.752930
7.080000 7.200000 -0.920000 22.086983 34.989407 1712.093384
7.080000 7.200000 -0.880000 15.523434 43.267700 2113.070801
7.080000 7.200000 -0.840000 3.354387 52.985477 2818.712891
7.080000 7.200000 -0.800000 -17.429348 56.653618 3513.414551
7.120000 6.800000 -1.200000 -15.057274 -47.709015 2502.871582
7.120000 6.800000 -1.160000 13.249226 -45.830330 2275.961182
7.120000 6.800000 -1.120000 35.312500 -24.840252 1864.010742
7.120000 6.800000 -1.080000 38.169132 5.589069 1488.120361
7.120000 6.800000 -1.040000 21.059061 28.616936 1262.413086
7.120000 6.800000 -1.000000 -3.514261 33.291771 1120.692017
7.120000 6.800000 -0.960000 -20.318945 22.712971 928.738525
7.120000 6.800000 -0.920000 -23.825090 9.537886 658.606201
7.120000 6.800000 -0.880000 -20.756527 3.427615 442.581940
7.120000 6.800000 -0.840000 -20.936848 2.930674 446.940430
7.120000 6.800000 -0.800000 -26.297041 -0.613492 691.910706
7.120000 6.840000 -1.200000 14.922210 -53.288334 3062.318848
7.120000 6.840000 -1.160000 36.868797 -40.816521 3025.296631
7.120000 6.840000 -1.120000 47.768620 -17.420301 2585.307861
7.120000 6.840000 -1.080000 43.091446 6.957933 1905.285522
7.120000 6.840000 -1.040000 26.719328 22.362766 1214.015869
7.120000 6.840000 -1.000000 7.728187 24.985567 684.003418
7.120000 6.840000 -0.960000 -6.104834 18.206532 368.746765
7.120000 6.840000 -0.920000 -12.517702 8.360590 226.592346
7.120000 6.840000 -0.880000 -13.765515 -0.390815 189.642151
7.120000 6.840000 -0.840000 -12.507277 -7.594098 214.102295
7.120000 6.840000 -0.800000 -9.083147 -14.082750 280.827423
7.120000 6.880000 -1.200000 42.348129 -37.265266 3182.063965
7.120000 6.880000 -1.160000 53.484581 -21.505646 3323.093262
7.120000 6.880000 -1.120000 56.640892 -3.135935 3218.024658
7.120000 6.880000 -1.080000 52.144306 14.666490 2934.134521
7.120000 6.880000 -1.040000 40.354683 29.120716 2476.516602
7.120000 6.880000 -1.000000 22.710060 36.403381 1840.953003
7.120000 6.880000 -0.960000 3.947258 33.093334 1110.749634
7.120000 6.880000 -0.920000 -8.566853 19.955797 471.624817
7.120000 6.880000 -0.880000 -9.551502 3.643597 104.506989
7.120000 6.880000 -0.840000 -0.515888 -6.976915 48.943481
7.120000 6.880000 -0.800000 10.838409 -7.408592 172.358337
7.120000 6.920000 -1.200000 53.510925 -7.695632 2922.641846
7.120000 6.920000 -1.160000 56.172035 4.480399 3175.371582
7.120000 6.920000 -1.120000 58.042221 17.113224 3661.761719
7.120000 6.920000 -1.080000 56.366844 34.326759 4355.547852
7.120000 6.920000 -1.040000 43.744549 53.368149 4761.745117
7.120000 6.920000 -1.000000 18.584393 63.116096 4329.021484
7.120000 6.920000 -0.960000 -8.529184 54.123283 3002.076904
7.120000 6.920000 -0.920000 -21.655327 30.118061 1376.050781
7.120000 6.920000 -0.880000 -14.140738 7.422605 255.055527
7.120000 6.920000 -0.840000 4.173863 1.097104 18.624771
7.120000 6.920000 -0.800000 15.694195 11.204552 371.849731
7.120000 6.960000 -1.200000 44.679451 21.383518 2453.508057
7.120000 6.960000 -1.160000 43.877449 27.991987 2708.781982
7.120000 6.960000 -1.120000 46.648720 38.918091 3690.720703
7.120000 6.960000 -1.080000 42.746315 59.116093 5321.959961
7.120000 6.960000 -1.040000 21.307392 78.642731 6638.684082
7.120000 6.960000 -1.000000 -13.268759 79.752594 6536.536133
7.120000 6.960000 -0.960000 -40.741009 55.864876 4780.713867
7.120000 6.960000 -0.920000 -42.882496 21.581739 2304.679932
7.120000 6.960000 -0.880000 -21.953217 1.127274 483.214478
7.120000 6.960000 -0.840000 0.473500 5.664072 32.305912
7.120000 6.960000 -0.800000 4.312424 22.978018 546.586304
7.120000 7.000000 -1.200000 21.703749 38.365952 1942.999023
7.120000 7.000000 -1.160000 20.240326 40.891380 2081.775879
7.120000 7.000000 -1.120000 20.953569 51.875420 3130.111084
7.120000 7.000000 -1.080000 9.410748 70.251526 5023.838867
7.120000 7.000000 -1.040000 -20.170753 79.185364 6677.181152
7.120000 7.000000 -1.000000 -53.428349 62.985977 6821.821777
7.120000 7.000000 -0.960000 -66.658852 26.285612 5134.335938
7.120000 7.000000 -0.920000 -50.290688 -6.726763 2574.402588
7.120000 7.000000 -0.880000 -19.923367 -14.325504 602.160583
7.120000 7.000000 -0.840000 -1.932858 1.779145 6.901295
7.120000 7.000000 -0.800000 -7.807930 18.924063 419.083923
7.120000 7.040000 -1.200000 -4.816273 38.344505 1493.497681
7.120000 7.040000 -1.160000 -6.740700 37.649948 1462.955566
7.120000 7.040000 -1.120000 -10.182646 45.028038 2131.210449
7.120000 7.040000 -1.080000 -26.367207 52.942520 3498.139893
7.120000 7.040000 -1.040000 -52.030148 45.381741 4766.638672
7.120000 7.040000 -1.000000 -68.536865 16.911991 4983.317383
7.120000 7.040000 -0.960000 -59.742157 -17.499874 3875.370850
7.120000 7.040000 -0.920000 -29.953583 -34.511444 2088.256836
7.120000 7.040000 -0.880000 -1.761812 -24.911594 623.691528
7.120000 7.040000 -0.840000 5.314316 -2.778061 35.959579
7.120000 7.040000 -0.800000 -6.656391 8.961378 124.613846
7.120000 7.080000 -1.200000 -24.156742 23.480078 1134.862305
7.120000 7.080000 -1.160000 -25.764885 18.630791 1010.935669
7.120000 7.080000 -1.120000 -29.475319 17.926811 1190.165039
7.120000 7.080000 -1.080000 -39.392159 13.395745 1731.188232
7.120000 7.080000 -1.040000 -47.885117 -2.718935 2300.376953
7.120000 7.080000 -1.000000 -42.334442 -26.100904 2473.462158
7.120000 7.080000 -0.960000 -19.664726 -41.442600 2104.190674
7.120000 7.080000 -0.920000 7.704190 -36.779663 1412.098145
7.120000 7.080000 -0.880000 22.184572 -16.067379 750.315918
7.120000 7.080000 -0.840000 17.530422 3.896704 322.500000
7.120000 7.080000 -0.800000 4.196739 9.620487 110.166389
7.120000 7.120000 -1.200000 -29.041872 1.884725 846.982544
7.120000 7.120000 -1.160000 -27.442991 -7.079583 803.238281
7.120000 7.120000 -1.120000 -24.089968 -14.386076 787.285706
7.120000 7.120000 -1.080000 -19.125008 -22.190226 858.171997
7.120000 7.120000 -1.040000 -9.321745 -30.071060 991.163574
7.120000 7.120000 -1.000000 6.685253 -32.895287 1126.792480
7.120000 7.120000 -0.960000 24.055696 -25.247871 1216.131592
7.120000 7.120000 -0.920000 34.084488 -7.910818 1224.333374
7.120000 7.120000 -0.880000 31.628775 11.062347 1122.754883
7.120000 7.120000 -0.840000 19.958187 22.606213 909.370117
7.120000 7.120000 -0.800000 7.732415 24.120867 641.606445
7.120000 7.160000 -1.200000 -19.083958 -15.093324 592.005859
7.120000 7.160000 -1.160000 -11.904833 -24.909868 762.226562
7.120000 7.160000 -1.120000 1.606910 -30.952084 960.613647
7.120000 7.160000 -1.080000 18.575275 -28.972466 1184.444580
7.120000 7.160000 -1.040000 33.212017 -17.578945 1412.057373
7.120000 7.160000 -1.000000 39.982555 0.049623 1598.607178
7.120000 7.160000 -0.960000 37.112144 17.811375 1694.556396
7.120000 7.160000 -0.920000 27.355410 30.593805 1684.299316
7.120000 7.160000 -0.880000 15.292637 37.020870 1604.409546
7.120000 7.160000 -0.840000 3.876697 38.731064 1515.124146
7.120000 7.160000 -0.800000 -6.504441 37.426159 1443.025146
7.120000 7.200000 -1.200000 -2.345494 -18.572014 350.421051
7.120000 7.200000 -1.160000 8.843488 -24.906210 698.526550
7.120000 7.200000 -1.120000 27.492983 -22.527397 1263.347778
7.120000 7.200000 -1.080000 44.075951 -5.696656 1975.141357
7.120000 7.200000 -1.040000 46.973236 20.536148 2628.218262
7.120000 7.200000 -1.000000 33.116890 43.093418 2953.770996
7.120000 7.200000 -0.960000 11.059578 51.838028 2809.495361
7.120000 7.200000 -0.920000 -7.041512 47.741966 2328.878418
7.120000 7.200000 -0.880000 -16.250694 40.000343 1864.112549
7.120000 7.200000 -0.840000 -21.352018 35.549835 1719.699463
7.120000 7.200000 -0.800000 -28.988329 32.435677 1892.396362
7.160000 6.800000 -1.200000 -8.239206 -30.541332 1000.657471
7.160000 6.800000 -1.160000 9.762465 -26.111605 777.121643
7.160000 6.800000 -1.120000 22.092743 -7.025925 537.452881
7.160000 6.800000 -1.080000 16.705469 17.806099 596.129883
7.160000 6.800000 -1.040000 -5.797557 31.601919 1032.292969
7.160000 6.800000 -1.000000 -30.444195 24.740538 1538.943115
7.160000 6.800000 -0.960000 -40.707336 4.223814 1674.927856
7.160000 6.800000 -0.920000 -33.541252 -12.879483 1290.896729
7.160000 6.800000 -0.880000 -21.183718 -15.950866 703.180054
7.160000 6.800000 -0.840000 -17.562691 -10.388371 416.366364
7.160000 6.800000 -0.800000 -23.551601 -10.247756 659.694397
7.160000 6.840000 -1.200000 12.529290 -35.804893 1438.973511
7.160000 6.840000 -1.160000 28.104013 -23.279577 1331.774292
7.160000 6.840000 -1.120000 31.308167 -1.083324 981.374878
7.160000 6.840000 -1.080000 17.739216 17.755779 629.947510
7.160000 6.840000 -1.040000 -4.402555 21.386713 476.773956
7.160000 6.840000 -1.000000 -20.725269 9.321527 516.427612
7.160000 6.840000 -0.960000 -22.817411 -7.617287 578.657349
7.160000 6.840000 -0.920000 -14.468620 -17.568371 517.988647
7.160000 6.840000 -0.880000 -6.195705 -17.907219 359.055237
7.160000 6.840000 -0.840000 -4.114713 -15.539446 258.405243
7.160000 6.840000 -0.800000 -4.621479 -17.713411 335.123016
7.160000 6.880000 -1.200000 33.816513 -24.690727 1753.188477
7.160000 6.880000 -1.160000 41.523544 -6.874604 1771.464844
7.160000 6.880000 -1.120000 35.892712 11.935466 1430.742065
7.160000 6.880000 -1.080000 20.446840 22.144545 908.454102
7.160000 6.880000 -1.040000 4.166934 20.314857 430.056763
7.160000 6.880000 -1.000000 -5.260553 10.429358 136.444931
7.160000 6.880000 -0.960000 -5.987159 -0.356762 35.973351
7.160000 6.880000 -0.920000 -1.278566 -7.074956 51.689732
7.160000 6.880000 -0.880000 4.485734 -9.053865 102.094292
7.160000 6.880000 -0.840000 9.035351 -8.198191 148.847900
7.160000 6.880000 -0.800000 12.445932 -6.114228 192.285019
7.160000 6.920000 -1.200000 43.565529 -0.615688 1898.334351
7.160000 6.920000 -1.160000 41.234062 16.766449 1981.361694
7.160000 6.920000 -1.120000 30.660690 28.455524 1749.794800
7.160000 6.920000 -1.080000 17.657516 32.466911 1365.888184
7.160000 6.920000 -1.040000 6.075438 30.338009 957.305725
7.160000 6.920000 -1.000000 -2.316511 23.831207 573.292664
7.160000 6.920000 -0.960000 -5.799567 14.542192 245.110306
7.160000 6.920000 -0.920000 -2.889466 5.754137 41.459106
7.160000 6.920000 -0.880000 4.877062 2.170037 28.494797
7.160000 6.920000 -0.840000 11.979624 6.093935 180.647430
7.160000 6.920000 -0.800000 12.699178 14.172150 362.118958
7.160000 6.960000 -1.200000 35.273323 25.276350 1883.101074
7.160000 6.960000 -1.160000 24.701952 36.496887 1942.209229
7.160000 6.960000 -1.120000 13.142738 40.435745 1807.781006
7.160000 6.960000 -1.080000 2.923504 40.719681 1666.639282
7.160000 6.960000 -1.040000 -7.331261 38.144135 1508.722412
7.160000 6.960000 -1.000000 -16.474251 30.304892 1189.787354
7.160000 6.960000 -0.960000 -19.206848 17.690935 681.872192
7.160000 6.960000 -0.920000 -12.294733 7.224406 203.352509
7.160000 6.960000 -0.880000 -0.889490 6.838324 47.553860
7.160000 6.960000 -0.840000 4.229092 16.267776 282.525787
7.160000 6.960000 -0.800000 -2.669878 25.325161 648.492004
7.160000 7.000000 -1.200000 11.951288 39.985870 1741.703125
7.160000 7.000000 -1.160000 -2.126975 41.469429 1724.237549
7.160000 7.000000 -1.120000 -11.694435 38.062260 1585.495361
7.160000 7.000000 -1.080000 -19.062954 34.210793 1533.774536
7.160000 7.000000 -1.040000 -26.828161 27.919020 1499.221924
7.160000 7.000000 -1.000000 -31.439732 16.209982 1251.220215
7.160000 7.000000 -0.960000 -26.878464 2.943528 731.116211
7.160000 7.000000 -0.920000 -14.087048 -2.420109 204.301849
7.160000 7.000000 -0.880000 -3.503151 4.717156 34.523628
7.160000 7.000000 -0.840000 -5.476123 16.726543 309.765167
7.160000 7.000000 -0.800000 -18.316858 19.755323 725.780090
7.160000 7.040000 -1.200000 -14.796873 35.912228 1508.635498
7.160000 7.040000 -1.160000 -26.408884 27.415377 1449.031982
7.160000 7.040000 -1.120000 -30.698158 17.559599 1250.716431
7.160000 7.040000 -1.080000 -31.877937 9.231296 1101.419678
7.160000 7.040000 -1.040000 -31.355030 0.206167 983.180420
7.160000 7.040000 -1.000000 -25.790739 -9.548742 756.340698
7.160000 7.040000 -0.960000 -13.776308 -14.315645 394.724365
7.160000 7.040000 -0.920000 -1.631817 -8.614374 76.870270
7.160000 7.040000 -0.880000 0.776235 4.164041 17.941774
7.160000 7.040000 -0.840000 -8.982733 12.216551 229.933594
7.160000 7.040000 -0.800000 -21.012226 6.630597 485.478455
7.160000 7.080000 -1.200000 -30.870861 15.933474 1206.885620
7.160000 7.080000 -1.160000 -34.924332 0.900167 1220.519287
7.160000 7.080000 -1.120000 -30.299503 -12.226462 1067.546265
7.160000 7.080000 -1.080000 -20.972370 -20.642853 865.967651
7.160000 7.080000 -1.040000 -9.269301 -24.166868 669.957520
7.160000 7.080000 -1.000000 3.343443 -21.675169 480.991577
7.160000 7.080000 -0.960000 12.998488 -11.963734 312.091614
7.160000 7.080000 -0.920000 14.112297 1.988007 203.109085
7.160000 7.080000 -0.880000 5.132971 12.087149 172.446564
7.160000 7.080000 -0.840000 -7.364429 11.188540 179.418243
7.160000 7.080000 -0.800000 -12.687160 0.790191 161.588425
7.160000 7.120000 -1.200000 -28.376606 -7.376305 859.641602
7.160000 7.120000 -1.160000 -23.105421 -22.930487 1059.667725
7.160000 7.120000 -1.120000 -8.475739 -33.131119 1169.509155
7.160000 7.120000 -1.080000 10.490367 -33.163998 1209.898560
7.160000 7.120000 -1.040000 26.779360 -22.066818 1204.078613
7.160000 7.120000 -1.000000 33.850437 -3.480425 1157.965454
7.160000 7.120000 -0.960000 28.745522 15.106060 1054.498047
7.160000 7.120000 -0.920000 14.501653 25.647381 868.086060
7.160000 7.120000 -0.880000 -0.699270 24.486401 600.072754
7.160000 7.120000 -0.840000 -8.554377 15.260387 306.056793
7.160000 7.120000 -0.800000 -6.586116 6.542227 86.177658
7.160000 7.160000 -1.200000 -11.500135 -19.463978 511.099548
7.160000 7.160000 -1.160000 0.258035 -30.012932 900.842651
7.160000 7.160000 -1.120000 20.729706 -31.270803 1407.583862
7.160000 7.160000 -1.080000 40.830902 -17.269434 1965.395996
7.160000 7.160000 -1.040000 48.578316 8.685740 2435.294922
7.160000 7.160000 -1.000000 38.109962 34.387680 2634.881836
7.160000 7.160000 -0.960000 15.061124 46.974228 2433.415527
7.160000 7.160000 -0.920000 -7.228270 42.539871 1861.888550
7.160000 7.160000 -0.880000 -17.974884 28.588360 1140.390747
7.160000 7.160000 -0.840000 -16.665749 16.989697 566.396973
7.160000 7.160000 -0.800000 -11.506969 14.065056 330.236145
7.160000 7.200000 -1.200000 5.814591 -14.160788 234.337387
7.160000 7.200000 -1.160000 18.354132 -18.200211 668.121826
7.160000 7.200000 -1.120000 36.970665 -9.557603 1458.177856
7.160000 7.200000 -1.080000 47.639137 15.151740 2499.062500
7.160000 7.200000 -1.040000 37.999340 44.893837 3459.406250
7.160000 7.200000 -1.000000 9.865992 61.698563 3904.050537
7.160000 7.200000 -0.960000 -20.686642 56.012756 3565.366211
7.160000 7.200000 -0.920000 -36.731846 35.075989 2579.553467
7.160000 7.200000 -0.880000 -34.686455 15.754452 1451.352905
7.160000 7.200000 -0.840000 -25.429405 9.060048 728.739136
7.160000 7.200000 -0.800000 -22.002964 11.706370 621.169556
7.200000 6.800000 -1.200000 -15.975798 -22.338741 754.245483
7.200000 6.800000 -1.160000 -4.622449 -22.477240 526.593323
7.200000 6.800000 -1.120000 3.118961 -9.766116 105.104935
7.200000 6.800000 -1.080000 -4.501243 6.481159 62.266617
7.200000 6.800000 -1.040000 -24.536102 10.048291 702.988464
7.200000 6.800000 -1.000000 -40.343567 -4.866913 1651.290283
7.200000 6.800000 -0.960000 -38.090645 -26.338289 2144.602783
7.200000 6.800000 -0.920000 -21.330166 -36.349850 1776.287476
7.200000 6.800000 -0.880000 -7.278699 -29.533043 925.180054
7.200000 6.800000 -0.840000 -8.175728 -18.524780 410.010010
7.200000 6.800000 -0.800000 -17.826122 -19.601376 701.984558
7.200000 6.840000 -1.200000 2.965020 -33.001915 1097.917725
7.200000 6.840000 -1.160000 14.907971 -24.127850 804.400757
7.200000 6.840000 -1.120000 14.554193 -7.987572 275.625824
7.200000 6.840000 -1.080000 0.611947 1.298533 2.060667
7.200000 6.840000 -1.040000 -15.121346 -4.973345 253.389252
7.200000 6.840000 -1.000000 -18.967850 -21.232454 810.596436
7.200000 6.840000 -0.960000 -8.677653 -33.170982 1175.615723
7.200000 6.840000 -0.920000 4.992343 -32.076504 1053.825562
7.200000 6.840000 -0.880000 10.038562 -22.945568 627.271790
7.200000 6.840000 -0.840000 5.730835 -17.992697 356.579590
7.200000 6.840000 -0.800000 2.615692 -22.661911 520.404053
7.200000 6.880000 -1.200000 26.686234 -25.391047 1356.860352
7.200000 6.880000 -1.160000 30.587542 -8.985996 1016.345825
7.200000 6.880000 -1.120000 21.018250 3.363697 453.081268
7.200000 6.880000 -1.080000 7.253496 3.072552 62.053776
7.200000 6.880000 -1.040000 0.864274 -6.979119 49.455078
7.200000 6.880000 -1.000000 5.375705 -16.397125 297.763916
7.200000 6.880000 -0.960000 14.540094 -17.588245 520.760742
7.200000 6.880000 -0.920000 19.864679 -11.912790 536.520081
7.200000 6.880000 -0.880000 18.954748 -6.369234 399.849609
7.200000 6.880000 -0.840000 16.447912 -5.379629 299.474213
7.200000 6.880000 -0.800000 17.659199 -6.485788 353.912750
7.200000 6.920000 -1.200000 38.797951 -0.599645 1505.640625
7.200000 6.920000 -1.160000 29.803207 15.047012 1114.643799
7.200000 6.920000 -1.120000 15.398188 17.612446 547.302429
7.200000 6.920000 -1.080000 7.495055 10.140778 159.011230
7.200000 6.920000 -1.040000 9.271707 2.662531 93.053619
7.200000 6.920000 -1.000000 14.958891 1.640752 226.460480
7.200000 6.920000 -0.960000 17.887335 5.542905 350.680542
7.200000 6.920000 -0.920000 16.923958 9.346897 373.784851
7.200000 6.920000 -0.880000 15.184787 11.063470 352.978119
7.200000 6.920000 -0.840000 14.487801 12.716797 371.613281
7.200000 6.920000 -0.800000 13.025961 16.043940 427.083649
7.200000 6.960000 -1.200000 28.916826 27.122562 1571.816162
7.200000 6.960000 -1.160000 10.144065 32.193035 1139.293579
7.200000 6.960000 -1.120000 -1.829417 23.415632 551.638550
7.200000 6.960000 -1.080000 -1.447825 13.168638 175.509232
7.200000 6.960000 -1.040000 4.736976 10.516834 133.042740
7.200000 6.960000 -1.000000 8.001182 14.222737 266.305176
7.200000 6.960000 -0.960000 6.530513 17.975555 365.768188
7.200000 6.960000 -0.920000 4.186062 19.246967 387.968842
7.200000 6.960000 -0.880000 2.940445 20.738945 438.750061
7.200000 6.960000 -0.840000 -0.197506 24.130056 582.298645
7.200000 6.960000 -0.800000 -7.975853 25.693916 723.791565
7.200000 7.000000 -1.200000 1.543754 39.743301 1581.913208
7.200000 7.000000 -1.160000 -17.341091 29.586405 1176.068848
7.200000 7.000000 -1.120000 -20.284948 12.815239 575.709473
7.200000 7.000000 -1.080000 -11.451275 3.771262 145.354111
7.200000 7.000000 -1.040000 -2.623220 5.616553 38.426956
7.200000 7.000000 -1.000000 -0.365248 11.688632 136.757523
7.200000 7.000000 -0.960000 -2.535959 15.837078 257.244141
7.200000 7.000000 -0.920000 -5.294621 18.224907 360.180267
7.200000 7.000000 -0.880000 -9.440868 20.990938 529.749451
7.200000 7.000000 -0.840000 -17.687382 21.740030 785.472412
7.200000 7.000000 -0.800000 -27.472610 15.017502 980.269653
7.200000 7.040000 -1.200000 -26.006966 28.955090 1514.759521
7.200000 7.040000 -1.160000 -34.857094 7.304222 1268.368652
7.200000 7.040000 -1.120000 -25.532070 -10.767948 767.835327
7.200000 7.040000 -1.080000 -9.048778 -14.814505 301.349915
7.200000 7.040000 -1.040000 2.373523 -7.191004 57.344147
7.200000 7.040000 -1.000000 4.680437 3.585050 34.759068
7.200000 7.040000 -0.960000 0.623588 11.888721 141.730530
7.200000 7.040000 -0.920000 -6.893605 16.602381 323.160828
7.200000 7.040000 -0.880000 -16.988728 16.669628 566.493347
7.200000 7.040000 -0.840000 -26.959921 9.351086 814.280151
7.200000 7.040000 -0.800000 -30.122414 -5.158123 933.966003
7.200000 7.080000 -1.200000 -36.121906 3.038684 1314.025757
7.200000 7.080000 -1.160000 -30.642443 -20.493752 1358.953125
7.200000 7.080000 -1.120000 -10.522488 -32.440769 1163.126343
7.200000 7.080000 -1.080000 10.888480 -27.289183 863.258484
7.200000 7.080000 -1.040000 22.283306 -10.527092 607.365417
7.200000 7.080000 -1.000000 20.285196 7.857513 473.229706
7.200000 7.080000 -0.960000 8.167562 19.864458 461.305786
7.200000 7.080000 -0.920000 -7.941522 21.563633 528.058044
7.200000 7.080000 -0.880000 -21.190147 12.711761 610.611206
7.200000 7.080000 -0.840000 -25.189079 -2.867923 642.714661
7.200000 7.080000 -0.800000 -17.003441 -17.093996 581.321716
7.200000 7.120000 -1.200000 -24.338985 -19.156605 959.361694
7.200000 7.120000 -1.160000 -8.240999 -35.410503 1321.817871
7.200000 7.120000 -1.120000 16.765377 -36.217552 1592.788940
7.200000 7.120000 -1.080000 37.017960 -19.271276 1741.711426
7.200000 7.120000 -1.040000 41.350471 7.281298 1762.878784
7.200000 7.120000 -1.000000 27.612906 29.930983 1658.336182
7.200000 7.120000 -0.960000 3.592587 37.698048 1434.049561
7.200000 7.120000 -0.920000 -17.732449 28.230423 1111.396484
7.200000 7.120000 -0.880000 -25.765781 8.832661 741.891357
7.200000 7.120000 -0.840000 -18.362026 -8.195145 404.324402
7.200000 7.120000 -0.800000 -2.718637 -13.183894 181.206055
7.200000 7.160000 -1.200000 -2.601448 -22.906050 531.454651
7.200000 7.160000 -1.160000 15.737948 -28.726524 1072.896240
7.200000 7.160000 -1.120000 37.813538 -18.462172 1770.715454
7.200000 7.160000 -1.080000 49.235420 7.780268 2484.659180
7.200000 7.160000 -1.040000 39.641579 37.731316 2995.106934
7.200000 7.160000 -1.000000 11.795955 54.272911 3084.693359
7.200000 7.160000 -0.960000 -18.847790 48.002167 2659.447266
7.200000 7.160000 -0.920000 -34.995575 24.761988 1837.846313
7.200000 7.160000 -0.880000 -30.346581 1.209285 922.377319
7.200000 7.160000 -0.840000 -13.503796 -8.165556 249.028809
7.200000 7.160000 -0.800000 0.152856 -1.494902 2.258097
7.200000 7.200000 -1.200000 10.788849 -8.969873 196.857880
7.200000 7.200000 -1.160000 24.508018 -8.125112 666.660400
7.200000 7.200000 -1.120000 38.156223 7.865238 1517.759277
7.200000 7.200000 -1.080000 36.670189 35.339272 2593.566895
7.200000 7.200000 -1.040000 13.552190 57.723034 3515.610596
7.200000 7.200000 -1.000000 -20.688423 58.450565 3844.479492
7.200000 7.200000 -0.960000 -45.383888 35.982914 3354.467285
7.200000 7.200000 -0.920000 -46.801529 6.216595 2229.029053
7.200000 7.200000 -0.880000 -29.579182 -10.902436 993.791077
7.200000 7.200000 -0.840000 -11.580517 -8.144554 200.442139
7.200000 7.200000 -0.800000 -7.384899 4.647069 76.131989
