#kx 	ky 	kz 	real 	imag 	intensity
2.800000 2.800000 -9.200000 -30.188015 -16.201536 1173.806030
2.800000 2.800000 -9.160000 -13.076001 -40.982521 1850.548828
2.800000 2.800000 -9.120000 17.955490 -42.650940 2141.502197
2.800000 2.800000 -9.080000 37.718662 -19.928335 1819.836060
2.800000 2.800000 -9.040000 31.823744 6.836122 1059.483276
2.800000 2.800000 -9.000000 9.607643 15.382195 328.918701
2.800000 2.800000 -8.960000 -6.228957 2.264230 43.926643
2.800000 2.800000 -8.920000 -2.111622 -15.898615 257.224915
2.800000 2.800000 -8.880000 14.838994 -20.662109 647.118530
2.800000 2.800000 -8.840000 26.806030 -9.754693 813.717285
2.800000 2.800000 -8.800000 24.749863 3.407404 624.166138
2.800000 2.840000 -9.200000 -13.274745 -34.429970 1361.641724
2.800000 2.840000 -9.160000 14.081162 -45.854362 2300.901611
2.800000 2.840000 -9.120000 41.364773 -32.840393 2789.535889
2.800000 2.840000 -9.080000 49.500904 -5.580958 2481.486816
2.800000 2.840000 -9.040000 36.307705 15.072951 1545.443237
2.800000 2.840000 -9.000000 17.073456 16.563728 565.859985
2.800000 2.840000 -8.960000 9.132862 4.593943 104.513481
2.800000 2.840000 -8.920000 16.156414 -4.749478 283.587280
2.800000 2.840000 -8.880000 27.269381 -1.519679 745.928589
2.800000 2.840000 -8.840000 30.166801 9.872505 1007.502258
2.800000 2.840000 -8.800000 23.607483 17.922279 878.521362
2.800000 2.880000 -9.200000 8.241652 -31.269991 1045.737183
2.800000 2.880000 -9.160000 33.143284 -28.647194 1919.139038
2.800000 2.880000 -9.120000 49.300018 -8.975096 2511.043945
2.800000 2.880000 -9.080000 47.438362 14.705349 2466.645508
2.800000 2.880000 -9.040000 32.381157 27.917879 1827.947266
2.800000 2.880000 -9.000000 17.582306 26.579216 1015.592163
2.800000 2.880000 -8.960000 12.775688 18.640371 510.681641
2.800000 2.880000 -8.920000 16.583799 14.966851 499.029053
2.800000 2.880000 -8.880000 20.275642 19.177412 778.874817
2.800000 2.880000 -8.840000 17.636000 26.002567 987.161987
2.800000 2.880000 -8.800000 10.546500 28.557671 926.769165
2.800000 2.920000 -9.200000 15.188290 -14.932470 453.662811
2.800000 2.920000 -9.160000 31.327126 -6.592277 1024.846924
2.800000 2.920000 -9.120000 38.020473 11.125767 1569.339111
2.800000 2.920000 -9.080000 31.721506 28.186581 1800.737305
2.800000 2.920000 -9.040000 17.904797 35.957199 1613.501953
2.800000 2.920000 -9.000000 5.950050 33.629974 1166.378296
2.800000 2.920000 -8.960000 1.300283 27.543119 760.314148
2.800000 2.920000 -8.920000 1.952247 24.597481 608.847351
2.800000 2.920000 -8.880000 1.994887 26.236397 692.328064
2.800000 2.920000 -8.840000 -1.941180 28.446388 812.965210
2.800000 2.920000 -8.800000 -7.753490 26.997562 788.984985
2.800000 2.960000 -9.200000 5.906371 -4.502958 55.161850
2.800000 2.960000 -9.160000 16.304058 2.472962 271.937836
2.800000 2.960000 -9.120000 19.066727 15.909589 616.655090
2.800000 2.960000 -9.080000 11.807890 27.680744 905.649841
2.800000 2.960000 -9.040000 -0.367153 31.156548 970.865295
2.800000 2.960000 -9.000000 -9.564846 26.675755 803.082153
2.800000 2.960000 -8.960000 -12.109395 20.377882 561.895508
2.800000 2.960000 -8.920000 -11.025369 17.774157 437.479401
2.800000 2.960000 -8.880000 -11.819405 18.635435 486.977783
2.800000 2.960000 -8.840000 -16.234684 18.209976 595.168213
2.800000 2.960000 -8.800000 -20.505592 13.171487 593.967407
2.800000 3.000000 -9.200000 -4.717468 -9.091961 104.918251
2.800000 3.000000 -9.160000 4.986797 -3.005333 33.900177
2.800000 3.000000 -9.120000 5.863969 8.331859 103.806000
2.800000 3.000000 -9.080000 -2.119747 15.396116 241.533722
2.800000 3.000000 -9.040000 -11.170588 13.578386 309.154633
2.800000 3.000000 -9.000000 -14.050160 7.134493 248.307999
2.800000 3.000000 -8.960000 -11.258300 3.725706 140.630203
2.800000 3.000000 -8.920000 -9.482658 5.807912 123.652649
2.800000 3.000000 -8.880000 -13.344976 8.242993 246.035339
2.800000 3.000000 -8.840000 -19.728683 4.625469 410.615906
2.800000 3.000000 -8.800000 -20.974560 -4.813285 463.099884
2.800000 3.040000 -9.200000 -3.416543 -19.816109 404.350922
2.800000 3.040000 -9.160000 4.755785 -10.604579 135.074585
2.800000 3.040000 -9.120000 1.665956 -1.506605 5.045269
2.800000 3.040000 -9.080000 -5.631656 -1.444333 33.801643
2.800000 3.040000 -9.040000 -6.728483 -7.897087 107.636475
2.800000 3.040000 -9.000000 0.075455 -10.694815 114.384750
2.800000 3.040000 -8.960000 6.041112 -4.375340 55.638630
2.800000 3.040000 -8.920000 2.386529 4.973130 30.427546
2.800000 3.040000 -8.880000 -8.960368 6.199889 118.726822
2.800000 3.040000 -8.840000 -16.475513 -4.204246 289.118225
2.800000 3.040000 -8.800000 -11.122585 -17.276993 422.206390
2.800000 3.080000 -9.200000 7.007912 -22.029705 534.418701
2.800000 3.080000 -9.160000 7.953009 -10.699343 177.726288
2.800000 3.080000 -9.120000 0.963828 -8.774742 77.925064
2.800000 3.080000 -9.080000 0.275315 -16.675467 278.147003
2.800000 3.080000 -9.040000 11.704885 -21.276129 589.677979
2.800000 3.080000 -9.000000 24.964983 -11.545451 756.547791
2.800000 3.080000 -8.960000 24.665512 7.553319 665.440125
2.800000 3.080000 -8.920000 8.003412 18.928694 422.350037
2.800000 3.080000 -8.880000 -10.640001 11.328690 241.548828
2.800000 3.080000 -8.840000 -13.796431 -8.073158 255.517380
2.800000 3.080000 -8.800000 1.105340 -20.321213 414.173462
2.800000 3.120000 -9.200000 12.407045 -12.933846 321.219116
2.800000 3.120000 -9.160000 4.219302 -7.608896 75.697815
2.800000 3.120000 -9.120000 0.231833 -16.911619 286.056610
2.800000 3.120000 -9.080000 13.048224 -26.936543 895.833496
2.800000 3.120000 -9.040000 34.627247 -19.243723 1569.367188
2.800000 3.120000 -9.000000 43.112396 7.249480 1911.233643
2.800000 3.120000 -8.960000 26.240437 32.389507 1737.640625
2.800000 3.120000 -8.920000 -4.028057 34.336540 1195.223267
2.800000 3.120000 -8.880000 -22.115326 12.166595 637.113708
2.800000 3.120000 -8.840000 -14.051979 -12.645518 357.367249
2.800000 3.120000 -8.800000 9.117992 -17.630932 393.987549
2.800000 3.160000 -9.200000 4.773536 -4.631475 44.237209
2.800000 3.160000 -9.160000 -4.948800 -12.860102 189.872833
2.800000 3.160000 -9.120000 3.828485 -29.159172 864.914612
2.800000 3.160000 -9.080000 30.193565 -29.739124 1796.066895
2.800000 3.160000 -9.040000 50.584778 -3.495707 2571.039795
2.800000 3.160000 -9.000000 41.961121 33.192745 2862.493896
2.800000 3.160000 -8.960000 6.721281 50.402054 2585.542480
2.800000 3.160000 -8.920000 -27.557156 33.988831 1914.637451
2.800000 3.160000 -8.880000 -34.194126 -0.138515 1169.257446
2.800000 3.160000 -8.840000 -12.627234 -21.735416 631.875366
2.800000 3.160000 -8.800000 12.893835 -15.446972 404.859924
2.800000 3.200000 -9.200000 -7.788610 -9.779840 156.307709
2.800000 3.200000 -9.160000 -6.711416 -29.299675 903.514038
2.800000 3.200000 -9.120000 17.949417 -40.360798 1951.175537
2.800000 3.200000 -9.080000 47.680042 -22.764164 2791.593750
2.800000 3.200000 -9.040000 53.255310 17.185001 3131.452148
2.800000 3.200000 -9.000000 23.983269 49.324432 3008.096924
2.800000 3.200000 -8.960000 -19.682472 47.325367 2627.090088
2.800000 3.200000 -8.920000 -44.144234 13.973846 2143.981689
2.800000 3.200000 -8.880000 -33.696568 -21.667521 1604.940063
2.800000 3.200000 -8.840000 -3.511994 -32.092915 1042.289307
2.800000 3.200000 -8.800000 17.416962 -15.752467 551.490784
2.840000 2.800000 -9.200000 3.301396 -32.737862 1082.666748
2.840000 2.800000 -9.160000 31.946232 -33.756477 2160.061523
2.840000 2.800000 -9.120000 51.754948 -10.401913 2786.774414
2.840000 2.800000 -9.080000 46.380592 19.365889 2526.197021
2.840000 2.800000 -9.040000 22.264786 32.555458 1555.578613
2.840000 2.800000 -9.000000 1.409464 22.846861 523.965637
2.840000 2.800000 -8.960000 -0.541615 4.904600 24.348450
2.840000 2.800000 -8.920000 11.746612 -2.126913 142.506638
2.840000 2.800000 -8.880000 20.889896 6.091431 473.493286
2.840000 2.800000 -8.840000 16.423609 16.981232 558.097168
2.840000 2.800000 -8.800000 5.084489 16.869614 310.435883
2.840000 2.840000 -9.200000 21.497795 -27.526699 1219.874390
2.840000 2.840000 -9.160000 47.820740 -17.058338 2577.810059
2.840000 2.840000 -9.120000 59.231209 10.991995 3629.160156
2.840000 2.840000 -9.080000 47.947624 38.382439 3772.186035
2.840000 2.840000 -9.040000 23.891830 49.025219 2974.291748
2.840000 2.840000 -9.000000 4.280128 41.966465 1779.503662
2.840000 2.840000 -8.960000 -1.902905 29.197689 856.126099
2.840000 2.840000 -8.920000 0.780542 22.216618 494.187347
2.840000 2.840000 -8.880000 2.619108 22.025795 491.995392
2.840000 2.840000 -8.840000 0.196593 21.846901 477.325714
2.840000 2.840000 -8.800000 -1.575860 17.579582 311.525055
2.840000 2.880000 -9.200000 26.184135 -10.026714 786.143921
2.840000 2.880000 -9.160000 45.257801 6.015548 2084.455322
2.840000 2.880000 -9.120000 49.016373 33.928574 3553.752930
2.840000 2.880000 -9.080000 33.101189 58.715969 4543.253906
2.840000 2.880000 -9.040000 5.943239 67.701187 4618.772949
2.840000 2.880000 -9.000000 -18.389206 59.073036 3827.786377
2.840000 2.880000 -8.960000 -30.424534 41.074562 2612.771973
2.840000 2.880000 -8.920000 -29.934025 24.193233 1481.358398
2.840000 2.880000 -8.880000 -22.737267 14.156858 717.399902
2.840000 2.880000 -8.840000 -14.632668 10.948820 333.991638
2.840000 2.880000 -8.800000 -8.408379 12.273242 221.333282
2.840000 2.920000 -9.200000 14.074755 1.254911 199.673523
2.840000 2.920000 -9.160000 27.801699 17.620323 1083.410278
2.840000 2.920000 -9.120000 26.265745 44.059044 2631.088623
2.840000 2.920000 -9.080000 4.808541 65.613319 4328.229980
2.840000 2.920000 -9.040000 -27.635159 68.231964 5419.303223
2.840000 2.920000 -9.000000 -54.195900 49.377560 5375.338867
2.840000 2.920000 -8.960000 -61.977444 19.888203 4236.744141
2.840000 2.920000 -8.920000 -50.557945 -4.237945 2574.065918
2.840000 2.920000 -8.880000 -30.629173 -13.020601 1107.682251
2.840000 2.920000 -8.840000 -14.959050 -7.740016 283.681030
2.840000 2.920000 -8.800000 -9.735094 2.793754 102.577118
2.840000 2.960000 -9.200000 -0.011120 -4.791562 22.959190
2.840000 2.960000 -9.160000 11.823199 12.347662 292.252808
2.840000 2.960000 -9.120000 4.804466 37.717682 1445.706421
2.840000 2.960000 -9.080000 -22.903923 52.194313 3248.835938
2.840000 2.960000 -9.040000 -56.064396 41.811981 4891.458496
2.840000 2.960000 -9.000000 -73.464844 10.173630 5500.586426
2.840000 2.960000 -8.960000 -64.726463 -23.766441 4754.358887
2.840000 2.960000 -8.920000 -37.956276 -40.714622 3098.359375
2.840000 2.960000 -8.880000 -11.936279 -35.458504 1399.780273
2.840000 2.960000 -8.840000 -0.636189 -18.418570 339.648438
2.840000 2.960000 -8.800000 -4.070807 -4.511172 36.922142
2.840000 3.000000 -9.200000 0.240845 -20.018501 400.798401
2.840000 3.000000 -9.160000 8.787884 1.098734 78.434113
2.840000 3.000000 -9.120000 -5.890529 22.982332 562.885986
2.840000 3.000000 -9.080000 -35.988506 24.766176 1908.536133
2.840000 3.000000 -9.040000 -58.915436 0.664105 3471.469482
2.840000 3.000000 -9.000000 -56.458679 -34.043930 4346.571777
2.840000 3.000000 -8.960000 -30.210838 -55.876892 4034.921875
2.840000 3.000000 -8.920000 0.814147 -52.766968 2785.015625
2.840000 3.000000 -8.880000 17.273918 -32.332962 1343.808594
2.840000 3.000000 -8.840000 14.723095 -12.459562 372.010223
2.840000 3.000000 -8.800000 3.623445 -4.810989 36.274971
2.840000 3.040000 -9.200000 14.791364 -26.437435 917.722412
2.840000 3.040000 -9.160000 14.294931 -2.569149 210.945587
2.840000 3.040000 -9.120000 -7.086997 9.583508 142.069168
2.840000 3.040000 -9.080000 -30.187233 -3.005213 920.300354
2.840000 3.040000 -9.040000 -33.343449 -31.268335 2089.494385
2.840000 3.040000 -9.000000 -12.144192 -52.273911 2880.043213
2.840000 3.040000 -8.960000 17.319452 -50.033119 2803.276367
2.840000 3.040000 -8.920000 34.046227 -28.683041 1981.862305
2.840000 3.040000 -8.880000 30.497646 -6.268529 969.400879
2.840000 3.040000 -8.840000 16.405756 3.002464 278.163635
2.840000 3.040000 -8.800000 6.328244 -0.072774 40.051971
2.840000 3.080000 -9.200000 27.654459 -16.185814 1026.749634
2.840000 3.080000 -9.160000 15.361252 2.295261 241.236282
2.840000 3.080000 -9.120000 -5.107079 -0.208345 26.125664
2.840000 3.080000 -9.080000 -11.612230 -20.305956 547.175720
2.840000 3.080000 -9.040000 4.257351 -37.359100 1413.827393
2.840000 3.080000 -9.000000 29.379688 -33.760532 2002.939697
2.840000 3.080000 -8.960000 42.517078 -11.444191 1938.671387
2.840000 3.080000 -8.920000 34.633972 11.424917 1330.040771
2.840000 3.080000 -8.880000 15.716712 18.922972 605.093872
2.840000 3.080000 -8.840000 2.646700 11.480860 138.815155
2.840000 3.080000 -8.800000 2.237659 2.181549 9.766272
2.840000 3.120000 -9.200000 24.740128 -0.027921 612.074707
2.840000 3.120000 -9.160000 6.874197 4.159400 64.555183
2.840000 3.120000 -9.120000 -1.839899 -10.055246 104.493210
2.840000 3.120000 -9.080000 10.197098 -24.388176 698.763916
2.840000 3.120000 -9.040000 32.478951 -19.669605 1441.775635
2.840000 3.120000 -9.000000 42.926109 4.392602 1861.945801
2.840000 3.120000 -8.960000 30.154671 28.867567 1742.640625
2.840000 3.120000 -8.920000 4.355194 34.598476 1216.022339
2.840000 3.120000 -8.880000 -13.737853 20.463490 607.483032
2.840000 3.120000 -8.840000 -13.398737 2.491407 185.733261
2.840000 3.120000 -8.800000 -2.462679 -3.762524 20.221371
2.840000 3.160000 -9.200000 9.292242 4.631174 107.793533
2.840000 3.160000 -9.160000 -1.728089 -6.195278 41.367760
2.840000 3.160000 -9.120000 6.971373 -20.804115 481.411255
2.840000 3.160000 -9.080000 28.727831 -18.175201 1155.626221
2.840000 3.160000 -9.040000 40.910126 6.222022 1712.351929
2.840000 3.160000 -9.000000 27.607235 34.356796 1942.548828
2.840000 3.160000 -8.960000 -3.869600 42.659164 1834.778076
2.840000 3.160000 -8.920000 -29.653925 24.794649 1494.129883
2.840000 3.160000 -8.880000 -32.162277 -3.004537 1043.439331
2.840000 3.160000 -8.840000 -15.524003 -18.697048 590.574280
2.840000 3.160000 -8.800000 1.228239 -15.181086 231.973938
2.840000 3.200000 -9.200000 -1.760221 -7.326490 56.775841
2.840000 3.200000 -9.160000 2.917769 -23.388149 555.518921
2.840000 3.200000 -9.120000 24.072977 -26.104942 1260.976318
2.840000 3.200000 -9.080000 41.303036 -5.339103 1734.446777
2.840000 3.200000 -9.040000 34.117393 25.723568 1825.698486
2.840000 3.200000 -9.000000 2.833494 41.399910 1721.981201
2.840000 3.200000 -8.960000 -30.226990 27.524937 1671.292969
2.840000 3.200000 -8.920000 -40.907345 -5.228728 1700.750488
2.840000 3.200000 -8.880000 -24.730371 -31.760782 1620.338623
2.840000 3.200000 -8.840000 1.174644 -35.665928 1273.438232
2.840000 3.200000 -8.800000 16.171436 -21.879253 740.217041
2.880000 2.800000 -9.200000 38.024353 -12.900919 1612.285156
2.880000 2.800000 -9.160000 54.790829 11.838559 3142.186523
2.880000 2.800000 -9.120000 45.354622 43.382809 3939.109863
2.880000 2.800000 -9.080000 15.317999 56.731590 3453.114502
2.880000 2.800000 -9.040000 -11.305105 43.789673 2045.340820
2.880000 2.800000 -9.000000 -16.005959 20.409973 672.757690
2.880000 2.800000 -8.960000 -3.122925 9.070347 92.023857
2.880000 2.800000 -8.920000 7.056273 15.975430 305.005341
2.880000 2.800000 -8.880000 1.047847 26.685707 713.224915
2.880000 2.800000 -8.840000 -13.988323 23.787552 761.520752
2.880000 2.800000 -8.800000 -19.545959 6.608477 425.716492
2.880000 2.840000 -9.200000 36.134087 6.858561 1352.712036
2.880000 2.840000 -9.160000 44.764442 31.479553 2994.817627
2.880000 2.840000 -9.120000 32.578236 57.753948 4396.859863
2.880000 2.840000 -9.080000 6.012716 69.299744 4838.607422
2.880000 2.840000 -9.040000 -19.037445 62.188927 4229.886719
2.880000 2.840000 -9.000000 -31.851604 45.778809 3110.223877
2.880000 2.840000 -8.960000 -33.948807 31.337692 2134.572510
2.880000 2.840000 -8.920000 -32.934525 21.786497 1559.334351
2.880000 2.840000 -8.880000 -31.936712 12.916595 1186.791992
2.880000 2.840000 -8.840000 -27.205082 2.624788 747.005981
2.880000 2.840000 -8.800000 -15.585518 -4.068856 259.463959
2.880000 2.880000 -9.200000 18.013298 17.281645 623.134155
2.880000 2.880000 -9.160000 23.976151 38.958702 2092.636230
2.880000 2.880000 -9.120000 11.697672 64.502258 4297.376953
2.880000 2.880000 -9.080000 -17.788380 78.663185 6504.322754
2.880000 2.880000 -9.040000 -52.223373 71.677292 7864.915039
2.880000 2.880000 -9.000000 -76.239807 45.494308 7882.240234
2.880000 2.880000 -8.960000 -80.557419 11.665249 6625.575684
2.880000 2.880000 -8.920000 -66.061447 -16.054770 4621.870117
2.880000 2.880000 -8.880000 -41.580257 -28.707775 2553.054199
2.880000 2.880000 -8.840000 -18.436689 -25.157001 972.786255
2.880000 2.880000 -8.800000 -5.270758 -11.094329 150.865021
2.880000 2.920000 -9.200000 -0.585754 7.622587 58.446945
2.880000 2.920000 -9.160000 6.406888 30.476601 969.871399
2.880000 2.920000 -9.120000 -10.301995 58.868572 3571.639893
2.880000 2.920000 -9.080000 -50.182220 70.001869 7418.517090
2.880000 2.920000 -9.040000 -93.152039 48.597378 11039.007812
2.880000 2.920000 -9.000000 -112.885086 0.708023 12743.543945
2.880000 2.920000 -8.960000 -96.453468 -48.908386 11695.301758
2.880000 2.920000 -8.920000 -54.045166 -74.331093 8445.991211
2.880000 2.920000 -8.880000 -10.897017 -66.529602 4544.933105
2.880000 2.920000 -8.840000 11.297555 -37.678036 1547.269165
2.880000 2.920000 -8.800000 8.148331 -9.591902 158.399872
2.880000 2.960000 -9.200000 -1.630358 -13.321779 180.127869
2.880000 2.960000 -9.160000 2.640434 15.976396 262.217102
2.880000 2.960000 -9.120000 -25.128029 43.302254 2506.502930
2.880000 2.960000 -9.080000 -73.587692 39.433205 6970.125977
2.880000 2.960000 -9.040000 -109.487534 -4.572920 12008.430664
2.880000 2.960000 -9.000000 -103.718750 -66.309647 15154.548828
2.880000 2.960000 -8.960000 -55.937950 -107.852547 14761.226562
2.880000 2.960000 -8.920000 4.478514 -105.380798 11125.168945
2.880000 2.960000 -8.880000 41.992371 -66.654915 6206.236328
2.880000 2.960000 -8.840000 41.761726 -21.925570 2224.772461
2.880000 2.960000 -8.800000 16.917095 1.786405 289.379364
2.880000 3.000000 -9.200000 16.390102 -24.929102 890.095581
2.880000 3.000000 -9.160000 9.513057 9.130597 173.866058
2.880000 3.000000 -9.120000 -29.614294 25.050426 1504.530273
2.880000 3.000000 -9.080000 -73.382393 -0.636070 5385.380371
2.880000 3.000000 -9.040000 -83.875931 -58.210529 10423.637695
2.880000 3.000000 -9.000000 -45.766430 -109.417114 14066.670898
2.880000 3.000000 -8.960000 19.073997 -118.255493 14348.178711
2.880000 3.000000 -8.920000 69.190094 -80.348938 11243.220703
2.880000 3.000000 -8.880000 77.176773 -24.622124 6562.503418
2.880000 3.000000 -8.840000 48.966728 12.719591 2559.528564
2.880000 3.000000 -8.800000 13.403066 16.742229 459.944397
2.880000 3.040000 -9.200000 36.234287 -15.343897 1548.358765
2.880000 3.040000 -9.160000 14.133760 13.370134 378.523682
2.880000 3.040000 -9.120000 -26.620049 9.716690 803.041016
2.880000 3.040000 -9.080000 -50.009201 -31.065987 3466.015625
2.880000 3.040000 -9.040000 -30.101522 -80.427765 7374.727051
2.880000 3.040000 -9.000000 24.586500 -99.274323 10459.886719
2.880000 3.040000 -8.960000 77.070091 -71.290543 11022.140625
2.880000 3.040000 -8.920000 92.912788 -16.126469 8892.849609
2.880000 3.040000 -8.880000 67.578384 28.912161 5402.750977
2.880000 3.040000 -8.840000 25.994141 40.227150 2293.918945
2.880000 3.040000 -8.800000 -2.269261 23.362417 550.952087
2.880000 3.080000 -9.200000 39.059700 6.570216 1568.827881
2.880000 3.080000 -9.160000 8.148466 18.926155 424.596832
2.880000 3.080000 -9.120000 -20.087114 -2.073423 407.791229
2.880000 3.080000 -9.080000 -17.346878 -40.709389 1958.168457
2.880000 3.080000 -9.040000 19.396021 -63.354858 4390.043945
2.880000 3.080000 -9.000000 63.659458 -47.845734 6341.740723
2.880000 3.080000 -8.960000 82.065269 -2.973772 6743.551758
2.880000 3.080000 -8.920000 62.580719 39.946075 5512.035156
2.880000 3.080000 -8.880000 22.394657 54.442242 3465.478516
2.880000 3.080000 -8.840000 -9.950281 39.061779 1624.830688
2.880000 3.080000 -8.800000 -19.112757 13.214675 539.925110
2.880000 3.120000 -9.200000 23.115215 20.466166 953.177124
2.880000 3.120000 -9.160000 -3.041429 14.144217 209.309174
2.880000 3.120000 -9.120000 -10.533105 -11.701720 247.876556
2.880000 3.120000 -9.080000 9.570367 -32.352356 1138.266846
2.880000 3.120000 -9.040000 41.110474 -26.140593 2373.401611
2.880000 3.120000 -9.000000 56.725658 5.589752 3249.045654
2.880000 3.120000 -8.960000 42.122242 39.667545 3347.797363
2.880000 3.120000 -8.920000 7.741362 51.855171 2748.887451
2.880000 3.120000 -8.880000 -22.199150 36.982773 1860.527710
2.880000 3.120000 -8.840000 -31.259626 10.129400 1079.769043
2.880000 3.120000 -8.800000 -21.952991 -9.732231 576.650146
2.880000 3.160000 -9.200000 4.608818 15.072610 248.424774
2.880000 3.160000 -9.160000 -6.106800 -1.116326 38.539188
2.880000 3.160000 -9.120000 3.640987 -17.625301 323.908020
2.880000 3.160000 -9.080000 24.708729 -16.179884 872.309937
2.880000 3.160000 -9.040000 36.176109 5.394508 1337.811646
2.880000 3.160000 -9.000000 24.544697 30.433424 1528.635498
2.880000 3.160000 -8.960000 -3.872890 38.379990 1488.022827
2.880000 3.160000 -8.920000 -29.002794 22.871143 1364.251221
2.880000 3.160000 -8.880000 -34.976776 -4.063486 1239.886841
2.880000 3.160000 -8.840000 -22.324968 -24.375248 1092.556885
2.880000 3.160000 -8.800000 -3.977678 -29.522514 887.400757
2.880000 3.200000 -9.200000 0.517612 -1.457495 2.392215
2.880000 3.200000 -9.160000 5.573804 -14.483498 240.838989
2.880000 3.200000 -9.120000 20.865904 -15.203524 666.533081
2.880000 3.200000 -9.080000 30.447273 0.336626 927.149780
2.880000 3.200000 -9.040000 21.791037 20.232922 884.220398
2.880000 3.200000 -9.000000 -1.976364 26.757336 719.861023
2.880000 3.200000 -8.960000 -24.119789 12.231808 731.381348
2.880000 3.200000 -8.920000 -28.731392 -14.244318 1028.393433
2.880000 3.200000 -8.880000 -13.795996 -35.210915 1430.137939
2.880000 3.200000 -8.840000 8.964809 -39.592499 1647.933716
2.880000 3.200000 -8.800000 25.757179 -29.776001 1550.042480
2.920000 2.800000 -9.200000 42.978642 29.075827 2692.567383
2.920000 2.800000 -9.160000 30.954840 61.735657 4769.493164
2.920000 2.800000 -9.120000 -5.772705 75.190529 5686.939941
2.920000 2.800000 -9.080000 -40.378265 56.311981 4801.443359
2.920000 2.800000 -9.040000 -47.621983 21.457958 2728.297363
2.920000 2.800000 -9.000000 -28.741447 0.008720 826.070862
2.920000 2.800000 -8.960000 -8.779894 4.754177 99.688736
2.920000 2.800000 -8.920000 -9.535851 20.401287 507.144958
2.920000 2.800000 -8.880000 -27.219311 21.838715 1217.820312
2.920000 2.800000 -8.840000 -38.203430 1.779277 1462.667847
2.920000 2.800000 -8.800000 -25.659391 -21.871082 1136.748535
2.920000 2.840000 -9.200000 16.205006 40.069191 1868.142212
2.920000 2.840000 -9.160000 2.431925 60.759270 3697.603271
2.920000 2.840000 -9.120000 -25.046492 67.576294 5193.882324
2.920000 2.840000 -9.080000 -50.614658 55.189678 5607.744141
2.920000 2.840000 -9.040000 -62.190800 32.860710 4947.521973
2.920000 2.840000 -9.000000 -60.859978 13.453316 3884.928467
2.920000 2.840000 -8.960000 -55.669403 0.984108 3100.051025
2.920000 2.840000 -8.920000 -51.243958 -9.720135 2720.424072
2.920000 2.840000 -8.880000 -43.226089 -22.383701 2369.524902
2.920000 2.840000 -8.840000 -26.489191 -31.649391 1703.361206
2.920000 2.840000 -8.800000 -5.343752 -28.275486 828.058777
2.920000 2.880000 -9.200000 -9.669943 25.822073 760.287292
2.920000 2.880000 -9.160000 -16.054869 42.967335 2103.950684
2.920000 2.880000 -9.120000 -38.924927 55.521767 4597.816406
2.920000 2.880000 -9.080000 -71.359406 50.331810 7625.455566
2.920000 2.880000 -9.040000 -98.002640 23.354383 10149.945312
2.920000 2.880000 -9.000000 -104.621841 -17.052147 11236.504883
2.920000 2.880000 -8.960000 -86.547157 -54.786407 10491.960938
2.920000 2.880000 -8.920000 -51.112778 -74.827377 8211.652344
2.920000 2.880000 -8.880000 -13.530411 -70.891777 5208.715820
2.920000 2.880000 -8.840000 11.038104 -48.243996 2449.322998
2.920000 2.880000 -8.800000 15.176799 -20.509182 650.961792
2.920000 2.920000 -9.200000 -13.421631 -3.033754 189.343842
2.920000 2.920000 -9.160000 -16.358047 22.253685 762.812256
2.920000 2.920000 -9.120000 -48.124374 41.022488 3998.799805
2.920000 2.920000 -9.080000 -94.940216 27.595261 9775.142578
2.920000 2.920000 -9.040000 -124.731918 -23.115263 16092.367188
2.920000 2.920000 -9.000000 -111.533295 -87.415878 20081.210938
2.920000 2.920000 -8.960000 -57.128857 -128.541702 19786.675781
2.920000 2.920000 -8.920000 8.901039 -123.872894 15423.722656
2.920000 2.920000 -8.880000 51.013077 -81.047714 9171.066406
2.920000 2.920000 -8.840000 52.958134 -30.240185 3719.032715
2.920000 2.920000 -8.800000 26.208485 -0.451212 687.088257
2.920000 2.960000 -9.200000 7.844185 -21.989708 545.078491
2.920000 2.960000 -9.160000 -4.886618 12.967848 192.044098
2.920000 2.960000 -9.120000 -52.618004 24.564945 3372.090820
2.920000 2.960000 -9.080000 -102.367142 -13.047983 10649.281250
2.920000 2.960000 -9.040000 -109.737885 -86.949020 19602.535156
2.920000 2.960000 -9.000000 -57.263550 -150.688156 25986.035156
2.920000 2.960000 -8.960000 27.911224 -160.355545 26492.937500
2.920000 2.960000 -8.920000 94.194244 -110.119598 20998.882812
2.920000 2.960000 -8.880000 106.051659 -35.740749 12524.355469
2.920000 2.960000 -8.840000 69.175613 15.926853 5038.930176
2.920000 2.960000 -8.800000 20.117571 23.001883 933.803223
2.920000 3.000000 -9.200000 35.031689 -14.983652 1451.729004
2.920000 3.000000 -9.160000 3.649069 17.598873 323.036041
2.920000 3.000000 -9.120000 -51.273197 7.184515 2680.557861
2.920000 3.000000 -9.080000 -81.831566 -53.844360 9595.620117
2.920000 3.000000 -9.040000 -51.042366 -127.477074 18855.726562
2.920000 3.000000 -9.000000 31.636761 -158.054626 25982.150391
2.920000 3.000000 -8.960000 114.303955 -118.885208 27199.085938
2.920000 3.000000 -8.920000 144.236969 -35.091782 22035.736328
2.920000 3.000000 -8.880000 109.695946 38.079857 13483.275391
2.920000 3.000000 -8.840000 44.998741 60.667625 5705.447266
2.920000 3.000000 -8.800000 -2.634750 35.777107 1286.943237
2.920000 3.040000 -9.200000 44.602875 10.853942 2107.224365
2.920000 3.040000 -9.160000 0.002953 25.586239 654.655640
2.920000 3.040000 -9.120000 -43.349548 -8.642874 1953.882568
2.920000 3.040000 -9.080000 -40.987411 -73.759239 7120.393066
2.920000 3.040000 -9.040000 18.726580 -119.009651 14513.981445
2.920000 3.040000 -9.000000 99.479736 -102.969368 20498.908203
2.920000 3.040000 -8.960000 144.799149 -30.365831 21888.876953
2.920000 3.040000 -8.920000 124.672691 50.916077 18135.726562
2.920000 3.040000 -8.880000 58.505978 89.956429 11515.108398
2.920000 3.040000 -8.840000 -4.996798 72.694969 5309.526367
2.920000 3.040000 -8.800000 -29.769251 26.633242 1595.537842
2.920000 3.080000 -9.200000 30.096306 32.735931 1977.428833
2.920000 3.080000 -9.160000 -11.503496 24.339306 724.732239
2.920000 3.080000 -9.120000 -29.761360 -19.867550 1280.458130
2.920000 3.080000 -9.080000 -0.649996 -66.124603 4372.885742
2.920000 3.080000 -9.040000 60.922806 -72.302284 8939.208984
2.920000 3.080000 -9.000000 109.770363 -25.265930 12687.899414
2.920000 3.080000 -8.960000 107.639008 45.585541 13664.197266
2.920000 3.080000 -8.920000 55.267761 92.208130 11556.864258
2.920000 3.080000 -8.880000 -9.889278 87.365540 7730.535156
2.920000 3.080000 -8.840000 -46.671967 43.671959 4085.512451
2.920000 3.080000 -8.800000 -42.159248 -2.677672 1784.572144
2.920000 3.120000 -9.200000 6.456438 34.095310 1204.175781
2.920000 3.120000 -9.160000 -18.188725 11.578282 464.886353
2.920000 3.120000 -9.120000 -13.059245 -24.194304 755.908203
2.920000 3.120000 -9.080000 22.818092 -41.954494 2280.844971
2.920000 3.120000 -9.040000 62.595898 -21.518177 4381.278320
2.920000 3.120000 -9.000000 72.597374 26.566902 5976.179199
2.920000 3.120000 -8.960000 41.189495 68.009293 6321.837891
2.920000 3.120000 -8.920000 -11.071724 73.056488 5459.833496
2.920000 3.120000 -8.880000 -49.198647 40.276978 4042.741699
2.920000 3.120000 -8.840000 -52.361343 -5.129307 2768.020020
2.920000 3.120000 -8.800000 -27.196857 -34.657196 1940.790283
2.920000 3.160000 -9.200000 -6.106872 18.781830 390.051025
2.920000 3.160000 -9.160000 -11.962485 -2.938967 151.738586
2.920000 3.160000 -9.120000 3.264777 -20.718523 439.915955
2.920000 3.160000 -9.080000 28.268133 -17.486738 1104.873291
2.920000 3.160000 -9.040000 41.039543 7.430443 1739.455566
2.920000 3.160000 -9.000000 27.474638 35.548050 2018.519531
2.920000 3.160000 -8.960000 -5.555943 43.783615 1947.873535
2.920000 3.160000 -8.920000 -35.181122 23.735661 1801.092896
2.920000 3.160000 -8.880000 -41.175274 -11.719517 1832.750244
2.920000 3.160000 -8.840000 -21.349689 -39.918049 2049.260010
2.920000 3.160000 -8.800000 9.397272 -46.441864 2245.155518
2.920000 3.200000 -9.200000 -1.432491 4.351785 20.990061
2.920000 3.200000 -9.160000 2.907467 -7.452213 63.988846
2.920000 3.200000 -9.120000 15.310024 -10.311070 340.715027
2.920000 3.200000 -9.080000 24.745478 -0.458956 612.549316
2.920000 3.200000 -9.040000 20.871666 14.613796 649.189453
2.920000 3.200000 -9.000000 3.788216 21.066486 458.147430
2.920000 3.200000 -8.960000 -14.490509 10.252390 315.086365
2.920000 3.200000 -8.920000 -19.117596 -13.251558 541.086243
2.920000 3.200000 -8.880000 -4.393344 -34.613605 1217.403198
2.920000 3.200000 -8.840000 21.888596 -40.183361 2093.813232
2.920000 3.200000 -8.800000 45.026093 -27.218433 2768.192139
2.960000 2.800000 -9.200000 12.831945 59.828796 3744.143799
2.960000 2.800000 -9.160000 -24.706274 75.594757 6324.967285
2.960000 2.800000 -9.120000 -66.376541 55.285336 7462.313477
2.960000 2.800000 -9.080000 -79.231331 9.739391 6372.459961
2.960000 2.800000 -9.040000 -55.195827 -26.446659 3746.005127
2.960000 2.800000 -9.000000 -19.548100 -28.706192 1206.173706
2.960000 2.800000 -8.960000 -5.146522 -6.279251 65.915680
2.960000 2.800000 -8.920000 -19.371006 9.050900 457.154663
2.960000 2.800000 -8.880000 -38.483635 -3.034436 1490.197876
2.960000 2.800000 -8.840000 -34.533970 -30.860538 2144.968018
2.960000 2.800000 -8.800000 -5.322079 -44.727802 2028.900757
2.960000 2.840000 -9.200000 -22.323980 44.644524 2491.493652
2.960000 2.840000 -9.160000 -47.727730 46.441444 4434.744141
2.960000 2.840000 -9.120000 -71.256981 28.551783 5892.761230
2.960000 2.840000 -9.080000 -78.045570 -0.394903 6091.266602
2.960000 2.840000 -9.040000 -67.495987 -24.039215 5133.592285
2.960000 2.840000 -9.000000 -51.790527 -34.526466 3874.335693
2.960000 2.840000 -8.960000 -41.200420 -37.995602 3141.140381
2.960000 2.840000 -8.920000 -33.522221 -43.912868 3052.079102
2.960000 2.840000 -8.880000 -19.610447 -51.653645 3052.668457
2.960000 2.840000 -8.840000 2.180964 -50.600266 2565.143555
2.960000 2.840000 -8.800000 20.493708 -33.893814 1568.782715
2.960000 2.880000 -9.200000 -32.471035 8.136036 1120.563232
2.960000 2.880000 -9.160000 -43.920506 14.957172 2152.727783
2.960000 2.880000 -9.120000 -65.705795 11.028635 4438.882324
2.960000 2.880000 -9.080000 -86.096031 -11.173952 7537.383789
2.960000 2.880000 -9.040000 -90.562729 -47.503147 10458.156250
2.960000 2.880000 -9.000000 -71.496994 -83.837219 12140.500000
2.960000 2.880000 -8.960000 -33.340206 -104.106628 11949.759766
2.960000 2.880000 -8.920000 9.474724 -99.249023 9940.139648
2.960000 2.880000 -8.880000 39.983196 -72.166870 6806.712891
2.960000 2.880000 -8.840000 47.540298 -36.401680 3585.162354
2.960000 2.880000 -8.800000 33.614300 -8.935120 1209.757568
2.960000 2.920000 -9.200000 -10.314692 -20.755693 537.191650
2.960000 2.920000 -9.160000 -23.627293 1.141161 559.551208
2.960000 2.920000 -9.120000 -61.003456 1.373449 3723.308105
2.960000 2.920000 -9.080000 -94.317490 -36.871841 10255.322266
2.960000 2.920000 -9.040000 -90.081398 -99.460663 18007.082031
2.960000 2.920000 -9.000000 -38.213314 -148.397964 23482.212891
2.960000 2.920000 -8.960000 36.860260 -150.448822 23993.527344
2.960000 2.920000 -8.920000 93.358902 -103.263184 19379.169922
2.960000 2.920000 -8.880000 103.243675 -36.777977 12011.876953
2.960000 2.920000 -8.840000 71.223740 10.440937 5181.834473
2.960000 2.920000 -8.800000 27.232178 19.192753 1109.953247
2.960000 2.960000 -9.200000 24.314203 -19.612219 975.819580
2.960000 2.960000 -9.160000 -7.543808 7.733309 116.713104
2.960000 2.960000 -9.120000 -59.606445 -8.835541 3630.995117
2.960000 2.960000 -9.080000 -83.582245 -74.144951 12483.464844
2.960000 2.960000 -9.040000 -44.448040 -147.865677 23839.886719
2.960000 2.960000 -9.000000 45.262020 -174.076569 32351.302734
2.960000 2.960000 -8.960000 131.296417 -127.940552 33607.535156
2.960000 2.960000 -8.920000 160.398972 -37.333298 27121.605469
2.960000 2.960000 -8.880000 122.035339 40.170197 16506.269531
2.960000 2.960000 -8.840000 52.823338 63.530052 6826.372559
2.960000 2.960000 -8.800000 2.510666 36.444420 1334.499146
2.960000 3.000000 -9.200000 42.464520 7.834099 1864.608521
2.960000 3.000000 -9.160000 -8.070927 20.426146 482.367279
2.960000 3.000000 -9.120000 -55.040077 -23.602459 3586.486328
2.960000 3.000000 -9.080000 -46.641598 -101.986259 12576.635742
2.960000 3.000000 -9.040000 29.744495 -154.179825 24656.152344
2.960000 3.000000 -9.000000 129.678101 -131.282120 34051.406250
2.960000 3.000000 -8.960000 184.950348 -39.983158 35805.285156
2.960000 3.000000 -8.920000 159.584686 61.019176 29190.611328
2.960000 3.000000 -8.880000 77.794479 109.405426 18021.527344
2.960000 3.000000 -8.840000 -0.158582 88.003021 7744.557129
2.960000 3.000000 -8.800000 -29.287567 31.220585 1832.486572
2.960000 3.040000 -9.200000 31.792648 36.754166 2361.641113
2.960000 3.040000 -9.160000 -20.156311 23.001505 935.346069
2.960000 3.040000 -9.120000 -41.255287 -37.790092 3130.089844
2.960000 3.040000 -9.080000 1.727245 -101.312943 10267.295898
2.960000 3.040000 -9.040000 89.955887 -109.820786 20152.666016
2.960000 3.040000 -9.000000 161.684036 -43.516968 28035.455078
2.960000 3.040000 -8.960000 162.382355 58.304420 29767.435547
2.960000 3.040000 -8.920000 90.794548 128.135040 24662.238281
2.960000 3.040000 -8.880000 -1.446423 125.531570 15760.266602
2.960000 3.040000 -8.840000 -54.953274 66.429657 7432.761719
2.960000 3.040000 -8.800000 -49.390755 2.485891 2445.626221
2.960000 3.080000 -9.200000 5.280579 45.026745 2055.292236
2.960000 3.080000 -9.160000 -28.939608 12.009907 981.738770
2.960000 3.080000 -9.120000 -20.328682 -42.897846 2253.480469
2.960000 3.080000 -9.080000 37.042446 -73.102112 6716.061523
2.960000 3.080000 -9.040000 105.048752 -43.705574 12945.417969
2.960000 3.080000 -9.000000 129.501556 34.095173 17933.132812
2.960000 3.080000 -8.960000 86.335625 108.034821 19125.363281
2.960000 3.080000 -8.920000 3.237877 127.093185 16163.161133
2.960000 3.080000 -8.880000 -63.767754 82.894440 10937.814453
2.960000 3.080000 -8.840000 -76.621338 12.823557 6035.273438
2.960000 3.080000 -8.800000 -41.810005 -35.247749 2990.480469
2.960000 3.120000 -9.200000 -13.973257 31.917604 1213.985352
2.960000 3.120000 -9.160000 -25.070965 -2.395617 634.292236
2.960000 3.120000 -9.120000 -0.905869 -35.883919 1288.476196
2.960000 3.120000 -9.080000 46.342514 -36.516823 3481.106934
2.960000 3.120000 -9.040000 79.816620 5.258862 6398.348633
2.960000 3.120000 -9.000000 67.839294 63.218403 8598.736328
2.960000 3.120000 -8.960000 12.863331 94.234253 9045.559570
2.960000 3.120000 -8.920000 -48.366634 73.974312 7811.530273
2.960000 3.120000 -8.880000 -74.762535 16.897512 5874.962402
2.960000 3.120000 -8.840000 -53.518852 -37.450752 4266.826172
2.960000 3.120000 -8.800000 -6.324372 -57.711021 3370.559814
2.960000 3.160000 -9.200000 -15.034245 14.531928 437.205444
2.960000 3.160000 -9.160000 -12.453641 -8.275768 223.581512
2.960000 3.160000 -9.120000 9.666508 -21.677309 563.347107
2.960000 3.160000 -9.080000 36.446289 -10.553839 1439.715576
2.960000 3.160000 -9.040000 44.144722 21.101902 2394.046875
2.960000 3.160000 -9.000000 21.168423 49.402176 2888.677002
2.960000 3.160000 -8.960000 -18.976048 49.220360 2782.734131
2.960000 3.160000 -8.920000 -46.754692 16.317711 2452.269043
2.960000 3.160000 -8.880000 -40.677624 -27.911127 2433.700195
2.960000 3.160000 -8.840000 -4.548193 -53.880032 2923.743896
2.960000 3.160000 -8.800000 37.325539 -47.155426 3616.830078
2.960000 3.200000 -9.200000 -6.310670 8.193123 106.951820
2.960000 3.200000 -9.160000 -2.282842 -3.429098 16.970078
2.960000 3.200000 -9.120000 10.718185 -8.060778 179.855637
2.960000 3.200000 -9.080000 22.902863 0.616830 524.921631
2.960000 3.200000 -9.040000 21.907555 16.883385 764.989624
2.960000 3.200000 -9.000000 5.557636 25.399338 676.013672
2.960000 3.200000 -8.960000 -13.235107 14.698364 391.209991
2.960000 3.200000 -8.920000 -16.168901 -10.698776 375.897186
2.960000 3.200000 -8.880000 4.192789 -32.091438 1047.439819
2.960000 3.200000 -8.840000 36.911201 -31.699972 2367.324951
2.960000 3.200000 -8.800000 61.180233 -7.282757 3796.059570
3.000000 2.800000 -9.200000 -28.611065 57.048454 4073.119141
3.000000 2.800000 -9.160000 -70.630997 42.899708 6829.122559
3.000000 2.800000 -9.120000 -90.873665 -3.978380 8273.850586
3.000000 2.800000 -9.080000 -69.024078 -52.195404 7488.683594
3.000000 2.800000 -9.040000 -21.493250 -66.606361 4898.367188
3.000000 2.800000 -9.000000 13.115152 -42.578522 1984.937744
3.000000 2.800000 -8.960000 11.522446 -9.987370 232.514313
3.000000 2.800000 -8.920000 -12.577072 -2.386314 163.877228
3.000000 2.800000 -8.880000 -24.928837 -23.555920 1176.328247
3.000000 2.800000 -8.840000 -7.188860 -46.122883 2179.000000
3.000000 2.800000 -8.800000 25.191145 -42.234016 2418.305908
3.000000 2.840000 -9.200000 -48.863548 18.908047 2745.160400
3.000000 2.840000 -9.160000 -68.299011 0.597672 4665.112305
3.000000 2.840000 -9.120000 -71.618759 -30.907400 6084.514160
3.000000 2.840000 -9.080000 -53.353912 -57.825642 6190.444824
3.000000 2.840000 -9.040000 -25.607771 -66.048798 5018.201660
3.000000 2.840000 -9.000000 -5.560211 -58.362839 3437.136963
3.000000 2.840000 -8.960000 1.662415 -49.305237 2433.770020
3.000000 2.840000 -8.920000 5.793667 -47.928658 2330.722900
3.000000 2.840000 -8.880000 17.318974 -48.302521 2633.080322
3.000000 2.840000 -8.840000 33.299065 -38.401192 2583.479248
3.000000 2.840000 -8.800000 39.892647 -16.707249 1870.555420
3.000000 2.880000 -9.200000 -31.749449 -19.517841 1388.973633
3.000000 2.880000 -9.160000 -40.229164 -21.788874 2093.140625
3.000000 2.880000 -9.120000 -50.555618 -36.228928 3868.405762
3.000000 2.880000 -9.080000 -50.329750 -62.051762 6383.504883
3.000000 2.880000 -9.040000 -31.746449 -88.408676 8823.931641
3.000000 2.880000 -9.000000 2.419075 -101.501160 10308.336914
3.000000 2.880000 -8.960000 40.201698 -93.157234 10294.447266
3.000000 2.880000 -8.920000 67.079773 -65.409180 8778.056641
3.000000 2.880000 -8.880000 73.403381 -29.412689 6253.162598
3.000000 2.880000 -8.840000 59.251278 0.051976 3510.716553
3.000000 2.880000 -8.800000 34.608276 12.035197 1342.578735
3.000000 2.920000 -9.200000 7.089839 -28.260506 848.921997
3.000000 2.920000 -9.160000 -13.114273 -15.284519 405.600708
3.000000 2.920000 -9.120000 -42.355019 -32.888718 2875.615234
3.000000 2.920000 -9.080000 -47.953239 -79.608093 8636.961914
3.000000 2.920000 -9.040000 -10.408012 -125.297241 15807.725586
3.000000 2.920000 -9.000000 57.018707 -133.723816 21133.191406
3.000000 2.920000 -8.960000 115.970436 -92.388168 21984.714844
3.000000 2.920000 -8.920000 132.175034 -23.544579 18024.587891
3.000000 2.920000 -8.880000 101.177551 33.006020 11326.293945
3.000000 2.920000 -8.840000 49.437057 50.032043 4947.228027
3.000000 2.920000 -8.800000 11.658030 30.545727 1068.951050
3.000000 2.960000 -9.200000 34.886162 -3.661245 1230.448975
3.000000 2.960000 -9.160000 -7.088833 4.179581 67.720444
3.000000 2.960000 -9.120000 -42.443104 -36.865875 3160.509766
3.000000 2.960000 -9.080000 -27.226986 -103.772102 11509.958008
3.000000 2.960000 -9.040000 45.445919 -142.680801 22423.142578
3.000000 2.960000 -9.000000 133.338821 -113.795151 30728.578125
3.000000 2.960000 -8.960000 177.058563 -27.454557 32103.486328
3.000000 2.960000 -8.920000 148.597717 62.495464 25986.964844
3.000000 2.960000 -8.880000 72.876770 102.457916 15808.648438
3.000000 2.960000 -8.840000 4.210127 80.354019 6474.493652
3.000000 2.960000 -8.800000 -18.848326 29.005163 1196.558838
3.000000 3.000000 -9.200000 31.505814 30.360073 1914.350342
3.000000 3.000000 -9.160000 -19.476997 13.865747 571.612366
3.000000 3.000000 -9.120000 -36.086506 -49.631119 3765.483887
3.000000 3.000000 -9.080000 13.952803 -112.097771 12760.590820
3.000000 3.000000 -9.040000 107.704536 -114.390846 24685.533203
3.000000 3.000000 -9.000000 179.603210 -39.453262 33813.871094
3.000000 3.000000 -8.960000 175.020493 68.497566 35324.089844
3.000000 3.000000 -8.920000 96.596008 138.857239 28612.121094
3.000000 3.000000 -8.880000 0.727398 132.377640 17524.369141
3.000000 3.000000 -8.840000 -51.309528 69.377335 7445.881836
3.000000 3.000000 -8.800000 -41.417351 5.565569 1746.372559
3.000000 3.040000 -9.200000 5.245552 46.194237 2161.423340
3.000000 3.040000 -9.160000 -31.785341 5.837980 1044.389893
3.000000 3.040000 -9.120000 -16.773792 -58.418262 3694.053467
3.000000 3.040000 -9.080000 55.314781 -90.330887 11219.394531
3.000000 3.040000 -9.040000 136.911377 -49.762932 21221.074219
3.000000 3.040000 -9.000000 163.310883 47.068443 28885.882812
3.000000 3.040000 -8.960000 108.204468 135.953156 30191.466797
3.000000 3.040000 -8.920000 7.627247 156.950531 24691.644531
3.000000 3.040000 -8.880000 -70.586349 103.144760 15621.274414
3.000000 3.040000 -8.840000 -83.060020 21.841211 7376.005371
3.000000 3.040000 -8.800000 -41.123741 -29.831648 2581.089355
3.000000 3.080000 -9.200000 -19.037910 36.904922 1724.415283
3.000000 3.080000 -9.160000 -30.214977 -8.934817 992.775757
3.000000 3.080000 -9.120000 6.392207 -51.799786 2724.078125
3.000000 3.080000 -9.080000 72.858131 -48.185753 7630.173828
3.000000 3.080000 -9.040000 118.033325 13.517651 14114.592773
3.000000 3.080000 -9.000000 99.352959 95.802124 19049.058594
3.000000 3.080000 -8.960000 22.038490 139.392899 19916.076172
3.000000 3.080000 -8.920000 -62.448166 112.521736 16560.914062
3.000000 3.080000 -8.880000 -98.767593 36.893730 11116.184570
3.000000 3.080000 -8.840000 -71.882446 -33.159149 6266.615234
3.000000 3.080000 -8.800000 -13.412825 -57.028763 3432.183594
3.000000 3.120000 -9.200000 -25.081177 17.959377 951.604675
3.000000 3.120000 -9.160000 -17.918716 -15.264576 554.087646
3.000000 3.120000 -9.120000 18.847290 -32.462460 1409.031616
3.000000 3.120000 -9.080000 61.175583 -10.515932 3853.036621
3.000000 3.120000 -9.040000 71.799171 43.248974 7025.594727
3.000000 3.120000 -9.000000 33.369854 90.757423 9350.457031
3.000000 3.120000 -8.960000 -32.223392 93.075668 9701.426758
3.000000 3.120000 -8.920000 -79.138931 44.363232 8231.066406
3.000000 3.120000 -8.880000 -75.134827 -22.198992 6138.037598
3.000000 3.120000 -8.840000 -26.954863 -62.413708 4622.035645
3.000000 3.120000 -8.800000 28.884277 -56.447193 4020.587158
3.000000 3.160000 -9.200000 -17.822620 7.748439 377.684082
3.000000 3.160000 -9.160000 -8.282695 -9.853210 165.688782
3.000000 3.160000 -9.120000 15.644373 -13.972251 439.970215
3.000000 3.160000 -9.080000 36.273335 5.623856 1347.382568
3.000000 3.160000 -9.040000 32.167545 38.111744 2487.255859
3.000000 3.160000 -9.000000 -0.135937 56.480690 3190.086914
3.000000 3.160000 -8.960000 -38.440689 40.650032 3130.111572
3.000000 3.160000 -8.920000 -51.540581 -2.557945 2662.974365
3.000000 3.160000 -8.880000 -26.071022 -42.903931 2520.445557
3.000000 3.160000 -8.840000 21.735991 -51.527588 3127.545654
3.000000 3.160000 -8.800000 60.247284 -24.003784 4205.916992
3.000000 3.200000 -9.200000 -13.057896 9.097032 253.264618
3.000000 3.200000 -9.160000 -9.048641 -2.452061 87.890511
3.000000 3.200000 -9.120000 5.146976 -6.765649 72.265366
3.000000 3.200000 -9.080000 17.958748 3.595235 335.442352
3.000000 3.200000 -9.040000 15.579411 21.017956 684.472473
3.000000 3.200000 -9.000000 -2.237057 27.754381 775.310059
3.000000 3.200000 -8.960000 -18.723793 13.507751 533.039795
3.000000 3.200000 -8.920000 -14.635019 -12.146038 361.710022
3.000000 3.200000 -8.880000 12.785925 -26.301233 855.234741
3.000000 3.200000 -8.840000 45.444000 -12.949337 2232.842529
3.000000 3.200000 -8.800000 59.409149 22.581722 4039.381104
3.040000 2.800000 -9.200000 -51.501183 27.443781 3405.532959
3.040000 2.800000 -9.160000 -75.605896 -8.984428 5796.971191
3.040000 2.800000 -9.120000 -63.439800 -58.421707 7437.704102
3.040000 2.800000 -9.080000 -16.470888 -84.518974 7414.747070
3.040000 2.800000 -9.040000 32.456787 -67.799072 5650.157227
3.040000 2.800000 -9.000000 48.768410 -25.434669 3025.280029
3.040000 2.800000 -8.960000 28.618896 5.001767 844.058960
3.040000 2.800000 -8.920000 0.799366 1.851587 4.067361
3.040000 2.800000 -8.880000 -3.594023 -21.457600 473.345581
3.040000 2.800000 -8.840000 18.161821 -33.264370 1436.370117
3.040000 2.800000 -8.800000 40.635071 -17.586143 1960.481445
3.040000 2.840000 -9.200000 -46.374535 -14.035215 2347.584717
3.040000 2.840000 -9.160000 -48.584076 -40.591339 4008.069336
3.040000 2.840000 -9.120000 -29.687323 -67.059364 5378.295410
3.040000 2.840000 -9.080000 3.903525 -75.312111 5687.151367
3.040000 2.840000 -9.040000 32.720497 -60.575325 4740.000977
3.040000 2.840000 -9.000000 42.416630 -36.284103 3115.706543
3.040000 2.840000 -8.960000 36.612911 -20.281237 1751.833740
3.040000 2.840000 -8.920000 30.724163 -17.356567 1245.224609
3.040000 2.840000 -8.880000 34.113209 -16.966579 1451.575928
3.040000 2.840000 -8.840000 40.649666 -7.839121 1713.847168
3.040000 2.840000 -8.800000 37.793465 7.745803 1488.343384
3.040000 2.880000 -9.200000 -11.333693 -34.052872 1288.050659
3.040000 2.880000 -9.160000 -13.053913 -39.789959 1753.645508
3.040000 2.880000 -9.120000 -9.379416 -53.704762 2972.174805
3.040000 2.880000 -9.080000 6.976416 -67.878952 4656.222656
3.040000 2.880000 -9.040000 33.757206 -71.107162 6195.777344
3.040000 2.880000 -9.000000 60.626778 -57.708893 7005.922852
3.040000 2.880000 -8.960000 76.426620 -31.203323 6814.675781
3.040000 2.880000 -8.920000 75.624710 -1.398312 5721.051758
3.040000 2.880000 -8.880000 60.254871 21.220520 4080.959961
3.040000 2.880000 -8.840000 38.102867 30.003588 2352.043701
3.040000 2.880000 -8.800000 19.243649 24.571518 974.077515
3.040000 2.920000 -9.200000 23.134869 -18.485317 876.929077
3.040000 2.920000 -9.160000 2.776144 -16.632633 284.351471
3.040000 2.920000 -9.120000 -9.366639 -41.504417 1810.350586
3.040000 2.920000 -9.080000 9.415461 -75.206306 5744.639648
3.040000 2.920000 -9.040000 57.225632 -86.525612 10761.455078
3.040000 2.920000 -9.000000 106.072632 -57.441853 14550.969727
3.040000 2.920000 -8.960000 123.405647 0.346405 15229.074219
3.040000 2.920000 -8.920000 98.087418 53.758034 12511.068359
3.040000 2.920000 -8.880000 48.497818 74.000519 7828.115234
3.040000 2.920000 -8.840000 6.800617 57.439888 3345.589111
3.040000 2.920000 -8.800000 -5.818883 25.014694 659.594299
3.040000 2.960000 -9.200000 29.860800 15.558107 1133.722046
3.040000 2.960000 -9.160000 -6.583319 2.214956 48.246117
3.040000 2.960000 -9.120000 -13.871046 -44.834053 2202.498291
3.040000 2.960000 -9.080000 29.089325 -86.185966 8274.209961
3.040000 2.960000 -9.040000 100.175369 -78.647011 16220.457031
3.040000 2.960000 -9.000000 148.391037 -14.544170 22231.433594
3.040000 2.960000 -8.960000 135.982330 68.375801 23166.443359
3.040000 2.960000 -8.920000 70.462334 116.972588 18647.527344
3.040000 2.960000 -8.880000 -2.489326 105.826050 11205.348633
3.040000 2.960000 -8.840000 -37.778595 54.896671 4440.866699
3.040000 2.960000 -8.800000 -25.469177 8.150980 715.117493
3.040000 3.000000 -9.200000 8.616156 38.246582 1537.039185
3.040000 3.000000 -9.160000 -22.948036 0.753544 527.180176
3.040000 3.000000 -9.120000 -5.217426 -55.616936 3120.465088
3.040000 3.000000 -9.080000 62.379814 -78.619354 10072.244141
3.040000 3.000000 -9.040000 133.364502 -35.091583 19017.509766
3.040000 3.000000 -9.000000 150.137604 55.311649 25600.679688
3.040000 3.000000 -8.960000 93.854507 132.406860 26340.246094
3.040000 3.000000 -8.920000 1.809579 144.920380 21005.191406
3.040000 3.000000 -8.880000 -64.278900 92.162262 12625.660156
3.040000 3.000000 -8.840000 -69.321739 20.514561 5226.350586
3.040000 3.000000 -8.800000 -28.782307 -19.316124 1201.533813
3.040000 3.040000 -9.200000 -17.854456 35.189495 1557.082153
3.040000 3.040000 -9.160000 -26.421900 -13.439729 878.743042
3.040000 3.040000 -9.120000 15.833169 -55.199043 3297.623535
3.040000 3.040000 -9.080000 85.934883 -45.164536 9424.639648
3.040000 3.040000 -9.040000 128.657150 24.425320 17149.257812
3.040000 3.040000 -9.000000 102.564491 110.304459 22686.546875
3.040000 3.040000 -8.960000 18.492611 150.964554 23132.273438
3.040000 3.040000 -8.920000 -67.132851 118.174759 18472.093750
3.040000 3.040000 -8.880000 -99.238739 39.743179 11427.847656
3.040000 3.040000 -8.840000 -68.053421 -26.867216 5353.115234
3.040000 3.040000 -8.800000 -10.771352 -43.681080 2024.058716
3.040000 3.080000 -9.200000 -28.592262 17.130333 1110.965820
3.040000 3.080000 -9.160000 -15.432843 -21.666506 707.610107
3.040000 3.080000 -9.120000 31.850540 -36.756836 2365.521973
3.040000 3.080000 -9.080000 80.588806 -3.362562 6505.862305
3.040000 3.080000 -9.040000 86.753975 64.504776 11687.118164
3.040000 3.080000 -9.000000 34.650875 118.951675 15350.183594
3.040000 3.080000 -8.960000 -44.756218 116.655945 15611.728516
3.040000 3.080000 -8.920000 -97.002785 56.604050 12613.558594
3.040000 3.080000 -8.880000 -89.041824 -18.653200 8276.387695
3.040000 3.080000 -8.840000 -34.581299 -59.562366 4743.541992
3.040000 3.080000 -8.800000 22.249828 -49.245758 2920.199707
3.040000 3.120000 -9.200000 -23.181332 4.130054 554.431519
3.040000 3.120000 -9.160000 -4.753455 -15.901840 275.463867
3.040000 3.120000 -9.120000 28.851744 -13.107820 1004.238037
3.040000 3.120000 -9.080000 51.103931 20.868999 3047.126953
3.040000 3.120000 -9.040000 36.477146 66.034912 5691.191406
3.040000 3.120000 -9.000000 -13.234066 86.037170 7577.535156
3.040000 3.120000 -8.960000 -64.940292 59.370724 7742.124512
3.040000 3.120000 -8.920000 -79.919601 0.629585 6387.539062
3.040000 3.120000 -8.880000 -46.594639 -49.890289 4660.101562
3.040000 3.120000 -8.840000 10.344817 -59.509903 3648.443604
3.040000 3.120000 -8.800000 52.442471 -28.307928 3551.551514
3.040000 3.160000 -9.200000 -16.803225 3.636529 295.572693
3.040000 3.160000 -9.160000 -6.476480 -5.930980 77.121323
3.040000 3.160000 -9.120000 11.588942 -2.557030 140.841980
3.040000 3.160000 -9.080000 20.976360 17.892057 760.133423
3.040000 3.160000 -9.040000 7.443523 40.905304 1728.649902
3.040000 3.160000 -9.000000 -23.539307 43.588020 2454.014404
3.040000 3.160000 -8.960000 -47.147995 16.957748 2510.498535
3.040000 3.160000 -8.920000 -40.113575 -22.229870 2103.266113
3.040000 3.160000 -8.880000 -2.685181 -43.784622 1924.303345
3.040000 3.160000 -8.840000 40.164635 -29.842335 2503.762695
3.040000 3.160000 -8.800000 59.810654 10.463490 3686.798828
3.040000 3.200000 -9.200000 -20.184662 5.661630 439.474609
3.040000 3.200000 -9.160000 -16.329475 -6.087593 303.710541
3.040000 3.200000 -9.120000 -2.155491 -9.634180 97.463570
3.040000 3.200000 -9.080000 9.154819 1.150492 85.134354
3.040000 3.200000 -9.040000 5.287964 16.349083 295.255066
3.040000 3.200000 -9.000000 -10.285696 19.150150 472.523804
3.040000 3.200000 -8.960000 -19.711769 4.256577 406.672272
3.040000 3.200000 -8.920000 -8.468369 -14.325742 276.940155
3.040000 3.200000 -8.880000 18.632622 -15.461429 586.230347
3.040000 3.200000 -8.840000 40.119694 8.689100 1685.090332
3.040000 3.200000 -8.800000 36.898396 44.560631 3347.141357
3.080000 2.800000 -9.200000 -45.715919 -3.114439 2099.645020
3.080000 2.800000 -9.160000 -44.289963 -41.336105 3670.274414
3.080000 2.800000 -9.120000 -10.336166 -71.244377 5182.597656
3.080000 2.800000 -9.080000 38.309429 -66.997673 5956.300293
3.080000 2.800000 -9.040000 68.215378 -28.858498 5486.150879
3.080000 2.800000 -9.000000 60.383991 14.768807 3864.343994
3.080000 2.800000 -8.960000 27.669134 32.798313 1841.310303
3.080000 2.800000 -8.920000 1.615648 19.512051 383.330444
3.080000 2.800000 -8.880000 1.983363 -2.780674 11.665877
3.080000 2.800000 -8.840000 19.869705 -8.262758 463.078339
3.080000 2.800000 -8.800000 30.508457 6.775648 976.675354
3.080000 2.840000 -9.200000 -24.061045 -29.783503 1465.990967
3.080000 2.840000 -9.160000 -10.891291 -50.025352 2621.156006
3.080000 2.840000 -9.120000 18.289803 -58.991428 3814.505371
3.080000 2.840000 -9.080000 49.294727 -45.278057 4480.072754
3.080000 2.840000 -9.040000 63.234882 -14.629457 4212.671387
3.080000 2.840000 -9.000000 53.923958 13.769480 3097.391846
3.080000 2.840000 -8.960000 33.296986 24.579350 1712.833618
3.080000 2.840000 -8.920000 19.057404 19.367611 738.288940
3.080000 2.840000 -8.880000 17.798916 12.195528 465.532288
3.080000 2.840000 -8.840000 21.275227 13.369984 631.391724
3.080000 2.840000 -8.800000 18.634848 19.442869 725.282715
3.080000 2.880000 -9.200000 8.733458 -27.488621 831.897522
3.080000 2.880000 -9.160000 12.505386 -31.403782 1142.582153
3.080000 2.880000 -9.120000 24.246674 -36.315067 1906.685303
3.080000 2.880000 -9.080000 42.769650 -32.698704 2898.448242
3.080000 2.880000 -9.040000 58.658291 -16.187569 3702.832520
3.080000 2.880000 -9.000000 62.463493 8.007723 3965.811523
3.080000 2.880000 -8.960000 52.260086 29.456108 3598.779053
3.080000 2.880000 -8.920000 34.014038 40.381832 2787.647217
3.080000 2.880000 -8.880000 16.182102 39.683990 1836.679565
3.080000 2.880000 -8.840000 4.642288 31.249477 998.080688
3.080000 2.880000 -8.800000 1.548508 20.452049 420.684204
3.080000 2.920000 -9.200000 24.316807 -1.276805 592.937317
3.080000 2.920000 -9.160000 10.511805 -7.509823 166.895477
3.080000 2.920000 -9.120000 13.737314 -26.473209 889.544617
3.080000 2.920000 -9.080000 39.072842 -36.567986 2863.904541
3.080000 2.920000 -9.040000 70.474365 -20.517080 5387.586914
3.080000 2.920000 -9.000000 83.352158 18.447948 7287.908691
3.080000 2.920000 -8.960000 65.213882 57.985546 7615.173828
3.080000 2.920000 -8.920000 26.143681 74.405281 6219.638184
3.080000 2.920000 -8.880000 -9.564007 61.072224 3821.286621
3.080000 2.920000 -8.840000 -22.562977 32.070541 1537.607544
3.080000 2.920000 -8.800000 -11.808291 9.542755 230.499924
3.080000 2.960000 -9.200000 12.848633 23.697433 726.655762
3.080000 2.960000 -9.160000 -6.203388 -0.349657 38.604286
3.080000 2.960000 -9.120000 8.295523 -33.423355 1185.936279
3.080000 2.960000 -9.080000 52.092987 -41.191223 4410.395996
3.080000 2.960000 -9.040000 92.225182 -6.429092 8546.817383
3.080000 2.960000 -9.000000 93.696533 53.060310 11594.436523
3.080000 2.960000 -8.960000 50.061314 97.281166 11969.759766
3.080000 2.960000 -8.920000 -10.276402 97.091995 9532.459961
3.080000 2.960000 -8.880000 -47.913921 57.690536 5623.941895
3.080000 2.960000 -8.840000 -44.494598 12.020775 2124.268311
3.080000 2.960000 -8.800000 -14.541050 -8.254790 279.583710
3.080000 3.000000 -9.200000 -10.592029 27.935570 892.587158
3.080000 3.000000 -9.160000 -15.786318 -10.541874 360.338928
3.080000 3.000000 -9.120000 19.155788 -40.201675 1983.118896
3.080000 3.000000 -9.080000 72.253799 -27.281092 5964.869141
3.080000 3.000000 -9.040000 99.636177 29.752262 10812.565430
3.080000 3.000000 -9.000000 72.767593 93.936295 14119.150391
3.080000 3.000000 -8.960000 5.140662 118.827148 14146.318359
3.080000 3.000000 -8.920000 -57.545837 87.615906 10988.070312
3.080000 3.000000 -8.880000 -75.580658 26.503790 6414.886719
3.080000 3.000000 -8.840000 -46.829765 -19.465223 2571.921875
3.080000 3.000000 -8.800000 -3.885466 -24.605467 620.525879
3.080000 3.040000 -9.200000 -24.363333 14.441814 802.137939
3.080000 3.040000 -9.160000 -9.436261 -20.711559 518.011719
3.080000 3.040000 -9.120000 35.186474 -30.492722 2167.894043
3.080000 3.040000 -9.080000 76.619202 4.407181 5889.925293
3.080000 3.040000 -9.040000 76.252182 66.646362 10256.132812
3.080000 3.040000 -9.000000 24.818451 111.535477 13056.117188
3.080000 3.040000 -8.960000 -45.709064 103.577988 12817.717773
3.080000 3.040000 -8.920000 -87.082054 47.447224 9834.523438
3.080000 3.040000 -8.880000 -74.799942 -15.970209 5850.078613
3.080000 3.040000 -8.840000 -26.508900 -44.906746 2719.337646
3.080000 3.040000 -8.800000 17.087425 -30.199875 1204.012573
3.080000 3.080000 -9.200000 -22.044674 0.960593 486.890381
3.080000 3.080000 -9.160000 1.453126 -17.379080 304.143982
3.080000 3.080000 -9.120000 36.800167 -8.206713 1421.602417
3.080000 3.080000 -9.080000 54.619156 31.814566 3995.418701
3.080000 3.080000 -9.040000 32.306126 77.476585 7046.306641
3.080000 3.080000 -9.000000 -22.225574 92.197891 8994.427734
3.080000 3.080000 -8.960000 -72.474876 59.645336 8810.173828
3.080000 3.080000 -8.920000 -82.397316 0.070999 6789.322754
3.080000 3.080000 -8.880000 -46.756699 -45.578674 4263.604492
3.080000 3.080000 -8.840000 5.728698 -49.761955 2509.070068
3.080000 3.080000 -8.800000 38.704544 -18.974197 1858.061890
3.080000 3.120000 -9.200000 -15.120050 -1.226421 230.120026
3.080000 3.120000 -9.160000 1.131649 -5.917960 36.302876
3.080000 3.120000 -9.120000 19.132000 6.673039 410.562866
3.080000 3.120000 -9.080000 20.745619 34.036064 1588.834351
3.080000 3.120000 -9.040000 -3.658058 56.183140 3169.926514
3.080000 3.120000 -9.000000 -41.383404 50.809952 4294.237305
3.080000 3.120000 -8.960000 -64.044228 15.079634 4329.058594
3.080000 3.120000 -8.920000 -51.348618 -28.167637 3430.096191
3.080000 3.120000 -8.880000 -9.879276 -48.103046 2411.503174
3.080000 3.120000 -8.840000 31.879644 -31.731270 2023.185181
3.080000 3.120000 -8.800000 47.828827 6.556432 2330.583496
3.080000 3.160000 -9.200000 -16.344822 1.963880 271.010010
3.080000 3.160000 -9.160000 -11.129484 -2.767507 131.524506
3.080000 3.160000 -9.120000 -1.765135 0.438735 3.308189
3.080000 3.160000 -9.080000 0.467140 12.807145 164.241180
3.080000 3.160000 -9.040000 -11.511875 22.678171 646.822693
3.080000 3.160000 -9.000000 -29.506268 16.224789 1133.863525
3.080000 3.160000 -8.960000 -35.065105 -6.468349 1271.401245
3.080000 3.160000 -8.920000 -17.288633 -27.927279 1078.829712
3.080000 3.160000 -8.880000 14.647270 -27.884209 992.071655
3.080000 3.160000 -8.840000 37.972198 -2.068506 1446.166504
3.080000 3.160000 -8.800000 35.903954 33.612530 2418.895996
3.080000 3.200000 -9.200000 -24.131893 -2.626622 589.247437
3.080000 3.200000 -9.160000 -20.092987 -15.218909 635.343323
3.080000 3.200000 -9.120000 -6.057465 -19.135126 402.845917
3.080000 3.200000 -9.080000 5.035625 -9.931007 123.982422
3.080000 3.200000 -9.040000 3.417796 2.626661 18.580677
3.080000 3.200000 -9.000000 -6.270965 5.359642 68.050758
3.080000 3.200000 -8.960000 -9.769672 -3.177238 105.541336
3.080000 3.200000 -8.920000 0.815838 -10.172283 104.140930
3.080000 3.200000 -8.880000 17.277882 -1.795326 301.748413
3.080000 3.200000 -8.840000 22.469496 21.792553 979.793579
3.080000 3.200000 -8.800000 6.886266 45.471901 2115.114502
3.120000 2.800000 -9.200000 -25.269142 -14.695948 854.500427
3.120000 2.800000 -9.160000 -8.311795 -38.023956 1514.907227
3.120000 2.800000 -9.120000 26.195492 -43.275101 2558.938232
3.120000 2.800000 -9.080000 57.397003 -19.985643 3693.842041
3.120000 2.800000 -9.040000 62.705418 20.023493 4332.909668
3.120000 2.800000 -9.000000 38.268333 50.413765 4006.012939
3.120000 2.800000 -8.960000 3.255613 52.663280 2784.020264
3.120000 2.800000 -8.920000 -17.170580 31.695034 1299.404053
3.120000 2.800000 -8.880000 -13.880513 9.466344 282.280304
3.120000 2.800000 -8.840000 0.627482 3.316387 11.392158
3.120000 2.800000 -8.800000 7.627350 10.999152 179.157806
3.120000 2.840000 -9.200000 -4.370609 -23.750694 583.197693
3.120000 2.840000 -9.160000 13.299823 -31.037281 1140.198120
3.120000 2.840000 -9.120000 37.492771 -23.619614 1963.593994
3.120000 2.840000 -9.080000 53.099907 1.538186 2821.966064
3.120000 2.840000 -9.040000 47.467796 32.393936 3302.558594
3.120000 2.840000 -9.000000 23.050907 50.485970 3080.177246
3.120000 2.840000 -8.960000 -3.682364 46.834999 2207.076904
3.120000 2.840000 -8.920000 -16.612846 29.219847 1129.786133
3.120000 2.840000 -8.880000 -13.300240 13.619028 362.374298
3.120000 2.840000 -8.840000 -4.196634 9.067442 99.830246
3.120000 2.840000 -8.800000 0.241516 11.561113 133.717682
3.120000 2.880000 -9.200000 13.196877 -11.767420 312.629700
3.120000 2.880000 -9.160000 18.795296 -11.836536 493.366760
3.120000 2.880000 -9.120000 29.483940 -6.804987 915.610596
3.120000 2.880000 -9.080000 37.690678 8.132127 1486.718628
3.120000 2.880000 -9.040000 34.390362 28.261349 1981.400879
3.120000 2.880000 -9.000000 18.339077 42.605927 2151.586670
3.120000 2.880000 -8.960000 -2.165995 43.452869 1892.843384
3.120000 2.880000 -8.920000 -16.348476 32.534206 1325.747314
3.120000 2.880000 -8.880000 -19.291685 18.358078 709.188171
3.120000 2.880000 -8.840000 -13.737686 8.648729 263.524536
3.120000 2.880000 -8.800000 -5.335515 5.850915 62.700928
3.120000 2.920000 -9.200000 12.550536 7.464401 213.233246
3.120000 2.920000 -9.160000 7.868536 0.029384 61.914722
3.120000 2.920000 -9.120000 16.296995 -6.335907 305.735748
3.120000 2.920000 -9.080000 30.601107 0.412290 936.597717
3.120000 2.920000 -9.040000 36.132671 20.676029 1733.068115
3.120000 2.920000 -9.000000 23.970310 42.066414 2344.158936
3.120000 2.920000 -8.960000 -0.927784 49.687126 2469.671387
3.120000 2.920000 -8.920000 -23.581636 38.449055 2034.423340
3.120000 2.920000 -8.880000 -30.954350 16.837549 1241.674805
3.120000 2.920000 -8.840000 -21.505142 -0.300753 462.561584
3.120000 2.920000 -8.800000 -5.044394 -2.932051 34.042828
3.120000 2.960000 -9.200000 -1.875349 15.967089 258.464844
3.120000 2.960000 -9.160000 -3.626672 -3.538533 25.673965
3.120000 2.960000 -9.120000 14.826873 -15.265738 452.878906
3.120000 2.960000 -9.080000 38.631001 -4.035122 1508.636475
3.120000 2.960000 -9.040000 45.525959 26.450703 2772.252686
3.120000 2.960000 -9.000000 25.107529 54.929092 3647.593018
3.120000 2.960000 -8.960000 -11.223171 59.830231 3705.615967
3.120000 2.960000 -8.920000 -39.089981 37.474602 2932.372559
3.120000 2.960000 -8.880000 -41.236130 5.019385 1725.612671
3.120000 2.960000 -8.840000 -21.049042 -14.266222 646.587280
3.120000 2.960000 -8.800000 1.813873 -9.924055 101.777008
3.120000 3.000000 -9.200000 -14.062269 9.718805 292.202606
3.120000 3.000000 -9.160000 -3.140720 -12.425360 164.253677
3.120000 3.000000 -9.120000 25.000259 -16.150095 885.838562
3.120000 3.000000 -9.080000 48.028099 7.801726 2367.565186
3.120000 3.000000 -9.040000 43.472538 45.624260 3971.434570
3.120000 3.000000 -9.000000 9.072474 69.281998 4882.304688
3.120000 3.000000 -8.960000 -33.061363 59.549809 4639.233398
3.120000 3.000000 -8.920000 -53.885281 22.898249 3427.953369
3.120000 3.000000 -8.880000 -41.551033 -13.712053 1914.508789
3.120000 3.000000 -8.840000 -10.441372 -25.773712 773.306519
3.120000 3.000000 -8.800000 12.769369 -11.021354 284.527039
3.120000 3.040000 -9.200000 -14.710245 -0.234875 216.446472
3.120000 3.040000 -9.160000 4.928977 -12.435654 178.940292
3.120000 3.040000 -9.120000 30.617846 -2.737304 944.945312
3.120000 3.040000 -9.080000 40.664436 28.044201 2440.073730
3.120000 3.040000 -9.040000 21.243164 59.669811 4011.758301
3.120000 3.040000 -9.000000 -18.883007 66.780388 4816.187988
3.120000 3.040000 -8.960000 -52.542171 40.756126 4421.741699
3.120000 3.040000 -8.920000 -55.907425 -1.215283 3127.116943
3.120000 3.040000 -8.880000 -28.690489 -29.763712 1709.022705
3.120000 3.040000 -8.840000 6.186644 -27.957085 819.873108
3.120000 3.040000 -8.800000 23.263468 -4.278588 559.495239
3.120000 3.080000 -9.200000 -9.519748 -2.716122 98.002914
3.120000 3.080000 -9.160000 6.253443 -2.885817 47.433483
3.120000 3.080000 -9.120000 19.287251 11.853214 512.496704
3.120000 3.080000 -9.080000 15.944794 35.645603 1524.845459
3.120000 3.080000 -9.040000 -7.840470 51.076176 2670.248535
3.120000 3.080000 -9.000000 -38.741737 42.494446 3306.700195
3.120000 3.080000 -8.960000 -54.110897 11.452496 3059.148926
3.120000 3.080000 -8.920000 -40.935135 -21.717665 2147.342285
3.120000 3.080000 -8.880000 -8.072777 -33.897865 1214.234985
3.120000 3.080000 -8.840000 20.856024 -18.693554 784.422668
3.120000 3.080000 -8.800000 27.855566 9.124522 859.189453
3.120000 3.120000 -9.200000 -9.625692 0.743030 93.206047
3.120000 3.120000 -9.160000 -4.885882 2.708099 31.205643
3.120000 3.120000 -9.120000 -1.702616 9.877291 100.459778
3.120000 3.120000 -9.080000 -6.561415 19.790117 434.700897
3.120000 3.120000 -9.040000 -20.811691 22.951775 959.910400
3.120000 3.120000 -9.000000 -35.113159 11.554001 1366.428955
3.120000 3.120000 -8.960000 -35.558193 -10.250563 1369.459229
3.120000 3.120000 -8.920000 -17.115120 -26.807247 1011.555786
3.120000 3.120000 -8.880000 9.538792 -23.908386 662.599487
3.120000 3.120000 -8.840000 26.065365 -1.974314 683.301147
3.120000 3.120000 -8.800000 22.276211 24.144463 1079.184570
3.120000 3.160000 -9.200000 -16.799362 -0.642757 282.631714
3.120000 3.160000 -9.160000 -17.482544 -6.800456 351.885559
3.120000 3.160000 -9.120000 -12.011413 -10.174038 247.785080
3.120000 3.160000 -9.080000 -7.120686 -7.142440 101.718613
3.120000 3.160000 -9.040000 -8.368313 -2.903612 78.459618
3.120000 3.160000 -9.000000 -12.442782 -4.764818 177.526321
3.120000 3.160000 -8.960000 -10.428661 -12.167459 256.804016
3.120000 3.160000 -8.920000 1.322618 -15.569260 244.151154
3.120000 3.160000 -8.880000 15.255618 -6.196689 271.132843
3.120000 3.160000 -8.840000 18.854084 13.929754 549.514526
3.120000 3.160000 -8.800000 6.618437 32.815201 1120.641113
3.120000 3.200000 -9.200000 -20.805145 -12.364841 585.743347
3.120000 3.200000 -9.160000 -15.551449 -25.795712 907.266357
3.120000 3.200000 -9.120000 -0.152127 -30.277050 916.722900
3.120000 3.200000 -9.080000 13.379265 -21.541229 643.029297
3.120000 3.200000 -9.040000 15.876084 -7.469801 307.847961
3.120000 3.200000 -9.000000 9.664993 1.123682 94.674759
3.120000 3.200000 -8.960000 4.334698 1.865374 22.269222
3.120000 3.200000 -8.920000 5.230091 1.951630 31.162714
3.120000 3.200000 -8.880000 7.662855 8.697676 134.368912
3.120000 3.200000 -8.840000 2.722773 20.554708 429.909515
3.120000 3.200000 -8.800000 -12.523341 28.359390 961.089111
3.160000 2.800000 -9.200000 -10.716218 -8.201056 182.094635
3.160000 2.800000 -9.160000 5.159029 -14.693432 242.512527
3.160000 2.800000 -9.120000 25.549046 -6.824605 699.328979
3.160000 2.800000 -9.080000 36.454460 16.772121 1610.231689
3.160000 2.800000 -9.040000 26.702999 44.135426 2660.985840
3.160000 2.800000 -9.000000 -0.826084 57.427494 3298.599365
3.160000 2.800000 -8.960000 -29.443741 47.583790 3131.150879
3.160000 2.800000 -8.920000 -41.782932 22.406612 2247.869629
3.160000 2.800000 -8.880000 -33.978271 -0.318786 1154.624634
3.160000 2.800000 -8.840000 -17.293407 -8.419849 369.955811
3.160000 2.800000 -8.800000 -5.885745 -4.496428 54.859856
3.160000 2.840000 -9.200000 -0.460472 -10.263781 105.557228
3.160000 2.840000 -9.160000 11.674123 -8.442778 207.565643
3.160000 2.840000 -9.120000 23.477116 4.526019 571.659851
3.160000 2.840000 -9.080000 23.735731 26.598637 1270.872437
3.160000 2.840000 -9.040000 6.775054 45.361328 2103.551514
3.160000 2.840000 -9.000000 -19.949638 47.400562 2644.801270
3.160000 2.840000 -8.960000 -40.322659 30.476393 2554.727295
3.160000 2.840000 -8.920000 -42.785660 6.136017 1868.263428
3.160000 2.840000 -8.880000 -29.576344 -10.266891 980.169128
3.160000 2.840000 -8.840000 -13.006021 -12.360867 321.947571
3.160000 2.840000 -8.800000 -3.179912 -5.756535 43.249535
3.160000 2.880000 -9.200000 4.779343 -3.656719 36.213715
3.160000 2.880000 -9.160000 9.224831 -0.899782 85.907112
3.160000 2.880000 -9.120000 13.266846 8.479470 247.910614
3.160000 2.880000 -9.080000 9.043729 22.398548 583.484009
3.160000 2.880000 -9.040000 -6.017933 31.614273 1035.677856
3.160000 2.880000 -9.000000 -24.922977 27.942600 1401.943604
3.160000 2.880000 -8.960000 -36.259956 12.283207 1465.661621
3.160000 2.880000 -8.920000 -33.828876 -5.692569 1176.798340
3.160000 2.880000 -8.880000 -21.226368 -15.749918 698.618591
3.160000 2.880000 -8.840000 -7.493201 -14.738806 273.380463
3.160000 2.880000 -8.800000 0.807323 -6.728217 45.920670
3.160000 2.920000 -9.200000 1.901325 2.181650 8.374632
3.160000 2.920000 -9.160000 3.081798 -0.238578 9.554397
3.160000 2.920000 -9.120000 6.545162 2.716050 50.216080
3.160000 2.920000 -9.080000 5.525482 10.509067 140.971436
3.160000 2.920000 -9.040000 -3.042711 16.759254 290.130707
3.160000 2.920000 -9.000000 -15.296813 15.100645 462.021973
3.160000 2.920000 -8.960000 -23.530766 4.929118 577.993103
3.160000 2.920000 -8.920000 -22.444084 -8.003859 567.798645
3.160000 2.920000 -8.880000 -12.960687 -16.038860 425.224426
3.160000 2.920000 -8.840000 -1.114894 -14.843637 221.576553
3.160000 2.920000 -8.800000 6.159168 -5.559371 68.841957
3.160000 2.960000 -9.200000 -2.726212 1.796764 10.660594
3.160000 2.960000 -9.160000 1.845431 -4.242663 21.405807
3.160000 2.960000 -9.120000 9.417724 -2.938229 97.326706
3.160000 2.960000 -9.080000 12.640224 5.349380 188.391129
3.160000 2.960000 -9.040000 7.158152 14.365385 257.603424
3.160000 2.960000 -9.000000 -4.661200 16.506895 294.204346
3.160000 2.960000 -8.960000 -15.009737 8.802574 302.777527
3.160000 2.960000 -8.920000 -16.346630 -4.241128 285.199493
3.160000 2.960000 -8.880000 -7.477055 -13.500832 238.178802
3.160000 2.960000 -8.840000 4.895176 -12.083476 169.973145
3.160000 2.960000 -8.800000 10.819490 -1.015455 118.092522
3.160000 3.000000 -9.200000 -2.950185 -1.148653 10.022993
3.160000 3.000000 -9.160000 5.782589 -4.347318 52.337509
3.160000 3.000000 -9.120000 14.629395 0.648351 214.439545
3.160000 3.000000 -9.080000 16.866220 11.921732 426.597076
3.160000 3.000000 -9.040000 9.008315 22.319387 579.304810
3.160000 3.000000 -9.000000 -5.324179 23.642477 587.313599
3.160000 3.000000 -8.960000 -16.554150 13.351254 452.295837
3.160000 3.000000 -8.920000 -16.174213 -2.007269 265.634308
3.160000 3.000000 -8.880000 -4.401155 -11.021833 140.850983
3.160000 3.000000 -8.840000 8.923615 -6.946196 127.880531
3.160000 3.000000 -8.800000 12.307469 5.816864 185.309708
3.160000 3.040000 -9.200000 -0.568577 -0.437139 0.514370
3.160000 3.040000 -9.160000 6.352541 2.186817 45.136948
3.160000 3.040000 -9.120000 10.496767 9.529163 200.987076
3.160000 3.040000 -9.080000 8.228576 19.242168 437.970520
3.160000 3.040000 -9.040000 -1.707958 25.470844 651.681030
3.160000 3.040000 -9.000000 -14.635904 22.170811 705.754578
3.160000 3.040000 -8.960000 -21.423494 9.323435 545.892517
3.160000 3.040000 -8.920000 -15.889068 -4.737499 274.906372
3.160000 3.040000 -8.880000 -1.549321 -9.246182 87.892288
3.160000 3.040000 -8.840000 10.127543 -0.882997 103.346825
3.160000 3.040000 -8.800000 9.862239 12.361523 250.070984
3.160000 3.080000 -9.200000 -2.093261 3.583420 17.222637
3.160000 3.080000 -9.160000 -2.435560 7.275307 58.862045
3.160000 3.080000 -9.120000 -3.713696 10.137629 116.563049
3.160000 3.080000 -9.080000 -6.615428 12.948041 211.415649
3.160000 3.080000 -9.040000 -12.331057 13.602127 337.072815
3.160000 3.080000 -9.000000 -18.290951 8.749201 411.107391
3.160000 3.080000 -8.960000 -18.597691 -0.808944 346.528473
3.160000 3.080000 -8.920000 -10.217028 -8.239319 172.274033
3.160000 3.080000 -8.880000 2.047086 -6.308277 43.984924
3.160000 3.080000 -8.840000 8.677527 4.804169 98.379517
3.160000 3.080000 -8.800000 4.598767 16.598320 296.652893
3.160000 3.120000 -9.200000 -9.162464 3.816148 98.513733
3.160000 3.120000 -9.160000 -14.655984 0.940298 215.682022
3.160000 3.120000 -9.120000 -14.523832 -4.625373 232.335785
3.160000 3.120000 -9.080000 -10.418369 -6.990491 157.409378
3.160000 3.120000 -9.040000 -7.376169 -5.658559 86.427155
3.160000 3.120000 -9.000000 -6.919089 -4.551651 68.591316
3.160000 3.120000 -8.960000 -5.736987 -5.624749 64.550819
3.160000 3.120000 -8.920000 -1.087828 -5.684131 33.492714
3.160000 3.120000 -8.880000 4.384836 -0.449607 19.428934
3.160000 3.120000 -8.840000 4.851831 9.362289 111.192734
3.160000 3.120000 -8.800000 -2.025053 17.796377 320.811859
3.160000 3.160000 -9.200000 -14.767231 -4.505519 238.370804
3.160000 3.160000 -9.160000 -17.065575 -15.835878 542.008850
3.160000 3.160000 -9.120000 -8.011187 -25.087181 693.545776
3.160000 3.160000 -9.080000 5.435945 -23.935474 602.456421
3.160000 3.160000 -9.040000 13.393724 -13.928733 373.401459
3.160000 3.160000 -9.000000 12.557782 -3.213089 168.021835
3.160000 3.160000 -8.960000 7.476287 2.467467 61.983269
3.160000 3.160000 -8.920000 3.787376 4.359347 33.348129
3.160000 3.160000 -8.880000 2.051126 6.950533 52.517025
3.160000 3.160000 -8.840000 -1.377356 11.658710 137.822617
3.160000 3.160000 -8.800000 -8.907942 15.430729 317.458801
3.160000 3.200000 -9.200000 -10.413674 -16.480785 380.060883
3.160000 3.200000 -9.160000 -3.439661 -29.604057 888.231445
3.160000 3.200000 -9.120000 14.117908 -32.909428 1282.345703
3.160000 3.200000 -9.080000 29.957623 -21.244289 1348.779053
3.160000 3.200000 -9.040000 33.206505 -1.683760 1105.507080
3.160000 3.200000 -9.000000 23.441673 13.702030 737.257690
3.160000 3.200000 -8.960000 9.146004 18.450779 424.080627
3.160000 3.200000 -8.920000 -1.226458 15.343979 236.941879
3.160000 3.200000 -8.880000 -5.971645 11.170019 160.429871
3.160000 3.200000 -8.840000 -9.004326 9.516497 171.641586
3.160000 3.200000 -8.800000 -14.137683 8.709820 275.735046
3.200000 2.800000 -9.200000 -10.098970 1.723759 104.960548
3.200000 2.800000 -9.160000 -4.749698 1.770552 25.694483
3.200000 2.800000 -9.120000 1.944682 7.426762 58.938576
3.200000 2.800000 -9.080000 3.181694 20.169624 416.936920
3.200000 2.800000 -9.040000 -7.669322 33.327206 1169.521118
3.200000 2.800000 -9.000000 -28.529629 35.417877 2068.365723
3.200000 2.800000 -8.960000 -47.245316 20.559027 2654.793457
3.200000 2.800000 -8.920000 -50.782982 -4.445819 2598.676514
3.200000 2.800000 -8.880000 -36.750099 -24.708153 1961.062622
3.200000 2.800000 -8.840000 -15.401303 -29.857452 1128.667603
3.200000 2.800000 -8.800000 0.238405 -22.129250 489.760498
3.200000 2.840000 -9.200000 -7.348907 -4.461739 73.913544
3.200000 2.840000 -9.160000 -3.075987 -2.091475 13.835964
3.200000 2.840000 -9.120000 -0.178426 6.078376 36.978489
3.200000 2.840000 -9.080000 -5.511285 17.566227 338.946594
3.200000 2.840000 -9.040000 -20.956408 23.259132 980.158264
3.200000 2.840000 -9.000000 -38.802391 15.148561 1735.104492
3.200000 2.840000 -8.960000 -46.680798 -5.018007 2204.277344
3.200000 2.840000 -8.920000 -38.230576 -25.623768 2118.154297
3.200000 2.840000 -8.880000 -18.902267 -34.601994 1554.593750
3.200000 2.840000 -8.840000 -0.844319 -29.257427 856.709961
3.200000 2.840000 -8.800000 7.825521 -16.833607 344.609070
3.200000 2.880000 -9.200000 -2.613065 -7.601077 64.604477
3.200000 2.880000 -9.160000 -0.230399 -4.199504 17.688917
3.200000 2.880000 -9.120000 -1.888917 2.886875 11.902057
3.200000 2.880000 -9.080000 -10.800044 8.151134 183.081940
3.200000 2.880000 -9.040000 -23.420500 4.858389 572.123779
3.200000 2.880000 -9.000000 -31.159233 -8.057117 1035.814941
3.200000 2.880000 -8.960000 -27.583464 -23.826530 1328.551025
3.200000 2.880000 -8.920000 -14.149653 -33.030788 1291.245605
3.200000 2.880000 -8.880000 1.174154 -31.134956 970.764160
3.200000 2.880000 -8.840000 10.737964 -21.141411 562.263123
3.200000 2.880000 -8.800000 12.476608 -9.436035 244.704514
3.200000 2.920000 -9.200000 3.037148 -7.880987 71.334229
3.200000 2.920000 -9.160000 3.733871 -4.016520 30.074226
3.200000 2.920000 -9.120000 -0.600013 -0.353916 0.485272
3.200000 2.920000 -9.080000 -7.829928 -1.818617 64.615143
3.200000 2.920000 -9.040000 -12.305225 -9.282526 237.583862
3.200000 2.920000 -9.000000 -9.999812 -18.473553 441.268402
3.200000 2.920000 -8.960000 -1.918002 -23.751762 567.824951
3.200000 2.920000 -8.920000 7.347070 -22.612186 565.290405
3.200000 2.920000 -8.880000 13.669683 -16.582668 461.845154
3.200000 2.920000 -8.840000 15.684696 -8.588072 319.764648
3.200000 2.920000 -8.800000 13.615855 -0.558464 185.703384
3.200000 2.960000 -9.200000 8.422601 -4.389986 90.212173
3.200000 2.960000 -9.160000 6.917325 0.069114 47.854160
3.200000 2.960000 -9.120000 1.914825 0.053457 3.669414
3.200000 2.960000 -9.080000 -0.594709 -5.109881 26.464567
3.200000 2.960000 -9.040000 2.633036 -10.584684 118.968422
3.200000 2.960000 -9.000000 9.040148 -11.511337 214.235153
3.200000 2.960000 -8.960000 13.692533 -7.813743 248.540009
3.200000 2.960000 -8.920000 14.637949 -3.081702 223.766434
3.200000 2.960000 -8.880000 13.760983 0.332018 189.474869
3.200000 2.960000 -8.840000 12.761686 3.549644 175.460617
3.200000 2.960000 -8.800000 9.965986 7.998319 163.293991
3.200000 3.000000 -9.200000 10.346209 2.836632 115.090508
3.200000 3.000000 -9.160000 5.158046 6.889904 74.076218
3.200000 3.000000 -9.120000 0.414265 3.347515 11.377473
3.200000 3.000000 -9.080000 2.543848 -2.673812 13.620430
3.200000 3.000000 -9.040000 9.721812 -3.525611 106.943565
3.200000 3.000000 -9.000000 14.627229 2.329471 219.382263
3.200000 3.000000 -8.960000 13.035164 9.334301 257.044678
3.200000 3.000000 -8.920000 7.924700 11.940268 205.370850
3.200000 3.000000 -8.880000 4.747404 10.780371 138.754242
3.200000 3.000000 -8.840000 4.250375 10.559105 129.560379
3.200000 3.000000 -8.800000 2.079731 12.745497 166.772980
3.200000 3.040000 -9.200000 5.878309 10.058308 135.724075
3.200000 3.040000 -9.160000 -3.382818 10.674069 125.379219
3.200000 3.040000 -9.120000 -6.721263 2.986393 54.093918
3.200000 3.040000 -9.080000 -0.524239 -2.947515 8.962668
3.200000 3.040000 -9.040000 8.169790 0.156531 66.769981
3.200000 3.040000 -9.000000 10.289863 9.404297 194.322067
3.200000 3.040000 -8.960000 4.525318 16.094875 279.523529
3.200000 3.040000 -8.920000 -2.603321 15.789517 256.086121
3.200000 3.040000 -8.880000 -5.316576 12.108604 174.884277
3.200000 3.040000 -8.840000 -4.867740 10.642570 136.959183
3.200000 3.040000 -8.800000 -6.206224 11.414522 168.808548
3.200000 3.080000 -9.200000 -3.299562 11.444936 141.873672
3.200000 3.080000 -9.160000 -13.871031 5.453387 222.144928
3.200000 3.080000 -9.120000 -13.033445 -6.377005 210.536880
3.200000 3.080000 -9.080000 -1.971897 -11.271168 130.927597
3.200000 3.080000 -9.040000 8.202779 -4.384935 86.513245
3.200000 3.080000 -9.000000 8.566290 7.468967 129.166794
3.200000 3.080000 -8.960000 0.578855 14.292672 204.615540
3.200000 3.080000 -8.920000 -7.561927 13.050185 227.490067
3.200000 3.080000 -8.880000 -10.552706 8.604601 185.398743
3.200000 3.080000 -8.840000 -10.149122 6.235149 141.881775
3.200000 3.080000 -8.800000 -10.394136 5.887288 142.698227
3.200000 3.120000 -9.200000 -10.426794 4.724448 131.038437
3.200000 3.120000 -9.160000 -17.206474 -7.927518 358.908295
3.200000 3.120000 -9.120000 -9.094700 -21.023218 524.689270
3.200000 3.120000 -9.080000 7.284019 -21.727276 525.131470
3.200000 3.120000 -9.040000 18.112377 -9.006750 409.179749
3.200000 3.120000 -9.000000 15.671369 6.767065 291.384979
3.200000 3.120000 -8.960000 4.047349 14.687763 232.111420
3.200000 3.120000 -8.920000 -6.965585 12.587225 206.957611
3.200000 3.120000 -8.880000 -11.524981 6.239679 171.758774
3.200000 3.120000 -8.840000 -10.980759 1.831240 123.930504
3.200000 3.120000 -8.800000 -9.564566 0.887731 92.268982
3.200000 3.160000 -9.200000 -9.190616 -5.269825 112.238472
3.200000 3.160000 -9.160000 -8.391441 -20.382263 485.852936
3.200000 3.160000 -9.120000 7.061673 -29.315105 909.242676
3.200000 3.160000 -9.080000 25.760258 -21.895042 1142.983765
3.200000 3.160000 -9.040000 33.084461 -1.963250 1098.435913
3.200000 3.160000 -9.000000 24.054855 16.831455 861.933960
3.200000 3.160000 -8.960000 6.274761 23.348566 584.528137
3.200000 3.160000 -8.920000 -8.208463 17.206890 363.455933
3.200000 3.160000 -8.880000 -12.992975 6.561817 211.874847
3.200000 3.160000 -8.840000 -10.399935 -0.267931 108.230431
3.200000 3.160000 -8.800000 -7.037120 -0.773768 50.119774
3.200000 3.200000 -9.200000 -0.173355 -10.032058 100.672234
3.200000 3.200000 -9.160000 7.468735 -21.830311 532.344482
3.200000 3.200000 -9.120000 25.673880 -22.391125 1160.510498
3.200000 3.200000 -9.080000 40.423000 -6.333469 1674.131714
3.200000 3.200000 -9.040000 39.041573 17.636444 1835.288574
3.200000 3.200000 -9.000000 21.117905 34.212017 1616.428101
3.200000 3.200000 -8.960000 -1.811135 34.192425 1172.402100
3.200000 3.200000 -8.920000 -16.394663 20.890022 705.177979
3.200000 3.200000 -8.880000 -17.678556 5.685938 344.861267
3.200000 3.200000 -8.840000 -11.077787 -1.911216 126.370125
3.200000 3.200000 -8.800000 -6.095514 -0.865861 37.905006
