#kx 	ky 	kz 	real 	imag 	intensity
2.800000 4.800000 -7.200000 -16.559353 -35.871227 1560.957153
2.800000 4.800000 -7.160000 5.840538 -45.544991 2108.458008
2.800000 4.800000 -7.120000 28.202240 -35.607971 2063.293945
2.800000 4.800000 -7.080000 35.392262 -14.228145 1455.052246
2.800000 4.800000 -7.040000 25.609535 2.106989 660.287659
2.800000 4.800000 -7.000000 10.767229 3.289188 126.751984
2.800000 4.800000 -6.960000 4.703737 -6.615891 65.895157
2.800000 4.800000 -6.920000 11.036358 -15.026321 347.591522
2.800000 4.800000 -6.880000 21.848335 -13.301177 654.271057
2.800000 4.800000 -6.840000 27.032101 -3.604733 743.728577
2.800000 4.800000 -6.800000 23.959192 5.482687 604.102783
2.800000 4.840000 -7.200000 6.467589 -39.844597 1629.421631
2.800000 4.840000 -7.160000 28.841389 -39.300453 2376.351318
2.800000 4.840000 -7.120000 44.445831 -23.888477 2546.091309
2.800000 4.840000 -7.080000 45.494759 -4.421241 2089.320312
2.800000 4.840000 -7.040000 35.691441 7.472873 1329.722778
2.800000 4.840000 -7.000000 25.334496 8.391249 712.249756
2.800000 4.840000 -6.960000 21.922644 3.957189 496.261627
2.800000 4.840000 -6.920000 24.983456 2.101789 628.590576
2.800000 4.840000 -6.880000 28.676281 6.009202 858.439636
2.800000 4.840000 -6.840000 28.227488 12.861942 962.220642
2.800000 4.840000 -6.800000 23.701702 18.071730 888.358093
2.800000 4.880000 -7.200000 22.471148 -25.359871 1148.075562
2.800000 4.880000 -7.160000 39.176582 -19.294491 1907.081909
2.800000 4.880000 -7.120000 48.377941 -4.055797 2356.874756
2.800000 4.880000 -7.080000 46.763973 12.255402 2337.063965
2.800000 4.880000 -7.040000 37.790070 22.648058 1941.023926
2.800000 4.880000 -7.000000 27.968409 25.340145 1424.354736
2.800000 4.880000 -6.960000 22.048210 23.481255 1037.492920
2.800000 4.880000 -6.920000 20.572334 21.795347 898.258118
2.800000 4.880000 -6.880000 20.708324 23.092257 962.087036
2.800000 4.880000 -6.840000 19.057930 26.843948 1083.802246
2.800000 4.880000 -6.800000 14.271062 30.256477 1119.117676
2.800000 4.920000 -7.200000 20.556417 -7.031770 472.012085
2.800000 4.920000 -7.160000 32.506847 -1.148189 1058.013428
2.800000 4.920000 -7.120000 38.833824 12.089745 1654.227783
2.800000 4.920000 -7.080000 35.916935 26.797457 2008.129883
2.800000 4.920000 -7.040000 25.557835 36.320511 1972.382446
2.800000 4.920000 -7.000000 13.787716 37.620888 1605.432251
2.800000 4.920000 -6.960000 6.525125 33.263832 1149.059814
2.800000 4.920000 -6.920000 5.199910 29.136095 875.951111
2.800000 4.920000 -6.880000 5.986371 29.386066 899.377502
2.800000 4.920000 -6.840000 3.669887 32.880596 1094.601562
2.800000 4.920000 -6.800000 -3.175405 34.593117 1206.766968
2.800000 4.960000 -7.200000 7.489781 -0.521249 56.368519
2.800000 4.960000 -7.160000 18.752174 4.428111 371.252197
2.800000 4.960000 -7.120000 23.562746 17.490545 861.122192
2.800000 4.960000 -7.080000 17.723293 30.761961 1260.413330
2.800000 4.960000 -7.040000 5.195021 36.116474 1331.387939
2.800000 4.960000 -7.000000 -5.298157 32.202324 1065.060059
2.800000 4.960000 -6.960000 -8.152515 25.289156 706.004883
2.800000 4.960000 -6.920000 -5.794291 22.910990 558.487244
2.800000 4.960000 -6.880000 -5.622378 26.340958 725.457214
2.800000 4.960000 -6.840000 -11.940088 29.592112 1018.258789
2.800000 4.960000 -6.800000 -21.128521 26.038095 1124.396851
2.800000 5.000000 -7.200000 -1.176032 -7.185480 53.014175
2.800000 5.000000 -7.160000 10.048233 0.282710 101.046913
2.800000 5.000000 -7.120000 10.830603 13.659264 303.877441
2.800000 5.000000 -7.080000 1.420344 21.876362 480.592560
2.800000 5.000000 -7.040000 -8.885695 19.681528 466.318115
2.800000 5.000000 -7.000000 -11.434671 12.411314 284.792419
2.800000 5.000000 -6.960000 -7.029020 9.744532 144.363022
2.800000 5.000000 -6.920000 -4.584144 15.000662 246.034225
2.800000 5.000000 -6.880000 -10.961756 21.375477 577.071106
2.800000 5.000000 -6.840000 -22.875105 19.284779 895.173096
2.800000 5.000000 -6.800000 -29.683865 7.116910 931.782227
2.800000 5.040000 -7.200000 1.873649 -14.882309 224.993683
2.800000 5.040000 -7.160000 8.491902 -3.650549 85.438919
2.800000 5.040000 -7.120000 3.265547 5.718356 43.363388
2.800000 5.040000 -7.080000 -5.144316 4.722594 48.766876
2.800000 5.040000 -7.040000 -5.685219 -2.590000 39.029812
2.800000 5.040000 -7.000000 2.439800 -4.518394 26.368513
2.800000 5.040000 -6.960000 8.521200 4.623695 93.989410
2.800000 5.040000 -6.920000 2.190903 17.122028 297.963898
2.800000 5.040000 -6.880000 -14.286753 19.278700 575.779541
2.800000 5.040000 -6.840000 -26.969065 6.107243 764.628845
2.800000 5.040000 -6.800000 -23.983574 -12.402898 729.043701
2.800000 5.080000 -7.200000 9.081502 -12.962025 250.487762
2.800000 5.080000 -7.160000 6.884728 -3.271928 58.105000
2.800000 5.080000 -7.120000 -0.359432 -3.895533 15.304366
2.800000 5.080000 -7.080000 0.708666 -12.568178 158.461319
2.800000 5.080000 -7.040000 13.464359 -15.450847 420.017639
2.800000 5.080000 -7.000000 25.784563 -2.918308 673.360229
2.800000 5.080000 -6.960000 22.197308 17.937033 814.457642
2.800000 5.080000 -6.920000 1.300492 28.624451 821.050476
2.800000 5.080000 -6.880000 -20.661850 17.851357 745.583008
2.800000 5.080000 -6.840000 -24.875917 -6.061143 655.548706
2.800000 5.080000 -6.800000 -8.508115 -22.477682 577.634216
2.800000 5.120000 -7.200000 8.256307 -4.327659 86.895233
2.800000 5.120000 -7.160000 0.220291 -4.460489 19.944492
2.800000 5.120000 -7.120000 0.354103 -15.505875 240.557526
2.800000 5.120000 -7.080000 16.095949 -22.470184 763.988770
2.800000 5.120000 -7.040000 36.130009 -10.435385 1414.274780
2.800000 5.120000 -7.000000 39.779526 17.468988 1887.576172
2.800000 5.120000 -6.960000 18.528128 39.940948 1938.570923
2.800000 5.120000 -6.920000 -13.033778 37.298363 1561.047241
2.800000 5.120000 -6.880000 -29.552097 11.412451 1003.570496
2.800000 5.120000 -6.840000 -18.902016 -15.167397 587.336121
2.800000 5.120000 -6.800000 6.600793 -20.595285 467.736237
2.800000 5.160000 -7.200000 -2.561304 -1.458106 8.686353
2.800000 5.160000 -7.160000 -6.354460 -14.232491 242.942932
2.800000 5.160000 -7.120000 8.434202 -27.241367 813.227844
2.800000 5.160000 -7.080000 34.417236 -20.951981 1623.531616
2.800000 5.160000 -7.040000 48.476250 8.535254 2422.797363
2.800000 5.160000 -7.000000 33.568783 41.842720 2877.676270
2.800000 5.160000 -6.960000 -2.723981 52.390289 2752.162598
2.800000 5.160000 -6.920000 -33.008728 31.584259 2087.141602
2.800000 5.160000 -6.880000 -34.827881 -2.327784 1218.399902
2.800000 5.160000 -6.840000 -11.077412 -21.191730 571.798462
2.800000 5.160000 -6.800000 14.236233 -12.847881 367.738373
2.800000 5.200000 -7.200000 -12.374701 -11.584791 287.340576
2.800000 5.200000 -7.160000 -2.720446 -29.945877 904.156372
2.800000 5.200000 -7.120000 24.488062 -32.806751 1675.948120
2.800000 5.200000 -7.080000 48.103031 -8.838978 2392.029053
2.800000 5.200000 -7.040000 44.968819 29.340443 2883.056152
2.800000 5.200000 -7.000000 12.431244 53.594170 3026.870850
2.800000 5.200000 -6.960000 -26.913641 45.037476 2752.718262
2.800000 5.200000 -6.920000 -44.372673 11.628059 2104.145752
2.800000 5.200000 -6.880000 -30.453226 -19.016533 1289.027466
2.800000 5.200000 -6.840000 -1.876867 -24.693836 613.308167
2.800000 5.200000 -6.800000 15.696424 -7.041735 295.963745
2.840000 4.800000 -7.200000 27.840656 -35.920219 2065.364258
2.840000 4.800000 -7.160000 48.596291 -22.277803 2857.899902
2.840000 4.800000 -7.120000 52.967621 2.523911 2811.938965
2.840000 4.800000 -7.080000 39.316315 21.076351 1989.985107
2.840000 4.800000 -7.040000 20.613449 23.044792 955.976685
2.840000 4.800000 -7.000000 11.213573 13.393175 305.121368
2.840000 4.800000 -6.960000 13.897627 5.325139 221.501129
2.840000 4.800000 -6.920000 19.768108 6.488561 432.879517
2.840000 4.800000 -6.880000 19.504139 12.882466 546.369385
2.840000 4.800000 -6.840000 13.068781 15.571764 413.272858
2.840000 4.800000 -6.800000 8.066453 11.489219 197.069824
2.840000 4.840000 -7.200000 40.494675 -14.714835 1856.345093
2.840000 4.840000 -7.160000 53.467545 0.757883 2859.352783
2.840000 4.840000 -7.120000 53.834366 21.643623 3366.585449
2.840000 4.840000 -7.080000 42.469223 37.686901 3223.937500
2.840000 4.840000 -7.040000 26.652637 43.853283 2633.473633
2.840000 4.840000 -7.000000 13.144310 41.882980 1926.957031
2.840000 4.840000 -6.960000 4.254551 36.053936 1317.987549
2.840000 4.840000 -6.920000 -0.616131 29.006197 841.739075
2.840000 4.840000 -6.880000 -1.813519 21.755154 476.575562
2.840000 4.840000 -6.840000 0.920449 15.988015 256.463837
2.840000 4.840000 -6.800000 6.196630 14.362042 244.666489
2.840000 4.880000 -7.200000 31.458595 7.962887 1053.050781
2.840000 4.880000 -7.160000 40.918747 20.045538 2076.167480
2.840000 4.880000 -7.120000 41.813103 39.225555 3286.979736
2.840000 4.880000 -7.080000 30.011227 58.114960 4278.022461
2.840000 4.880000 -7.040000 7.706617 67.645950 4635.366699
2.840000 4.880000 -7.000000 -16.582848 62.223221 4146.720215
2.840000 4.880000 -6.960000 -32.118847 43.871399 2956.319824
2.840000 4.880000 -6.920000 -32.475075 22.067841 1541.620117
2.840000 4.880000 -6.880000 -20.189034 8.178940 474.492126
2.840000 4.880000 -6.840000 -5.254546 7.795551 88.380875
2.840000 4.880000 -6.800000 2.111214 17.076557 296.066010
2.840000 4.920000 -7.200000 9.465982 13.254017 265.273773
2.840000 4.920000 -7.160000 21.253256 23.931030 1024.395142
2.840000 4.920000 -7.120000 21.533335 46.254028 2603.119629
2.840000 4.920000 -7.080000 2.299009 66.858940 4475.403320
2.840000 4.920000 -7.040000 -30.095222 69.359337 5716.440430
2.840000 4.920000 -7.000000 -57.301247 48.069267 5594.087402
2.840000 4.920000 -6.960000 -62.527981 14.405327 4117.261719
2.840000 4.920000 -6.920000 -44.267139 -10.978448 2080.105957
2.840000 4.920000 -6.880000 -17.664062 -14.403349 519.475586
2.840000 4.920000 -6.840000 -1.799026 0.479559 3.466473
2.840000 4.920000 -6.800000 -4.259554 17.456779 322.882935
2.840000 4.960000 -7.200000 -4.859414 -0.841570 24.322145
2.840000 4.960000 -7.160000 8.982977 15.000563 305.710754
2.840000 4.960000 -7.120000 2.297829 40.829479 1672.326416
2.840000 4.960000 -7.080000 -27.164162 54.340721 3690.805664
2.840000 4.960000 -7.040000 -60.968147 39.645233 5288.859375
2.840000 4.960000 -7.000000 -74.068039 2.849023 5494.190918
2.840000 4.960000 -6.960000 -56.423599 -31.482742 4174.785645
2.840000 4.960000 -6.920000 -22.030090 -40.804020 2150.292969
2.840000 4.960000 -6.880000 3.459589 -23.435558 561.194153
2.840000 4.960000 -6.840000 4.957067 1.774824 27.722515
2.840000 4.960000 -6.800000 -10.908817 13.829416 310.255066
2.840000 5.000000 -7.200000 0.174392 -17.788521 316.461884
2.840000 5.000000 -7.160000 8.469642 5.889318 106.418900
2.840000 5.000000 -7.120000 -9.607357 27.892689 870.303406
2.840000 5.000000 -7.080000 -42.061169 25.113981 2399.854004
2.840000 5.000000 -7.040000 -61.553288 -5.334188 3817.260742
2.840000 5.000000 -7.000000 -49.823151 -41.615932 4214.232422
2.840000 5.000000 -6.960000 -14.775330 -56.014198 3355.900635
2.840000 5.000000 -6.920000 16.560108 -39.590561 1841.649658
2.840000 5.000000 -6.880000 22.541842 -9.099375 590.933228
2.840000 5.000000 -6.840000 5.133147 9.937397 125.101059
2.840000 5.000000 -6.800000 -15.062298 6.617959 270.670197
2.840000 5.040000 -7.200000 16.009216 -19.989779 655.886230
2.840000 5.040000 -7.160000 11.245375 4.905095 150.518402
2.840000 5.040000 -7.120000 -13.811773 13.170332 364.222717
2.840000 5.040000 -7.080000 -35.349243 -5.881348 1284.159180
2.840000 5.040000 -7.040000 -30.850922 -37.202930 2335.837402
2.840000 5.040000 -7.000000 -0.985933 -53.088898 2819.403320
2.840000 5.040000 -6.960000 30.388828 -39.050449 2448.418457
2.840000 5.040000 -6.920000 38.503708 -7.161882 1533.828125
2.840000 5.040000 -6.880000 20.272758 16.186113 672.974976
2.840000 5.040000 -6.840000 -4.830280 15.299828 257.416321
2.840000 5.040000 -6.800000 -15.209389 -2.026833 235.433548
2.840000 5.080000 -7.200000 23.778656 -6.835006 612.141785
2.840000 5.080000 -7.160000 7.443435 7.525437 112.036926
2.840000 5.080000 -7.120000 -12.205126 -1.066160 150.101807
2.840000 5.080000 -7.080000 -12.851254 -24.504364 765.618591
2.840000 5.080000 -7.040000 10.100707 -38.594986 1591.597290
2.840000 5.080000 -7.000000 37.720215 -26.416382 2120.639893
2.840000 5.080000 -6.960000 45.237457 4.603061 2067.615723
2.840000 5.080000 -6.920000 25.835287 29.487623 1536.981934
2.840000 5.080000 -6.880000 -3.316594 29.574547 885.653625
2.840000 5.080000 -6.840000 -18.425907 9.357308 427.073303
2.840000 5.080000 -6.800000 -11.588050 -10.064332 235.573669
2.840000 5.120000 -7.200000 14.592804 5.655078 244.929825
2.840000 5.120000 -7.160000 -1.823985 2.977478 12.192298
2.840000 5.120000 -7.120000 -4.734252 -14.152819 222.715424
2.840000 5.120000 -7.080000 12.979715 -25.838642 836.108459
2.840000 5.120000 -7.040000 36.833374 -14.911618 1579.053711
2.840000 5.120000 -7.000000 43.390709 14.832222 2102.748535
2.840000 5.120000 -6.960000 23.133860 40.557507 2180.086914
2.840000 5.120000 -6.920000 -9.532285 41.553299 1817.541138
2.840000 5.120000 -6.880000 -29.568443 18.666252 1222.721802
2.840000 5.120000 -6.840000 -24.602255 -7.394097 659.943604
2.840000 5.120000 -6.800000 -4.845744 -16.532854 296.816498
2.840000 5.160000 -7.200000 -1.545149 2.566829 8.976095
2.840000 5.160000 -7.160000 -5.212696 -11.821459 166.919083
2.840000 5.160000 -7.120000 9.620228 -22.950266 619.263489
2.840000 5.160000 -7.080000 31.923023 -14.098528 1217.847900
2.840000 5.160000 -7.040000 39.843124 14.112957 1786.650146
2.840000 5.160000 -7.000000 21.221489 41.550186 2176.769531
2.840000 5.160000 -6.960000 -13.395811 45.848221 2281.507080
2.840000 5.160000 -6.920000 -39.041359 23.067678 2056.345459
2.840000 5.160000 -6.880000 -38.516445 -8.610960 1557.665283
2.840000 5.160000 -6.840000 -16.943029 -25.790752 952.229126
2.840000 5.160000 -6.800000 5.065901 -20.443785 443.611694
2.840000 5.200000 -7.200000 -7.048115 -14.184061 250.863510
2.840000 5.200000 -7.160000 5.828131 -26.954716 760.523804
2.840000 5.200000 -7.120000 28.148445 -22.076721 1279.716553
2.840000 5.200000 -7.080000 40.117184 3.051663 1618.701050
2.840000 5.200000 -7.040000 27.128618 32.270710 1777.360596
2.840000 5.200000 -7.000000 -5.740352 42.894981 1872.931030
2.840000 5.200000 -6.960000 -36.277103 25.413574 1961.877930
2.840000 5.200000 -6.920000 -43.536770 -7.729315 1955.192627
2.840000 5.200000 -6.880000 -25.267975 -32.863972 1718.511230
2.840000 5.200000 -6.840000 1.726181 -35.204006 1242.301758
2.840000 5.200000 -6.800000 17.700167 -19.390148 689.273743
2.880000 4.800000 -7.200000 58.488064 4.442283 3440.587402
2.880000 4.800000 -7.160000 58.013412 33.443905 4484.050781
2.880000 4.800000 -7.120000 36.027458 53.717548 4183.552734
2.880000 4.800000 -7.080000 8.643794 51.951012 2773.622803
2.880000 4.800000 -7.040000 -5.065914 34.618649 1224.114258
2.880000 4.800000 -7.000000 -1.261131 20.042191 403.279846
2.880000 4.800000 -6.960000 7.140610 19.222677 420.499634
2.880000 4.800000 -6.920000 6.130201 26.027023 714.985291
2.880000 4.800000 -6.880000 -4.256065 26.357334 712.823120
2.880000 4.800000 -6.840000 -11.475942 15.027924 357.535706
2.880000 4.800000 -6.800000 -5.760752 1.463390 35.327770
2.880000 4.840000 -7.200000 40.302139 32.849739 2703.367676
2.880000 4.840000 -7.160000 34.777267 50.748245 3784.842773
2.880000 4.840000 -7.120000 19.497955 63.224655 4377.527344
2.880000 4.840000 -7.080000 0.807560 66.267441 4392.025879
2.880000 4.840000 -7.040000 -15.882942 61.548820 4040.525146
2.880000 4.840000 -7.000000 -29.077641 51.875771 3536.604492
2.880000 4.840000 -6.960000 -38.262474 37.804253 2893.178467
2.880000 4.840000 -6.920000 -40.476196 19.876377 2033.392822
2.880000 4.840000 -6.880000 -32.285957 2.812564 1050.293579
2.880000 4.840000 -6.840000 -15.515253 -5.344521 269.286987
2.880000 4.840000 -6.800000 0.861589 -0.115105 0.755585
2.880000 4.880000 -7.200000 6.429750 37.000793 1410.400391
2.880000 4.880000 -7.160000 7.657131 47.930466 2355.961182
2.880000 4.880000 -7.120000 -0.985240 64.698387 4186.852051
2.880000 4.880000 -7.080000 -24.666368 76.946442 6529.184570
2.880000 4.880000 -7.040000 -57.719879 71.628181 8462.180664
2.880000 4.880000 -7.000000 -84.102249 43.671818 8980.416016
2.880000 4.880000 -6.960000 -87.451759 2.911469 7656.286621
2.880000 4.880000 -6.920000 -64.018799 -30.208569 5010.964355
2.880000 4.880000 -6.880000 -27.343670 -38.705807 2245.815918
2.880000 4.880000 -6.840000 0.761007 -21.885616 479.559326
2.880000 4.880000 -6.800000 6.365325 4.385046 59.745987
2.880000 4.920000 -7.200000 -16.533381 13.673593 460.319794
2.880000 4.920000 -7.160000 -6.924822 30.128117 955.656616
2.880000 4.920000 -7.120000 -20.350224 56.378586 3592.676514
2.880000 4.920000 -7.080000 -59.861485 66.405014 7993.023438
2.880000 4.920000 -7.040000 -103.264549 40.354733 12292.072266
2.880000 4.920000 -7.000000 -118.280533 -15.086491 14217.886719
2.880000 4.920000 -6.960000 -89.628342 -68.062134 12665.693359
2.880000 4.920000 -6.920000 -33.661667 -85.872231 8507.147461
2.880000 4.920000 -6.880000 13.813539 -61.374077 3957.591309
2.880000 4.920000 -6.840000 26.344379 -17.717953 1007.952148
2.880000 4.920000 -6.800000 6.407080 12.521990 197.850906
2.880000 4.960000 -7.200000 -11.092654 -16.164629 384.342194
2.880000 4.960000 -7.160000 -4.200663 13.434782 198.138931
2.880000 4.960000 -7.120000 -33.442879 40.464542 2755.805176
2.880000 4.960000 -7.080000 -83.658478 30.983562 7958.721680
2.880000 4.960000 -7.040000 -114.483841 -22.170536 13598.082031
2.880000 4.960000 -7.000000 -94.546936 -87.892029 16664.132812
2.880000 4.960000 -6.960000 -30.934904 -120.420441 15458.050781
2.880000 4.960000 -6.920000 34.660805 -98.002022 10805.767578
2.880000 4.960000 -6.880000 60.723736 -40.879219 5358.482422
2.880000 4.960000 -6.840000 39.535294 7.804317 1623.946777
2.880000 4.960000 -6.800000 -0.801846 19.336739 374.552399
2.880000 5.000000 -7.200000 14.523918 -26.678936 922.709839
2.880000 5.000000 -7.160000 5.271882 9.648605 120.888329
2.880000 5.000000 -7.120000 -38.011650 21.533590 1908.581055
2.880000 5.000000 -7.080000 -79.550934 -13.751959 6517.467285
2.880000 5.000000 -7.040000 -77.331863 -77.605064 12002.763672
2.880000 5.000000 -7.000000 -22.346981 -122.071159 15400.755859
2.880000 5.000000 -6.960000 50.184418 -110.947296 14827.778320
2.880000 5.000000 -6.920000 90.055969 -51.900173 10803.705078
2.880000 5.000000 -6.880000 74.881668 10.941823 5726.987793
2.880000 5.000000 -6.840000 26.403515 36.340748 2017.795410
2.880000 5.000000 -6.800000 -13.230457 19.282587 546.863159
2.880000 5.040000 -7.200000 34.741680 -11.417287 1337.338867
2.880000 5.040000 -7.160000 7.110798 15.459957 289.573730
2.880000 5.040000 -7.120000 -34.745743 3.482095 1219.391602
2.880000 5.040000 -7.080000 -49.415333 -45.173447 4482.515137
2.880000 5.040000 -7.040000 -14.377148 -92.111343 8691.202148
2.880000 5.040000 -7.000000 50.162205 -95.060287 11552.705078
2.880000 5.040000 -6.960000 96.614708 -46.455589 11492.523438
2.880000 5.040000 -6.920000 91.505554 18.998280 8734.201172
2.880000 5.040000 -6.880000 43.797722 55.343620 4981.156738
2.880000 5.040000 -6.840000 -6.233722 44.895855 2054.497070
2.880000 5.040000 -6.800000 -24.826622 8.950339 696.469727
2.880000 5.080000 -7.200000 31.616425 11.801252 1138.867920
2.880000 5.080000 -7.160000 -1.911275 17.228733 300.482239
2.880000 5.080000 -7.120000 -25.027472 -11.503595 758.707031
2.880000 5.080000 -7.080000 -10.765045 -51.045628 2721.542236
2.880000 5.080000 -7.040000 35.775875 -63.612095 5326.411621
2.880000 5.080000 -7.000000 78.616592 -31.639841 7181.647949
2.880000 5.080000 -6.960000 82.050560 24.431059 7329.170898
2.880000 5.080000 -6.920000 42.659363 63.530720 5855.973633
2.880000 5.080000 -6.880000 -8.604359 60.192207 3697.136719
2.880000 5.080000 -6.840000 -35.485012 24.849056 1876.661621
2.880000 5.080000 -6.800000 -27.498219 -9.891098 853.985840
2.880000 5.120000 -7.200000 11.157669 19.719116 513.337097
2.880000 5.120000 -7.160000 -10.950270 6.281871 159.370316
2.880000 5.120000 -7.120000 -9.750940 -21.381199 552.236511
2.880000 5.120000 -7.080000 18.257362 -36.132332 1638.876709
2.880000 5.120000 -7.040000 50.731567 -18.852001 2929.089844
2.880000 5.120000 -7.000000 57.771751 21.999676 3821.561035
2.880000 5.120000 -6.960000 29.230108 55.874165 3976.321533
2.880000 5.120000 -6.920000 -15.318707 56.814941 3462.600342
2.880000 5.120000 -6.880000 -44.015297 26.011526 2613.945801
2.880000 5.120000 -6.840000 -40.548012 -11.096663 1767.277100
2.880000 5.120000 -6.800000 -15.664856 -29.140903 1094.579956
2.880000 5.160000 -7.200000 -4.736486 6.380424 63.144119
2.880000 5.160000 -7.160000 -7.039156 -11.351905 178.415451
2.880000 5.160000 -7.120000 9.071325 -23.078701 614.915405
2.880000 5.160000 -7.080000 30.966114 -14.051157 1156.335205
2.880000 5.160000 -7.040000 37.520966 13.346180 1585.943359
2.880000 5.160000 -7.000000 17.961632 38.937233 1838.728394
2.880000 5.160000 -6.960000 -16.880352 41.221226 1984.135742
2.880000 5.160000 -6.920000 -42.609463 16.369747 2083.534912
2.880000 5.160000 -6.880000 -41.905159 -18.269535 2089.818359
2.880000 5.160000 -6.840000 -18.384392 -39.499554 1898.200562
2.880000 5.160000 -6.800000 8.757492 -37.503502 1483.206299
2.880000 5.200000 -7.200000 -1.117342 -13.016581 170.679825
2.880000 5.200000 -7.160000 10.769497 -20.821903 549.533752
2.880000 5.200000 -7.120000 26.334816 -14.417321 901.381653
2.880000 5.200000 -7.080000 31.575996 5.055786 1022.604553
2.880000 5.200000 -7.040000 18.071100 24.415670 922.689575
2.880000 5.200000 -7.000000 -8.336491 27.602497 831.394897
2.880000 5.200000 -6.960000 -30.277775 9.047189 998.595276
2.880000 5.200000 -6.920000 -32.074169 -20.662136 1455.676147
2.880000 5.200000 -6.880000 -12.239163 -42.570225 1962.021118
2.880000 5.200000 -6.840000 15.817435 -44.068146 2192.192627
2.880000 5.200000 -6.800000 35.153069 -27.487637 1991.308472
2.920000 4.800000 -7.200000 46.140022 58.453644 5545.729980
2.920000 4.800000 -7.160000 17.667892 81.355255 6930.832031
2.920000 4.800000 -7.120000 -20.434086 76.596588 6284.588867
2.920000 4.800000 -7.080000 -41.819687 47.744003 4028.375977
2.920000 4.800000 -7.040000 -35.811768 18.770964 1634.831787
2.920000 4.800000 -7.000000 -16.871902 10.062984 385.924744
2.920000 4.800000 -6.960000 -8.077244 18.974224 425.263062
2.920000 4.800000 -6.920000 -16.777424 25.306412 921.896484
2.920000 4.800000 -6.880000 -28.552605 14.799872 1034.287476
2.920000 4.800000 -6.840000 -24.956785 -5.403455 652.038452
2.920000 4.800000 -6.800000 -4.638675 -15.584788 264.402924
2.920000 4.840000 -7.200000 -0.019903 64.989960 4223.695312
2.920000 4.840000 -7.160000 -20.135292 69.973801 5301.763184
2.920000 4.840000 -7.120000 -40.291523 63.887665 5705.040527
2.920000 4.840000 -7.080000 -54.363754 50.605148 5516.298828
2.920000 4.840000 -7.040000 -62.319382 35.385620 5135.847656
2.920000 4.840000 -7.000000 -66.712463 18.975418 4810.619141
2.920000 4.840000 -6.960000 -66.180138 -0.758011 4380.385254
2.920000 4.840000 -6.920000 -55.270210 -21.626570 3522.504639
2.920000 4.840000 -6.880000 -32.272064 -34.381672 2223.585449
2.920000 4.840000 -6.840000 -5.740270 -29.978544 931.663818
2.920000 4.840000 -6.800000 9.732463 -10.128559 197.308533
2.920000 4.880000 -7.200000 -35.092781 34.111229 2395.079102
2.920000 4.880000 -7.160000 -37.789364 39.072868 2954.725098
2.920000 4.880000 -7.120000 -52.299381 47.333435 4975.679688
2.920000 4.880000 -7.080000 -80.405434 43.987541 8399.937500
2.920000 4.880000 -7.040000 -108.365433 16.691109 12021.660156
2.920000 4.880000 -7.000000 -114.510193 -30.552532 14046.041016
2.920000 4.880000 -6.960000 -86.735489 -75.578629 13235.173828
2.920000 4.880000 -6.920000 -35.243176 -92.590271 9815.039062
2.920000 4.880000 -6.880000 12.257889 -72.379364 5389.028320
2.920000 4.880000 -6.840000 30.703178 -30.561033 1876.661865
2.920000 4.880000 -6.800000 16.554413 4.346475 292.940430
2.920000 4.920000 -7.200000 -33.199295 -10.582918 1214.191406
2.920000 4.920000 -7.160000 -29.631266 11.049107 1000.094666
2.920000 4.920000 -7.120000 -58.338318 29.941303 4299.840820
2.920000 4.920000 -7.080000 -105.479553 13.673340 11312.896484
2.920000 4.920000 -7.040000 -131.782303 -45.119854 19402.376953
2.920000 4.920000 -7.000000 -105.387726 -115.669617 24486.033203
2.920000 4.920000 -6.960000 -32.465088 -150.746582 23778.513672
2.920000 4.920000 -6.920000 44.027988 -125.726059 17745.505859
2.920000 4.920000 -6.880000 78.273209 -59.714897 9692.564453
2.920000 4.920000 -6.840000 58.039886 0.865732 3369.377930
2.920000 4.920000 -6.800000 11.139859 20.909252 561.293335
2.920000 4.960000 -7.200000 0.894564 -34.161667 1167.819824
2.920000 4.960000 -7.160000 -9.867102 2.713104 104.720627
2.920000 4.960000 -7.120000 -59.545834 11.963718 3688.836914
2.920000 4.960000 -7.080000 -106.874290 -34.575737 12617.595703
2.920000 4.960000 -7.040000 -100.581024 -116.072342 23589.330078
2.920000 4.960000 -7.000000 -27.521236 -174.011658 31037.474609
2.920000 4.960000 -6.960000 70.340576 -161.155136 30918.775391
2.920000 4.960000 -6.920000 128.755737 -83.495018 23549.457031
2.920000 4.960000 -6.880000 114.790573 4.475015 13196.901367
2.920000 4.960000 -6.840000 51.686218 46.711514 4853.430664
2.920000 4.960000 -6.800000 -6.217594 30.466513 966.866821
2.920000 5.000000 -7.200000 36.266525 -21.272335 1767.773071
2.920000 5.000000 -7.160000 1.168684 11.793888 140.461624
2.920000 5.000000 -7.120000 -54.982685 -6.293079 3062.698486
2.920000 5.000000 -7.080000 -75.508553 -76.681816 11581.642578
2.920000 5.000000 -7.040000 -24.994713 -148.310577 22620.763672
2.920000 5.000000 -7.000000 73.015686 -158.860825 30568.052734
2.920000 5.000000 -6.960000 151.233643 -90.794540 31115.263672
2.920000 5.000000 -6.920000 155.425812 10.999042 24278.162109
2.920000 5.000000 -6.880000 90.006912 77.684586 14136.138672
2.920000 5.000000 -6.840000 10.296756 74.591957 5669.982910
2.920000 5.000000 -6.800000 -28.713778 24.804443 1439.741455
2.920000 5.040000 -7.200000 44.347416 11.548035 2100.050537
2.920000 5.040000 -7.160000 -4.572887 21.297253 474.484253
2.920000 5.040000 -7.120000 -43.369328 -22.441366 2384.513428
2.920000 5.040000 -7.080000 -25.608967 -90.216812 8794.892578
2.920000 5.040000 -7.040000 50.078316 -122.057236 17405.806641
2.920000 5.040000 -7.000000 131.783478 -80.549370 23855.085938
2.920000 5.040000 -6.960000 156.667038 12.530327 24701.570312
2.920000 5.040000 -6.920000 105.780960 92.791534 19799.878906
2.920000 5.040000 -6.880000 19.448910 108.507111 12152.052734
2.920000 5.040000 -6.840000 -40.445644 62.330303 5520.916992
2.920000 5.040000 -6.800000 -43.650387 1.824903 1908.686646
2.920000 5.080000 -7.200000 23.696743 33.398506 1676.995850
2.920000 5.080000 -7.160000 -17.179661 16.901711 580.808594
2.920000 5.080000 -7.120000 -25.491888 -32.597221 1712.415283
2.920000 5.080000 -7.080000 17.307079 -72.654678 5578.237305
2.920000 5.080000 -7.040000 84.059067 -60.626740 10741.528320
2.920000 5.080000 -7.000000 120.847488 5.373051 14632.985352
2.920000 5.080000 -6.960000 93.864258 80.564857 15301.195312
2.920000 5.080000 -6.920000 20.180866 110.841476 12693.100586
2.920000 5.080000 -6.880000 -47.365318 78.954239 8477.245117
2.920000 5.080000 -6.840000 -66.465958 16.119293 4677.555176
2.920000 5.080000 -6.800000 -38.261932 -29.788544 2351.332764
2.920000 5.120000 -7.200000 -2.176158 28.131145 796.096985
2.920000 5.120000 -7.160000 -20.249599 0.251324 410.109436
2.920000 5.120000 -7.120000 -4.949427 -33.646111 1156.557617
2.920000 5.120000 -7.080000 37.249996 -40.581493 3034.419922
2.920000 5.120000 -7.040000 72.305786 -6.003185 5264.164551
2.920000 5.120000 -7.000000 66.485634 48.874336 6809.040039
2.920000 5.120000 -6.960000 17.606762 82.302048 7083.625000
2.920000 5.120000 -6.920000 -40.957504 67.660919 6255.517090
2.920000 5.120000 -6.880000 -68.522324 16.305836 4961.188965
2.920000 5.120000 -6.840000 -51.070061 -33.906586 3757.807617
2.920000 5.120000 -6.800000 -9.328514 -52.243908 2816.447266
2.920000 5.160000 -7.200000 -9.688545 6.572049 137.059738
2.920000 5.160000 -7.160000 -7.441851 -14.062399 253.132202
2.920000 5.160000 -7.120000 13.061975 -25.141491 802.709717
2.920000 5.160000 -7.080000 36.932144 -12.836344 1528.755005
2.920000 5.160000 -7.040000 41.628513 18.014400 2057.451660
2.920000 5.160000 -7.000000 17.136681 43.983376 2228.203125
2.920000 5.160000 -6.960000 -22.318668 41.595230 2228.286133
2.920000 5.160000 -6.920000 -48.097546 8.401560 2383.959961
2.920000 5.160000 -6.880000 -40.861214 -33.720276 2806.695801
2.920000 5.160000 -6.840000 -6.396880 -56.719276 3257.996582
2.920000 5.160000 -6.800000 30.944103 -49.030148 3361.492920
2.920000 5.200000 -7.200000 3.268501 -7.996275 74.623520
2.920000 5.200000 -7.160000 12.093416 -13.580740 330.687195
2.920000 5.200000 -7.120000 23.769344 -9.833920 661.687744
2.920000 5.200000 -7.080000 28.821218 3.937677 846.167969
2.920000 5.200000 -7.040000 19.423742 18.887444 734.017334
2.920000 5.200000 -7.000000 -1.572460 21.246056 453.867493
2.920000 5.200000 -6.960000 -19.532909 4.118185 398.493988
2.920000 5.200000 -6.920000 -18.495777 -24.203869 927.921021
2.920000 5.200000 -6.880000 5.038317 -44.711578 2024.509888
2.920000 5.200000 -6.840000 37.882305 -42.322689 3226.279053
2.920000 5.200000 -6.800000 60.132801 -17.836754 3934.103516
2.960000 4.800000 -7.200000 -3.953482 86.251999 7455.037109
2.960000 4.800000 -7.160000 -48.053555 83.326408 9252.434570
2.960000 4.800000 -7.120000 -78.911087 47.562363 8489.137695
2.960000 4.800000 -7.080000 -74.856995 2.556799 5610.106934
2.960000 4.800000 -7.040000 -44.204464 -20.673199 2381.415771
2.960000 4.800000 -7.000000 -16.648823 -13.306732 454.252411
2.960000 4.800000 -6.960000 -13.248901 4.643379 197.094360
2.960000 4.800000 -6.920000 -26.718868 7.260983 766.619812
2.960000 4.800000 -6.880000 -32.261223 -9.911568 1139.025635
2.960000 4.800000 -6.840000 -15.975425 -27.104427 989.864136
2.960000 4.800000 -6.800000 10.411716 -23.701958 670.186646
2.960000 4.840000 -7.200000 -52.208233 55.181187 5770.663086
2.960000 4.840000 -7.160000 -72.707756 40.282581 6909.104492
2.960000 4.840000 -7.120000 -82.403954 16.879290 7075.322266
2.960000 4.840000 -7.080000 -80.126236 -5.591214 6451.475586
2.960000 4.840000 -7.040000 -71.897919 -22.180485 5661.284668
2.960000 4.840000 -7.000000 -62.449478 -35.498947 5160.112305
2.960000 4.840000 -6.960000 -49.385170 -48.909138 4830.999023
2.960000 4.840000 -6.920000 -27.857227 -58.497147 4197.941406
2.960000 4.840000 -6.880000 -0.529167 -54.863766 3010.312744
2.960000 4.840000 -6.840000 19.985035 -34.342346 1578.798340
2.960000 4.840000 -6.800000 21.454384 -6.878515 507.604553
2.960000 4.880000 -7.200000 -59.966415 -1.239162 3597.506592
2.960000 4.880000 -7.160000 -61.024834 -2.151646 3728.659912
2.960000 4.880000 -7.120000 -74.007217 -4.437915 5496.763672
2.960000 4.880000 -7.080000 -93.048813 -23.374805 9204.463867
2.960000 4.880000 -7.040000 -98.582916 -62.862690 13670.309570
2.960000 4.880000 -7.000000 -73.200729 -106.571999 16715.937500
2.960000 4.880000 -6.960000 -19.525902 -127.113739 16539.164062
2.960000 4.880000 -6.920000 37.058632 -107.746681 12982.689453
2.960000 4.880000 -6.880000 65.806557 -58.032822 7698.311523
2.960000 4.880000 -6.840000 54.461395 -8.324921 3035.347656
2.960000 4.880000 -6.800000 18.728107 13.442244 531.435913
2.960000 4.920000 -7.200000 -23.210125 -40.969391 2217.200928
2.960000 4.920000 -7.160000 -29.097069 -18.484043 1188.299316
2.960000 4.920000 -7.120000 -64.643814 -16.949705 4466.115234
2.960000 4.920000 -7.080000 -96.801117 -59.487900 12909.266602
2.960000 4.920000 -7.040000 -83.407608 -128.913101 23575.417969
2.960000 4.920000 -7.000000 -13.596088 -175.975769 31152.324219
2.960000 4.920000 -6.960000 76.558365 -160.077164 31485.882812
2.960000 4.920000 -6.920000 130.700043 -85.987305 24476.318359
2.960000 4.920000 -6.880000 118.436470 -1.742558 14030.233398
2.960000 4.920000 -6.840000 59.140354 41.071640 5184.460938
2.960000 4.920000 -6.800000 2.394865 28.215069 801.825439
2.960000 4.960000 -7.200000 26.375437 -36.871620 2055.179932
2.960000 4.960000 -7.160000 -4.861202 -7.149551 74.747375
2.960000 4.960000 -7.120000 -57.210327 -27.782789 4044.904785
2.960000 4.960000 -7.080000 -72.940941 -100.786865 15478.373047
2.960000 4.960000 -7.040000 -15.206531 -173.806030 30439.775391
2.960000 4.960000 -7.000000 91.744225 -181.740585 41446.644531
2.960000 4.960000 -6.960000 177.060379 -105.620880 42506.148438
2.960000 4.960000 -6.920000 182.403168 7.380423 33325.382812
2.960000 4.960000 -6.880000 111.202110 83.144928 19278.988281
2.960000 4.960000 -6.840000 22.541950 82.549576 7322.572266
2.960000 4.960000 -6.800000 -22.523050 28.876804 1341.157593
2.960000 5.000000 -7.200000 50.021992 0.925941 2503.057129
2.960000 5.000000 -7.160000 -3.681370 11.723276 150.987686
2.960000 5.000000 -7.120000 -46.823002 -40.204285 3808.778076
2.960000 5.000000 -7.080000 -22.870140 -121.437302 15270.061523
2.960000 5.000000 -7.040000 71.731155 -159.762405 30669.384766
2.960000 5.000000 -7.000000 175.053864 -108.072998 42323.628906
2.960000 5.000000 -6.960000 209.403885 9.127699 43933.304688
2.960000 5.000000 -6.920000 148.871399 113.284149 34995.992188
2.960000 5.000000 -6.880000 41.009331 138.510712 20866.982422
2.960000 5.000000 -6.840000 -37.112083 84.888901 8583.432617
2.960000 5.000000 -6.800000 -44.886322 10.114218 2117.079346
2.960000 5.040000 -7.200000 35.202934 37.086216 2614.634033
2.960000 5.040000 -7.160000 -17.787828 16.932066 603.101685
2.960000 5.040000 -7.120000 -29.225363 -49.792946 3333.459229
2.960000 5.040000 -7.080000 29.948301 -106.710831 12284.101562
2.960000 5.040000 -7.040000 125.866386 -92.820099 24457.917969
2.960000 5.040000 -7.000000 183.947662 -0.933517 33837.613281
2.960000 5.040000 -6.960000 153.132095 109.622070 35466.437500
2.960000 5.040000 -6.920000 52.106300 161.749023 28877.812500
2.960000 5.040000 -6.880000 -47.106091 126.068604 18112.277344
2.960000 5.040000 -6.840000 -82.138367 41.748363 8489.637695
2.960000 5.040000 -6.800000 -49.457207 -24.098642 3026.760010
2.960000 5.080000 -7.200000 2.605519 44.303528 1969.591309
2.960000 5.080000 -7.160000 -27.461391 4.707604 776.289551
2.960000 5.080000 -7.120000 -7.159966 -49.840927 2535.383057
2.960000 5.080000 -7.080000 59.746811 -66.662033 8013.507812
2.960000 5.080000 -7.040000 122.641785 -16.633190 15317.670898
2.960000 5.080000 -7.000000 124.656700 73.256531 20905.812500
2.960000 5.080000 -6.960000 54.451187 137.993073 22007.019531
2.960000 5.080000 -6.920000 -40.988232 129.613449 18479.681641
2.960000 5.080000 -6.880000 -96.273087 57.895924 12620.445312
2.960000 5.080000 -6.840000 -82.557777 -21.345249 7271.406250
2.960000 5.080000 -6.800000 -26.100962 -57.018715 3932.394043
2.960000 5.120000 -7.200000 -17.243032 25.196396 932.180542
2.960000 5.120000 -7.160000 -20.973446 -11.313067 567.870911
2.960000 5.120000 -7.120000 11.572173 -38.776604 1637.540161
2.960000 5.120000 -7.080000 59.658657 -26.050323 4237.774414
2.960000 5.120000 -7.040000 81.244827 27.299492 7345.984375
2.960000 5.120000 -7.000000 49.729790 83.843597 9502.800781
2.960000 5.120000 -6.960000 -18.817795 97.526871 9865.599609
2.960000 5.120000 -6.920000 -76.193298 54.014557 8722.991211
2.960000 5.120000 -6.880000 -82.461021 -16.249550 7063.867676
2.960000 5.120000 -6.840000 -38.514618 -64.874817 5692.117676
2.960000 5.120000 -6.800000 18.963409 -66.097626 4728.506836
2.960000 5.160000 -7.200000 -12.533335 3.967303 172.823975
2.960000 5.160000 -7.160000 -3.834370 -15.817249 264.887756
2.960000 5.160000 -7.120000 20.959898 -21.654444 908.232300
2.960000 5.160000 -7.080000 43.395561 -2.148867 1887.792358
2.960000 5.160000 -7.040000 40.363846 32.219234 2667.319092
2.960000 5.160000 -7.000000 6.850464 53.196381 2876.783936
2.960000 5.160000 -6.960000 -34.925282 38.469677 2699.691406
2.960000 5.160000 -6.920000 -51.855179 -6.560314 2731.997314
2.960000 5.160000 -6.880000 -28.264481 -51.011532 3401.057129
2.960000 5.160000 -6.840000 20.467663 -63.960182 4509.830078
2.960000 5.160000 -6.800000 61.786156 -39.346649 5365.687988
2.960000 5.200000 -7.200000 3.421545 -0.170460 11.736027
2.960000 5.200000 -7.160000 9.406080 -6.240472 127.417831
2.960000 5.200000 -7.120000 20.801298 -5.424436 462.118500
2.960000 5.200000 -7.080000 28.214081 6.451987 837.662476
2.960000 5.200000 -7.040000 21.251648 21.522287 914.841431
2.960000 5.200000 -7.000000 1.612587 24.086227 582.746826
2.960000 5.200000 -6.960000 -14.130838 5.974510 235.375366
2.960000 5.200000 -6.920000 -7.844167 -22.322762 559.836670
2.960000 5.200000 -6.880000 22.430719 -37.863613 1936.790405
2.960000 5.200000 -6.840000 58.212387 -24.648977 3996.254150
2.960000 5.200000 -6.800000 75.092010 12.062155 5784.305664
3.000000 4.800000 -7.200000 -56.908630 69.272354 8037.251465
3.000000 4.800000 -7.160000 -93.575958 36.887878 10117.175781
3.000000 4.800000 -7.120000 -96.924278 -16.112047 9653.913086
3.000000 4.800000 -7.080000 -62.306030 -54.847958 6890.339844
3.000000 4.800000 -7.040000 -16.625141 -55.972729 3409.341553
3.000000 4.800000 -7.000000 6.927317 -29.238068 902.852356
3.000000 4.800000 -6.960000 -0.007881 -6.024063 36.289398
3.000000 4.800000 -6.920000 -16.043404 -7.159359 308.647217
3.000000 4.800000 -6.880000 -15.246269 -23.902910 803.797852
3.000000 4.800000 -6.840000 5.423831 -30.936354 986.475952
3.000000 4.800000 -6.800000 25.256058 -15.460144 876.884521
3.000000 4.840000 -7.200000 -79.093040 11.349480 6384.519531
3.000000 4.840000 -7.160000 -85.776978 -17.466255 7662.759766
3.000000 4.840000 -7.120000 -75.480865 -45.879044 7802.247559
3.000000 4.840000 -7.080000 -53.912491 -63.121552 6890.886719
3.000000 4.840000 -7.040000 -31.819836 -67.703979 5596.330566
3.000000 4.840000 -7.000000 -14.569504 -66.169228 4590.637207
3.000000 4.840000 -6.960000 0.868736 -63.429413 4024.045166
3.000000 4.840000 -6.920000 18.268822 -56.537498 3530.238525
3.000000 4.840000 -6.880000 33.573971 -39.825920 2713.315430
3.000000 4.840000 -6.840000 36.833984 -15.381161 1593.322510
3.000000 4.840000 -6.800000 23.738216 4.508669 583.831055
3.000000 4.880000 -7.200000 -49.683598 -42.196835 4249.032715
3.000000 4.880000 -7.160000 -46.063236 -45.489006 4191.071289
3.000000 4.880000 -7.120000 -50.509949 -54.329556 5502.955566
3.000000 4.880000 -7.080000 -51.116962 -77.497536 8618.812500
3.000000 4.880000 -7.040000 -31.358662 -107.808105 12605.953125
3.000000 4.880000 -7.000000 12.759621 -123.865074 15505.364258
3.000000 4.880000 -6.960000 64.076736 -107.013351 15557.685547
3.000000 4.880000 -6.920000 94.390137 -59.348434 12431.734375
3.000000 4.880000 -6.880000 86.491470 -5.696068 7513.219727
3.000000 4.880000 -6.840000 49.058659 24.241987 2994.425781
3.000000 4.880000 -6.800000 10.363594 18.913651 465.130249
3.000000 4.920000 -7.200000 6.962341 -52.884125 2845.204834
3.000000 4.920000 -7.160000 -7.458889 -36.305672 1373.736816
3.000000 4.920000 -7.120000 -35.706570 -52.458679 4026.872070
3.000000 4.920000 -7.080000 -37.776283 -102.665405 11967.233398
3.000000 4.920000 -7.040000 11.557602 -149.610901 22517.000000
3.000000 4.920000 -7.000000 93.643494 -147.040314 30389.957031
3.000000 4.920000 -6.960000 156.184402 -82.458046 31192.898438
3.000000 4.920000 -6.920000 156.342834 7.877510 24505.136719
3.000000 4.920000 -6.880000 97.573578 67.520760 14079.656250
3.000000 4.920000 -6.840000 25.916126 66.335777 5072.081055
3.000000 4.920000 -6.800000 -10.177301 22.489552 609.357422
3.000000 4.960000 -7.200000 46.688385 -18.600300 2525.776367
3.000000 4.960000 -7.160000 4.751335 -9.021635 103.965088
3.000000 4.960000 -7.120000 -28.112770 -53.663876 3670.139404
3.000000 4.960000 -7.080000 -1.603148 -122.673058 15051.249023
3.000000 4.960000 -7.040000 86.684204 -151.303772 30406.984375
3.000000 4.960000 -7.000000 180.029877 -97.996529 42014.074219
3.000000 4.960000 -6.960000 208.049088 13.481321 43466.167969
3.000000 4.960000 -6.920000 148.377884 110.394913 34203.031250
3.000000 4.960000 -6.880000 46.261707 132.478973 19690.824219
3.000000 4.960000 -6.840000 -26.170685 81.022354 7249.526855
3.000000 4.960000 -6.800000 -31.306795 11.173813 1104.969482
3.000000 5.000000 -7.200000 44.132561 27.590054 2708.894043
3.000000 5.000000 -7.160000 -7.689816 8.339884 128.686920
3.000000 5.000000 -7.120000 -16.754150 -59.222305 3787.983154
3.000000 5.000000 -7.080000 47.776005 -115.751549 15680.967773
3.000000 5.000000 -7.040000 149.793167 -96.914536 31830.417969
3.000000 5.000000 -7.000000 210.077866 4.196928 44150.324219
3.000000 5.000000 -6.960000 174.948822 123.768707 45925.781250
3.000000 5.000000 -6.920000 65.393875 179.655182 36552.343750
3.000000 5.000000 -6.880000 -40.965836 141.369125 21663.429688
3.000000 5.000000 -6.840000 -77.638412 52.034519 8735.314453
3.000000 5.000000 -6.800000 -42.036160 -15.667994 2012.524658
3.000000 5.040000 -7.200000 11.326548 49.462894 2574.868652
3.000000 5.040000 -7.160000 -23.376141 4.205118 564.127014
3.000000 5.040000 -7.120000 2.219601 -59.647686 3562.772949
3.000000 5.040000 -7.080000 84.173798 -77.790436 13136.580078
3.000000 5.040000 -7.040000 160.861420 -14.509956 26086.935547
3.000000 5.040000 -7.000000 162.940475 97.245987 36006.378906
3.000000 5.040000 -6.960000 76.768120 178.185120 37643.281250
3.000000 5.040000 -6.920000 -40.259869 170.126572 30563.908203
3.000000 5.040000 -6.880000 -108.777878 85.380333 19122.427734
3.000000 5.040000 -6.840000 -94.413361 -8.057007 8978.797852
3.000000 5.040000 -6.800000 -29.955017 -48.721931 3271.129639
3.000000 5.080000 -7.200000 -18.859217 38.327713 1824.683594
3.000000 5.080000 -7.160000 -24.516577 -10.561707 712.612183
3.000000 5.080000 -7.120000 20.879364 -47.775013 2718.399658
3.000000 5.080000 -7.080000 88.565918 -28.705107 8667.905273
3.000000 5.080000 -7.040000 119.326134 47.739693 16517.804688
3.000000 5.080000 -7.000000 75.622276 129.352112 22450.697266
3.000000 5.080000 -6.960000 -20.474487 152.027176 23531.466797
3.000000 5.080000 -6.920000 -102.612671 95.798935 19706.796875
3.000000 5.080000 -6.880000 -116.285477 2.160009 13526.978516
3.000000 5.080000 -6.840000 -63.038273 -63.587166 8017.151367
3.000000 5.080000 -6.800000 7.591233 -67.760956 4649.174316
3.000000 5.120000 -7.200000 -24.948282 14.451239 831.255127
3.000000 5.120000 -7.160000 -12.008555 -18.168243 474.290466
3.000000 5.120000 -7.120000 28.802559 -27.660568 1594.694458
3.000000 5.120000 -7.080000 66.040611 5.339664 4389.874512
3.000000 5.120000 -7.040000 61.410515 63.304977 7778.771484
3.000000 5.120000 -7.000000 6.859921 100.382294 10123.663086
3.000000 5.120000 -6.960000 -62.401230 81.140091 10477.627930
3.000000 5.120000 -6.920000 -95.074547 13.784981 9229.195312
3.000000 5.120000 -6.880000 -67.396301 -55.136497 7582.294922
3.000000 5.120000 -6.840000 -2.093976 -80.279831 6449.235840
3.000000 5.120000 -6.800000 54.241165 -53.685257 5824.210938
3.000000 5.160000 -7.200000 -12.770703 2.262431 168.209457
3.000000 5.160000 -7.160000 0.193853 -12.290850 151.102570
3.000000 5.160000 -7.120000 24.189957 -10.151043 688.197632
3.000000 5.160000 -7.080000 38.586872 14.704199 1705.160156
3.000000 5.160000 -7.040000 24.381363 45.256332 2642.586670
3.000000 5.160000 -7.000000 -13.965759 52.608803 2962.728516
3.000000 5.160000 -6.960000 -47.076111 22.925041 2741.717773
3.000000 5.160000 -6.920000 -44.605629 -26.333820 2683.132324
3.000000 5.160000 -6.880000 -2.940786 -58.796555 3465.683105
3.000000 5.160000 -6.840000 50.484947 -49.826763 5031.436523
3.000000 5.160000 -6.800000 80.632317 -6.442566 6543.077148
3.000000 5.200000 -7.200000 -2.817319 6.900856 55.559101
3.000000 5.200000 -7.160000 1.811334 -1.317510 5.016761
3.000000 5.200000 -7.120000 14.501000 -1.823845 213.605423
3.000000 5.200000 -7.080000 22.931374 10.577680 637.735229
3.000000 5.200000 -7.040000 15.517956 25.496353 890.870972
3.000000 5.200000 -7.000000 -3.257328 25.557991 663.821045
3.000000 5.200000 -6.960000 -13.629630 5.542377 216.484772
3.000000 5.200000 -6.920000 0.829159 -18.588303 346.212494
3.000000 5.200000 -6.880000 35.138039 -22.193256 1727.222412
3.000000 5.200000 -6.840000 64.599152 5.123970 4199.305176
3.000000 5.200000 -6.800000 65.712814 48.943619 6713.651367
3.040000 4.800000 -7.200000 -79.058365 24.067303 6829.459961
3.040000 4.800000 -7.160000 -90.892105 -23.358646 8807.000977
3.040000 4.800000 -7.120000 -63.539764 -69.831703 8913.768555
3.040000 4.800000 -7.080000 -11.299221 -83.509071 7101.437500
3.040000 4.800000 -7.040000 30.761147 -58.042374 4315.165527
3.040000 4.800000 -7.000000 38.325516 -18.384132 1806.821533
3.040000 4.800000 -6.960000 18.666985 3.556089 361.102081
3.040000 4.800000 -6.920000 0.084297 -1.596123 2.554714
3.040000 4.800000 -6.880000 2.147967 -15.719654 251.721298
3.040000 4.800000 -6.840000 18.136442 -15.883276 581.208984
3.040000 4.800000 -6.800000 26.417385 1.052833 698.986694
3.040000 4.840000 -7.200000 -66.640709 -33.323624 5551.447754
3.040000 4.840000 -7.160000 -54.819420 -62.291977 6885.458984
3.040000 4.840000 -7.120000 -27.090542 -80.644730 7237.469727
3.040000 4.840000 -7.080000 4.847446 -80.336578 6477.463379
3.040000 4.840000 -7.040000 28.049778 -65.309151 5052.075195
3.040000 4.840000 -7.000000 38.430225 -46.495293 3638.694336
3.040000 4.840000 -6.960000 41.096123 -31.146116 2658.971924
3.040000 4.840000 -6.920000 41.662609 -18.322681 2071.493652
3.040000 4.840000 -6.880000 39.378620 -4.639996 1572.205322
3.040000 4.840000 -6.840000 30.155928 7.790990 970.079468
3.040000 4.840000 -6.800000 15.172863 11.808300 369.651733
3.040000 4.880000 -7.200000 -15.738401 -59.901863 3835.930420
3.040000 4.880000 -7.160000 -7.766930 -61.845215 3885.155762
3.040000 4.880000 -7.120000 -1.706211 -69.211594 4793.155762
3.040000 4.880000 -7.080000 13.086863 -81.632149 6835.073730
3.040000 4.880000 -7.040000 42.388672 -87.137970 9389.825195
3.040000 4.880000 -7.000000 77.682838 -71.595863 11160.591797
3.040000 4.880000 -6.960000 99.399094 -33.121284 10977.199219
3.040000 4.880000 -6.920000 92.073639 12.197906 8626.343750
3.040000 4.880000 -6.880000 58.673046 40.382568 5073.278320
3.040000 4.880000 -6.840000 20.459888 38.113735 1871.263916
3.040000 4.880000 -6.800000 1.131783 13.698900 188.940796
3.040000 4.920000 -7.200000 33.690315 -38.850006 2644.360352
3.040000 4.920000 -7.160000 17.099401 -32.500172 1348.650635
3.040000 4.920000 -7.120000 5.852458 -55.625053 3128.397705
3.040000 4.920000 -7.080000 28.902439 -89.949326 8926.232422
3.040000 4.920000 -7.040000 85.769524 -96.990753 16763.617188
3.040000 4.920000 -7.000000 140.536957 -53.680870 22632.273438
3.040000 4.920000 -6.960000 150.516495 22.373402 23155.783203
3.040000 4.920000 -6.920000 104.455353 84.104843 17984.544922
3.040000 4.920000 -6.880000 34.025871 94.098846 10012.352539
3.040000 4.920000 -6.840000 -12.877925 55.678303 3265.914551
3.040000 4.920000 -6.800000 -12.201932 7.520454 205.444382
3.040000 4.960000 -7.200000 46.784714 7.618528 2246.851318
3.040000 4.960000 -7.160000 11.110130 -4.248608 141.485657
3.040000 4.960000 -7.120000 7.808767 -52.010979 2766.118652
3.040000 4.960000 -7.080000 59.840645 -89.430794 11578.769531
3.040000 4.960000 -7.040000 137.720184 -67.521973 23526.066406
3.040000 4.960000 -7.000000 179.447433 16.704504 32480.421875
3.040000 4.960000 -6.960000 145.000214 111.196045 33389.625000
3.040000 4.960000 -6.920000 54.106682 151.534302 25890.177734
3.040000 4.960000 -6.880000 -29.812328 116.338196 14423.351562
3.040000 4.960000 -6.840000 -54.638557 43.319939 4861.989258
3.040000 4.960000 -6.800000 -21.387457 -7.617777 515.453857
3.040000 5.000000 -7.200000 22.311287 41.314682 2204.696533
3.040000 5.000000 -7.160000 -7.767218 2.608908 67.136070
3.040000 5.000000 -7.120000 17.076853 -52.413597 3038.803955
3.040000 5.000000 -7.080000 92.193207 -64.411118 12648.378906
3.040000 5.000000 -7.040000 159.836807 -1.861424 25551.269531
3.040000 5.000000 -7.000000 156.860687 102.719894 35156.652344
3.040000 5.000000 -6.960000 73.317505 175.416138 36146.277344
3.040000 5.000000 -6.920000 -35.280205 164.365082 28260.574219
3.040000 5.000000 -6.880000 -95.541443 84.393433 16250.417969
3.040000 5.000000 -6.840000 -78.563690 0.752421 6172.819336
3.040000 5.000000 -6.800000 -18.650126 -30.421612 1273.301636
3.040000 5.040000 -7.200000 -11.874662 42.397869 1938.586914
3.040000 5.040000 -7.160000 -17.074755 -7.536699 348.349091
3.040000 5.040000 -7.120000 31.816193 -44.035240 2951.372559
3.040000 5.040000 -7.080000 102.597000 -19.880705 10921.386719
3.040000 5.040000 -7.040000 131.784439 64.024063 21466.218750
3.040000 5.040000 -7.000000 81.377281 150.444870 29255.919922
3.040000 5.040000 -6.960000 -22.337193 172.119583 30124.099609
3.040000 5.040000 -6.920000 -108.038322 111.047440 24003.812500
3.040000 5.040000 -6.880000 -120.351547 13.969753 14679.649414
3.040000 5.040000 -6.840000 -64.925522 -50.404785 6755.965820
3.040000 5.040000 -6.800000 3.590330 -50.260006 2538.958496
3.040000 5.080000 -7.200000 -28.328171 22.035086 1288.030273
3.040000 5.080000 -7.160000 -11.319525 -16.532000 401.438660
3.040000 5.080000 -7.120000 39.134930 -24.543142 2133.908691
3.040000 5.080000 -7.080000 82.135979 19.936747 7143.792969
3.040000 5.080000 -7.040000 71.618187 92.227623 13635.099609
3.040000 5.080000 -7.000000 1.287117 135.516174 18366.289062
3.040000 5.080000 -6.960000 -83.434135 109.615494 18976.812500
3.040000 5.080000 -6.920000 -121.782669 28.366222 15635.661133
3.040000 5.080000 -6.880000 -89.497330 -51.293755 10640.821289
3.040000 5.080000 -6.840000 -17.133410 -78.598732 6471.314453
3.040000 5.080000 -6.800000 40.936867 -49.280510 4104.395508
3.040000 5.120000 -7.200000 -23.442682 4.873234 573.307739
3.040000 5.120000 -7.160000 -2.219782 -13.907319 198.340958
3.040000 5.120000 -7.120000 31.458481 -5.367908 1018.450439
3.040000 5.120000 -7.080000 46.296108 34.000893 3299.390137
3.040000 5.120000 -7.040000 19.183693 76.018318 6146.798828
3.040000 5.120000 -7.000000 -38.176468 81.580513 8112.822754
3.040000 5.120000 -6.960000 -83.701141 36.878532 8365.907227
3.040000 5.120000 -6.920000 -79.907135 -30.518517 7316.530273
3.040000 5.120000 -6.880000 -27.083561 -73.377762 6117.815430
3.040000 5.120000 -6.840000 37.373810 -64.586731 5568.247559
3.040000 5.120000 -6.800000 72.187576 -17.344017 5511.861328
3.040000 5.160000 -7.200000 -13.821793 2.944422 199.711563
3.040000 5.160000 -7.160000 -1.765928 -5.522027 33.611286
3.040000 5.160000 -7.120000 15.684306 1.375514 247.889496
3.040000 5.160000 -7.080000 19.860733 23.660513 954.268616
3.040000 5.160000 -7.040000 -0.043468 41.980621 1762.374390
3.040000 5.160000 -7.000000 -31.302383 34.110867 2143.390625
3.040000 5.160000 -6.960000 -45.170475 -1.298584 2042.058105
3.040000 5.160000 -6.920000 -22.981243 -38.969788 2046.781738
3.040000 5.160000 -6.880000 24.610039 -47.430595 2855.315430
3.040000 5.160000 -6.840000 65.179794 -16.720474 4527.979980
3.040000 5.160000 -6.800000 71.999283 33.437866 6301.987793
3.040000 5.200000 -7.200000 -14.081593 7.710535 257.743591
3.040000 5.200000 -7.160000 -8.797559 -3.170078 87.446442
3.040000 5.200000 -7.120000 5.289366 -3.948572 43.568611
3.040000 5.200000 -7.080000 13.485687 8.441858 253.128723
3.040000 5.200000 -7.040000 6.264455 21.003277 480.381042
3.040000 5.200000 -7.000000 -8.036967 18.357208 401.579926
3.040000 5.200000 -6.960000 -10.210802 1.091351 105.451530
3.040000 5.200000 -6.920000 9.296577 -11.828918 226.349670
3.040000 5.200000 -6.880000 37.951359 -0.816929 1440.973022
3.040000 5.200000 -6.840000 50.834351 34.219925 3755.134277
3.040000 5.200000 -6.800000 33.178253 72.086197 6297.216309
3.080000 4.800000 -7.200000 -64.679695 -15.565774 4425.756348
3.080000 4.800000 -7.160000 -51.001846 -56.949928 5844.482422
3.080000 4.800000 -7.120000 -7.586267 -79.734093 6415.076660
3.080000 4.800000 -7.080000 40.789909 -65.284286 5925.854492
3.080000 4.800000 -7.040000 63.512337 -23.193253 4571.743652
3.080000 4.800000 -7.000000 50.702110 16.401587 2839.716064
3.080000 4.800000 -6.960000 20.433716 29.521233 1289.039917
3.080000 4.800000 -6.920000 -0.030725 17.818176 317.488342
3.080000 4.800000 -6.880000 0.615956 2.483547 6.547409
3.080000 4.800000 -6.840000 11.098000 0.840001 123.871201
3.080000 4.800000 -6.800000 13.786809 10.583139 302.078918
3.080000 4.840000 -7.200000 -32.425190 -51.045620 3657.048340
3.080000 4.840000 -7.160000 -8.605004 -68.551323 4773.329590
3.080000 4.840000 -7.120000 24.348753 -68.935036 5344.900879
3.080000 4.840000 -7.080000 51.575897 -49.430443 5103.441895
3.080000 4.840000 -7.040000 61.242973 -19.842760 4144.437012
3.080000 4.840000 -7.000000 53.281059 5.310009 2867.067627
3.080000 4.840000 -6.960000 37.408501 17.900604 1719.827515
3.080000 4.840000 -6.920000 23.479650 19.891804 946.977905
3.080000 4.840000 -6.880000 14.523245 17.531748 518.286804
3.080000 4.840000 -6.840000 8.565681 13.955143 268.116913
3.080000 4.840000 -6.800000 4.951849 8.396179 95.016640
3.080000 4.880000 -7.200000 13.883894 -48.600666 2554.787109
3.080000 4.880000 -7.160000 24.004202 -47.192501 2803.333740
3.080000 4.880000 -7.120000 35.939022 -46.287872 3434.180420
3.080000 4.880000 -7.080000 52.591484 -41.131683 4457.679688
3.080000 4.880000 -7.040000 69.917786 -25.070215 5517.012207
3.080000 4.880000 -7.000000 77.597397 2.581020 6028.017578
3.080000 4.880000 -6.960000 67.002777 32.373352 5537.406250
3.080000 4.880000 -6.920000 40.071198 49.560310 4061.925293
3.080000 4.880000 -6.880000 10.577282 45.197109 2154.657471
3.080000 4.880000 -6.840000 -4.828531 24.267698 612.235901
3.080000 4.880000 -6.800000 0.832613 3.125426 10.461534
3.080000 4.920000 -7.200000 39.177109 -14.103739 1733.761230
3.080000 4.920000 -7.160000 28.176794 -15.794426 1043.395630
3.080000 4.920000 -7.120000 31.970083 -31.985718 2045.172363
3.080000 4.920000 -7.080000 59.562988 -40.201538 5163.913086
3.080000 4.920000 -7.040000 94.427338 -18.662643 9264.816406
3.080000 4.920000 -7.000000 106.090912 30.343338 12175.999023
3.080000 4.920000 -6.960000 77.812767 77.968933 12133.980469
3.080000 4.920000 -6.920000 24.194477 92.069115 9062.094727
3.080000 4.920000 -6.880000 -19.299379 65.454910 4656.811035
3.080000 4.920000 -6.840000 -26.241943 22.465828 1193.353027
3.080000 4.920000 -6.800000 -0.933041 -2.468901 6.966035
3.080000 4.960000 -7.200000 29.698261 22.293100 1378.968994
3.080000 4.960000 -7.160000 12.196978 1.020248 149.807175
3.080000 4.960000 -7.120000 29.271439 -29.508261 1727.554565
3.080000 4.960000 -7.080000 76.472427 -31.180990 6820.286133
3.080000 4.960000 -7.040000 115.414444 14.483664 13530.270508
3.080000 4.960000 -7.000000 106.194870 83.774284 18295.480469
3.080000 4.960000 -6.960000 45.582943 127.506683 18335.757812
3.080000 4.960000 -6.920000 -26.815094 113.815254 13672.960938
3.080000 4.960000 -6.880000 -62.113998 56.676262 7070.347656
3.080000 4.960000 -6.840000 -44.207520 2.703278 1961.612549
3.080000 4.960000 -6.800000 -0.768072 -10.702100 115.124878
3.080000 5.000000 -7.200000 1.223227 35.271812 1245.597046
3.080000 5.000000 -7.160000 -2.453903 -1.278297 7.655685
3.080000 5.000000 -7.120000 35.347885 -26.479813 1950.653564
3.080000 5.000000 -7.080000 88.286621 -4.135338 7811.628418
3.080000 5.000000 -7.040000 106.687660 63.142708 15369.257812
3.080000 5.000000 -7.000000 62.778866 129.131348 20616.089844
3.080000 5.000000 -6.960000 -20.053961 141.998108 20565.625000
3.080000 5.000000 -6.920000 -84.705078 90.791290 15418.008789
3.080000 5.000000 -6.880000 -89.673019 15.481850 8280.938477
3.080000 5.000000 -6.840000 -43.627300 -29.310032 2762.419189
3.080000 5.000000 -6.800000 6.875202 -21.665051 516.642822
3.080000 5.040000 -7.200000 -20.417231 24.572487 1020.670410
3.080000 5.040000 -7.160000 -4.383173 -8.847700 97.494003
3.080000 5.040000 -7.120000 41.042385 -13.157295 1857.591797
3.080000 5.040000 -7.080000 77.327888 30.029945 6881.400391
3.080000 5.040000 -7.040000 63.505096 95.971588 13243.443359
3.080000 5.040000 -7.000000 -3.278009 132.569427 17585.398438
3.080000 5.040000 -6.960000 -79.581299 105.795181 17525.802734
3.080000 5.040000 -6.920000 -111.214874 31.786446 13379.125977
3.080000 5.040000 -6.880000 -80.084503 -36.431179 7740.758789
3.080000 5.040000 -6.840000 -17.680113 -55.452995 3387.621094
3.080000 5.040000 -6.800000 26.433533 -26.497375 1400.842529
3.080000 5.080000 -7.200000 -24.093109 8.589745 654.261597
3.080000 5.080000 -7.160000 -0.250208 -8.858798 78.540909
3.080000 5.080000 -7.120000 33.928215 4.346131 1170.012695
3.080000 5.080000 -7.080000 44.669594 48.252850 4323.709961
3.080000 5.080000 -7.040000 10.803230 90.552971 8316.550781
3.080000 5.080000 -7.000000 -51.232510 91.734680 11040.021484
3.080000 5.080000 -6.960000 -96.581192 41.977303 11090.020508
3.080000 5.080000 -6.920000 -89.941605 -26.714130 8803.136719
3.080000 5.080000 -6.880000 -36.690186 -66.906677 5822.672852
3.080000 5.080000 -6.840000 22.962254 -56.098465 3674.302979
3.080000 5.080000 -6.800000 50.440987 -12.680272 2705.082520
3.080000 5.120000 -7.200000 -18.844542 2.065251 359.382019
3.080000 5.120000 -7.160000 -2.022200 -3.323832 15.137148
3.080000 5.120000 -7.120000 15.170208 11.067195 352.618011
3.080000 5.120000 -7.080000 11.744677 38.920013 1652.704834
3.080000 5.120000 -7.040000 -18.770693 55.140312 3392.792969
3.080000 5.120000 -7.000000 -56.270912 37.955521 4607.037109
3.080000 5.120000 -6.960000 -68.362213 -7.652481 4731.952637
3.080000 5.120000 -6.920000 -39.584881 -50.251949 4092.221191
3.080000 5.120000 -6.880000 12.997086 -58.025047 3535.830322
3.080000 5.120000 -6.840000 53.957645 -26.091066 3592.171143
3.080000 5.120000 -6.800000 59.740318 21.187204 4017.803223
3.080000 5.160000 -7.200000 -18.308111 2.742596 342.708740
3.080000 5.160000 -7.160000 -10.784815 -3.462613 128.301926
3.080000 5.160000 -7.120000 -0.284519 1.220888 1.571519
3.080000 5.160000 -7.080000 -0.295732 14.206692 201.917557
3.080000 5.160000 -7.040000 -14.592281 20.104719 617.134399
3.080000 5.160000 -7.000000 -29.390331 6.927696 911.784546
3.080000 5.160000 -6.960000 -25.075903 -18.412697 967.828308
3.080000 5.160000 -6.920000 3.289040 -33.279766 1118.360596
3.080000 5.160000 -6.880000 38.256332 -19.709057 1851.993896
3.080000 5.160000 -6.840000 54.106792 18.143614 3256.735596
3.080000 5.160000 -6.800000 39.102348 57.199165 4800.738281
3.080000 5.200000 -7.200000 -23.912283 -1.052913 572.905945
3.080000 5.200000 -7.160000 -15.858132 -13.773960 441.202332
3.080000 5.200000 -7.120000 -0.034919 -14.302118 204.551804
3.080000 5.200000 -7.080000 8.990305 -2.596182 87.565742
3.080000 5.200000 -7.040000 5.030290 8.416206 96.136337
3.080000 5.200000 -7.000000 -2.680702 7.875841 69.215034
3.080000 5.200000 -6.960000 -0.106979 0.059725 0.015012
3.080000 5.200000 -6.920000 14.839735 0.566532 220.538696
3.080000 5.200000 -6.880000 28.026737 19.318575 1158.705322
3.080000 5.200000 -6.840000 22.319242 48.591949 2859.326172
3.080000 5.200000 -6.800000 -5.490566 68.875748 4774.015137
3.120000 4.800000 -7.200000 -35.019264 -28.349388 2030.036621
3.120000 4.800000 -7.160000 -9.699882 -50.746643 2669.309326
3.120000 4.800000 -7.120000 29.423513 -49.407246 3306.819092
3.120000 4.800000 -7.080000 58.632591 -19.382576 3813.465088
3.120000 4.800000 -7.040000 58.540119 22.390598 3928.284424
3.120000 4.800000 -7.000000 30.912630 49.847271 3440.341309
3.120000 4.800000 -6.960000 -2.998084 49.131111 2422.854492
3.120000 4.800000 -6.920000 -21.138823 28.540939 1261.435059
3.120000 4.800000 -6.880000 -18.293201 8.370306 404.703217
3.120000 4.800000 -6.840000 -6.557334 1.756736 46.084755
3.120000 4.800000 -6.800000 -0.226164 5.436224 29.603680
3.120000 4.840000 -7.200000 -5.252869 -40.874924 1698.352051
3.120000 4.840000 -7.160000 19.040726 -44.309326 2325.865723
3.120000 4.840000 -7.120000 44.255104 -30.168186 2868.633789
3.120000 4.840000 -7.080000 55.989193 -1.287663 3136.447754
3.120000 4.840000 -7.040000 46.710091 28.404711 2988.660156
3.120000 4.840000 -7.000000 22.324335 43.895020 2425.148682
3.120000 4.840000 -6.960000 -2.474434 40.166748 1619.490479
3.120000 4.840000 -6.920000 -15.546160 24.445587 839.269836
3.120000 4.840000 -6.880000 -14.887066 8.623425 295.988190
3.120000 4.840000 -6.840000 -6.635810 -0.009773 44.034073
3.120000 4.840000 -6.800000 2.484954 -1.413831 8.173913
3.120000 4.880000 -7.200000 21.589291 -26.480354 1167.306641
3.120000 4.880000 -7.160000 31.430737 -21.553455 1452.442627
3.120000 4.880000 -7.120000 41.306740 -11.557610 1839.825073
3.120000 4.880000 -7.080000 46.883682 4.781454 2220.941895
3.120000 4.880000 -7.040000 42.940212 24.217903 2430.368652
3.120000 4.880000 -7.000000 27.914068 39.288227 2322.760010
3.120000 4.880000 -6.960000 6.740296 42.575611 1858.114258
3.120000 4.880000 -6.920000 -10.849886 32.211784 1155.318970
3.120000 4.880000 -6.880000 -16.099022 14.244812 462.093170
3.120000 4.880000 -6.840000 -7.186591 -0.342546 51.764423
3.120000 4.880000 -6.800000 9.062613 -2.453788 88.152016
3.120000 4.920000 -7.200000 27.020645 0.169095 730.143799
3.120000 4.920000 -7.160000 24.645027 -2.181879 612.138000
3.120000 4.920000 -7.120000 32.232159 -4.884042 1062.765991
3.120000 4.920000 -7.080000 45.702400 3.682537 2102.270508
3.120000 4.920000 -7.040000 51.044434 26.276627 3295.995361
3.120000 4.920000 -7.000000 36.888268 51.068298 3968.715332
3.120000 4.920000 -6.960000 6.986048 60.039825 3653.585449
3.120000 4.920000 -6.920000 -20.304422 45.158886 2451.594482
3.120000 4.920000 -6.880000 -26.754051 17.164162 1010.387695
3.120000 4.920000 -6.840000 -10.303661 -2.304562 111.476440
3.120000 4.920000 -6.800000 12.642386 1.129384 161.105453
3.120000 4.960000 -7.200000 13.010568 18.145691 498.540985
3.120000 4.960000 -7.160000 11.860675 3.492389 152.872391
3.120000 4.960000 -7.120000 29.455952 -4.680945 889.564331
3.120000 4.960000 -7.080000 52.083584 10.087031 2814.447998
3.120000 4.960000 -7.040000 55.775368 44.695152 5108.548340
3.120000 4.960000 -7.000000 28.792740 75.142982 6475.489746
3.120000 4.960000 -6.960000 -14.610919 76.432434 6055.395996
3.120000 4.960000 -6.920000 -44.391129 45.948910 4081.874512
3.120000 4.960000 -6.880000 -40.915379 7.344423 1728.008789
3.120000 4.960000 -6.840000 -12.531027 -10.006568 257.158020
3.120000 4.960000 -6.800000 12.524014 3.101990 166.473267
3.120000 5.000000 -7.200000 -4.483019 19.388699 396.019104
3.120000 5.000000 -7.160000 5.121926 1.196809 27.666481
3.120000 5.000000 -7.120000 31.412771 0.730883 987.296387
3.120000 5.000000 -7.080000 51.067471 28.358747 3412.104980
3.120000 5.000000 -7.040000 39.817978 68.357857 6258.267578
3.120000 5.000000 -7.000000 -2.902530 88.870132 7906.325195
3.120000 5.000000 -6.960000 -49.381195 70.078140 7349.448242
3.120000 5.000000 -6.920000 -66.331757 23.845451 4968.507324
3.120000 5.000000 -6.880000 -44.482380 -15.496189 2218.813965
3.120000 5.000000 -6.840000 -6.464966 -21.544458 505.959473
3.120000 5.000000 -6.800000 14.830551 1.618030 222.563278
3.120000 5.040000 -7.200000 -13.423368 11.767575 318.662659
3.120000 5.040000 -7.160000 3.450592 1.191425 13.326080
3.120000 5.040000 -7.120000 26.514172 12.415888 857.155518
3.120000 5.040000 -7.080000 31.905537 44.637711 3010.488281
3.120000 5.040000 -7.040000 5.390981 74.275032 5545.842773
3.120000 5.040000 -7.000000 -40.117455 73.450027 7004.316895
3.120000 5.040000 -6.960000 -71.982094 36.526894 6515.635742
3.120000 5.040000 -6.920000 -65.871841 -11.994965 4482.979004
3.120000 5.040000 -6.880000 -27.960129 -37.871979 2216.055664
3.120000 5.040000 -6.840000 10.870711 -27.097946 852.471069
3.120000 5.040000 -6.800000 23.421961 3.487961 560.754150
3.120000 5.080000 -7.200000 -15.276567 6.084224 270.391266
3.120000 5.080000 -7.160000 -1.704517 4.246754 20.940296
3.120000 5.080000 -7.120000 9.962182 18.296862 434.020203
3.120000 5.080000 -7.080000 3.396950 41.239296 1712.218872
3.120000 5.080000 -7.040000 -24.511129 52.098297 3315.028076
3.120000 5.080000 -7.000000 -55.557518 34.728699 4292.720215
3.120000 5.080000 -6.960000 -63.670628 -4.234959 4071.883545
3.120000 5.080000 -6.920000 -38.798027 -37.968826 2946.918457
3.120000 5.080000 -6.880000 2.506586 -42.211899 1788.127319
3.120000 5.080000 -6.840000 31.298820 -16.551105 1253.555176
3.120000 5.080000 -6.800000 31.692135 16.705662 1283.470581
3.120000 5.120000 -7.200000 -18.070692 3.555611 339.192291
3.120000 5.120000 -7.160000 -12.353654 1.713379 155.548431
3.120000 5.120000 -7.120000 -7.475657 7.944810 119.005447
3.120000 5.120000 -7.080000 -12.889598 17.340462 466.833374
3.120000 5.120000 -7.040000 -28.087574 16.871906 1073.572998
3.120000 5.120000 -7.000000 -39.108040 -0.403973 1529.601929
3.120000 5.120000 -6.960000 -30.704279 -24.830833 1559.322998
3.120000 5.120000 -6.920000 -2.630550 -36.303764 1324.883057
3.120000 5.120000 -6.880000 27.533348 -22.474194 1263.174683
3.120000 5.120000 -6.840000 39.152733 9.269428 1618.858887
3.120000 5.120000 -6.800000 26.419949 38.483452 2178.989746
3.120000 5.160000 -7.200000 -23.556700 -2.691161 562.160461
3.120000 5.160000 -7.160000 -19.223757 -11.575300 503.540405
3.120000 5.160000 -7.120000 -9.883948 -13.098238 269.256287
3.120000 5.160000 -7.080000 -4.860338 -7.890756 85.886917
3.120000 5.160000 -7.040000 -6.705704 -4.732750 67.365387
3.120000 5.160000 -7.000000 -7.665688 -9.125526 142.037994
3.120000 5.160000 -6.960000 1.104239 -15.210779 232.587143
3.120000 5.160000 -6.920000 17.856958 -10.890942 437.483582
3.120000 5.160000 -6.880000 29.682047 8.894147 960.129761
3.120000 5.160000 -6.840000 24.319117 35.354881 1841.387085
3.120000 5.160000 -6.800000 1.893733 53.011223 2813.775879
3.120000 5.200000 -7.200000 -24.256811 -15.857803 839.862793
3.120000 5.200000 -7.160000 -12.184117 -28.016779 933.392578
3.120000 5.200000 -7.120000 5.821031 -26.903008 757.656189
3.120000 5.200000 -7.080000 16.988689 -14.119305 487.970337
3.120000 5.200000 -7.040000 16.824345 -0.390572 283.211121
3.120000 5.200000 -7.000000 11.813562 6.602777 183.156921
3.120000 5.200000 -6.960000 10.166872 9.567287 194.898285
3.120000 5.200000 -6.920000 11.690408 16.539955 410.235779
3.120000 5.200000 -6.880000 8.167607 29.993708 966.332275
3.120000 5.200000 -6.840000 -6.867978 42.630417 1864.521484
3.120000 5.200000 -6.800000 -30.217558 44.184223 2865.346436
3.160000 4.800000 -7.200000 -14.869609 -18.772127 573.498047
3.160000 4.800000 -7.160000 5.704458 -24.033314 610.140991
3.160000 4.800000 -7.120000 28.658451 -11.648630 956.997437
3.160000 4.800000 -7.080000 37.903370 16.696913 1715.452271
3.160000 4.800000 -7.040000 23.764345 45.524384 2637.213623
3.160000 4.800000 -7.000000 -7.158889 56.320503 3223.248779
3.160000 4.800000 -6.960000 -35.728745 42.588932 3090.360352
3.160000 4.800000 -6.920000 -45.297497 15.201971 2282.963135
3.160000 4.800000 -6.880000 -34.460758 -7.222955 1239.714844
3.160000 4.800000 -6.840000 -15.903320 -13.798166 443.304993
3.160000 4.800000 -6.800000 -3.335375 -8.213572 78.587486
3.160000 4.840000 -7.200000 1.042593 -22.606888 512.158386
3.160000 4.840000 -7.160000 17.491037 -17.920732 627.089050
3.160000 4.840000 -7.120000 29.591955 -0.004066 875.683838
3.160000 4.840000 -7.080000 26.304180 24.725336 1303.252197
3.160000 4.840000 -7.040000 5.670284 41.858109 1784.253296
3.160000 4.840000 -7.000000 -21.488888 40.003334 2062.039062
3.160000 4.840000 -6.960000 -39.029449 20.374769 1938.429199
3.160000 4.840000 -6.920000 -37.788212 -4.008546 1444.017456
3.160000 4.840000 -6.880000 -21.733574 -18.761604 824.346069
3.160000 4.840000 -6.840000 -2.990610 -18.526489 352.174561
3.160000 4.840000 -6.800000 8.648846 -8.349030 144.508820
3.160000 4.880000 -7.200000 12.989566 -14.382791 375.593506
3.160000 4.880000 -7.160000 20.697620 -7.097433 478.765045
3.160000 4.880000 -7.120000 23.280312 6.570587 585.145508
3.160000 4.880000 -7.080000 15.734406 20.989658 688.137329
3.160000 4.880000 -7.040000 -0.502573 27.665016 765.605713
3.160000 4.880000 -7.000000 -17.337402 21.784128 775.133789
3.160000 4.880000 -6.960000 -25.387405 6.342509 684.747742
3.160000 4.880000 -6.920000 -20.487921 -9.637171 512.629944
3.160000 4.880000 -6.880000 -6.218578 -17.158640 333.089630
3.160000 4.880000 -6.840000 8.993937 -12.635159 240.538116
3.160000 4.880000 -6.800000 17.255981 0.961008 298.692413
3.160000 4.920000 -7.200000 15.341736 -2.480995 241.524200
3.160000 4.920000 -7.160000 17.592686 0.895184 310.303955
3.160000 4.920000 -7.120000 18.390249 7.048090 387.876831
3.160000 4.920000 -7.080000 15.100972 14.480498 437.724182
3.160000 4.920000 -7.040000 6.902331 19.495979 427.735382
3.160000 4.920000 -7.000000 -3.555338 18.261589 346.126068
3.160000 4.920000 -6.960000 -10.666151 10.002635 213.819489
3.160000 4.920000 -6.920000 -9.323454 -0.934331 87.799774
3.160000 4.920000 -6.880000 0.587709 -6.771701 46.201336
3.160000 4.920000 -6.840000 12.449573 -1.655859 157.733719
3.160000 4.920000 -6.800000 16.542824 13.039131 443.683960
3.160000 4.960000 -7.200000 11.005773 6.111255 158.474457
3.160000 4.960000 -7.160000 13.459021 5.571570 212.187622
3.160000 4.960000 -7.120000 17.505436 8.513488 378.919739
3.160000 4.960000 -7.080000 19.026413 16.312370 628.097778
3.160000 4.960000 -7.040000 13.450881 25.454437 828.854614
3.160000 4.960000 -7.000000 1.197992 28.746504 827.796692
3.160000 4.960000 -6.960000 -10.361678 21.800003 582.604492
3.160000 4.960000 -6.920000 -12.322387 8.828471 229.783112
3.160000 4.960000 -6.880000 -3.112069 0.727986 10.214935
3.160000 4.960000 -6.840000 8.205704 5.497122 97.551918
3.160000 4.960000 -6.800000 9.022005 19.660019 467.912933
3.160000 5.000000 -7.200000 4.690655 10.663656 135.715805
3.160000 5.000000 -7.160000 8.593168 10.195366 177.788025
3.160000 5.000000 -7.120000 13.949564 14.537432 405.927246
3.160000 5.000000 -7.080000 14.817883 24.876162 838.393066
3.160000 5.000000 -7.040000 5.809252 35.227425 1274.718872
3.160000 5.000000 -7.000000 -10.407908 36.035160 1406.857300
3.160000 5.000000 -6.960000 -22.824131 23.832582 1088.932983
3.160000 5.000000 -6.920000 -21.524231 6.804272 509.590637
3.160000 5.000000 -6.880000 -8.184462 -1.310794 68.703590
3.160000 5.000000 -6.840000 4.014259 5.616585 47.660305
3.160000 5.000000 -6.800000 2.568158 19.206293 375.477112
3.160000 5.040000 -7.200000 -2.749379 12.909001 174.201401
3.160000 5.040000 -7.160000 -0.759468 13.748748 189.604858
3.160000 5.040000 -7.120000 1.799542 18.194923 334.293579
3.160000 5.040000 -7.080000 -0.700423 26.458494 700.542542
3.160000 5.040000 -7.040000 -11.671278 31.680809 1139.892334
3.160000 5.040000 -7.000000 -25.645302 25.891766 1328.065063
3.160000 5.040000 -6.960000 -31.166847 9.731097 1066.066650
3.160000 5.040000 -6.920000 -22.000694 -5.487931 514.147949
3.160000 5.040000 -6.880000 -4.880704 -7.565776 81.062233
3.160000 5.040000 -6.840000 5.715522 4.238626 50.633137
3.160000 5.040000 -6.800000 1.583001 17.754997 317.745819
3.160000 5.080000 -7.200000 -12.416184 11.503771 286.498383
3.160000 5.080000 -7.160000 -14.186741 9.727458 295.887054
3.160000 5.080000 -7.120000 -13.427266 9.364836 267.991638
3.160000 5.080000 -7.080000 -14.733646 11.552072 350.530701
3.160000 5.080000 -7.040000 -20.421640 11.271479 544.089600
3.160000 5.080000 -7.000000 -25.467854 3.745043 662.636902
3.160000 5.080000 -6.960000 -21.910151 -7.903467 542.519470
3.160000 5.080000 -6.920000 -8.456845 -13.681839 258.710938
3.160000 5.080000 -6.880000 6.014740 -6.635554 80.207672
3.160000 5.080000 -6.840000 10.248295 9.064119 187.185806
3.160000 5.080000 -6.800000 1.908290 21.475611 464.843414
3.160000 5.120000 -7.200000 -21.656815 2.826006 477.003906
3.160000 5.120000 -7.160000 -23.030621 -5.601375 561.784912
3.160000 5.120000 -7.120000 -17.624151 -11.525328 443.443909
3.160000 5.120000 -7.080000 -11.264722 -11.814095 266.466797
3.160000 5.120000 -7.040000 -8.050955 -10.013116 165.080353
3.160000 5.120000 -7.000000 -5.827870 -10.187048 137.740021
3.160000 5.120000 -6.960000 -0.195249 -10.732744 115.229919
3.160000 5.120000 -6.920000 8.308768 -6.023139 105.313828
3.160000 5.120000 -6.880000 13.108939 6.113520 209.219421
3.160000 5.120000 -6.840000 8.342810 20.320761 482.535797
3.160000 5.120000 -6.800000 -4.423604 28.348877 823.227051
3.160000 5.160000 -7.200000 -23.340118 -12.632011 704.328857
3.160000 5.160000 -7.160000 -17.383125 -25.351170 944.854858
3.160000 5.160000 -7.120000 -2.987388 -30.054108 912.173889
3.160000 5.160000 -7.080000 10.549097 -24.041412 689.272949
3.160000 5.160000 -7.040000 16.905079 -12.653543 445.893860
3.160000 5.160000 -7.000000 16.963110 -2.266230 292.882904
3.160000 5.160000 -6.960000 14.887381 5.667348 253.752930
3.160000 5.160000 -6.920000 12.020281 13.526193 327.445038
3.160000 5.160000 -6.880000 5.947533 22.149170 525.958862
3.160000 5.160000 -6.840000 -5.149392 28.464733 836.757263
3.160000 5.160000 -6.800000 -19.037712 28.710114 1186.705078
3.160000 5.200000 -7.200000 -12.590104 -26.803608 876.944153
3.160000 5.200000 -7.160000 2.465598 -35.343910 1255.271240
3.160000 5.200000 -7.120000 21.473612 -30.496162 1391.131958
3.160000 5.200000 -7.080000 33.252228 -13.871864 1298.139282
3.160000 5.200000 -7.040000 32.666550 5.638018 1098.890747
3.160000 5.200000 -7.000000 22.762856 19.924345 915.127075
3.160000 5.200000 -6.960000 9.801103 26.750397 811.645386
3.160000 5.200000 -6.920000 -2.384220 28.313103 807.316284
3.160000 5.200000 -6.880000 -13.410952 26.851322 900.847168
3.160000 5.200000 -6.840000 -23.725323 22.633287 1075.156616
3.160000 5.200000 -6.800000 -32.650860 15.238092 1298.278076
3.200000 4.800000 -7.200000 -12.154474 -5.268203 175.485199
3.200000 4.800000 -7.160000 -3.929919 -5.090451 41.356956
3.200000 4.800000 -7.120000 4.859068 3.702851 37.321648
3.200000 4.800000 -7.080000 4.582146 20.391230 436.798309
3.200000 4.800000 -7.040000 -10.664014 34.409378 1297.726440
3.200000 4.800000 -7.000000 -34.716515 32.882500 2286.495117
3.200000 4.800000 -6.960000 -51.916470 12.869157 2860.935059
3.200000 4.800000 -6.920000 -49.848763 -14.176064 2685.859863
3.200000 4.800000 -6.880000 -30.315342 -31.326967 1900.398926
3.200000 4.800000 -6.840000 -7.403000 -30.428131 980.675537
3.200000 4.800000 -6.800000 5.548573 -17.691109 343.762024
3.200000 4.840000 -7.200000 -5.745548 -13.880296 225.673935
3.200000 4.840000 -7.160000 2.001503 -9.753479 99.136368
3.200000 4.840000 -7.120000 5.163044 2.254157 31.738247
3.200000 4.840000 -7.080000 -3.382668 15.517882 252.247116
3.200000 4.840000 -7.040000 -21.840023 18.648767 824.763123
3.200000 4.840000 -7.000000 -38.549759 5.779145 1519.482422
3.200000 4.840000 -6.960000 -40.857868 -16.781961 1950.999512
3.200000 4.840000 -6.920000 -26.002220 -34.650391 1876.765015
3.200000 4.840000 -6.880000 -3.549800 -36.975372 1379.779175
3.200000 4.840000 -6.840000 12.947920 -24.625603 774.068909
3.200000 4.840000 -6.800000 16.857759 -7.603687 342.000092
3.200000 4.880000 -7.200000 5.405173 -16.377426 297.436005
3.200000 4.880000 -7.160000 10.231306 -8.852463 183.045715
3.200000 4.880000 -7.120000 6.794863 1.565754 48.621742
3.200000 4.880000 -7.080000 -4.968485 6.166052 62.706039
3.200000 4.880000 -7.040000 -17.248501 -0.568699 297.834198
3.200000 4.880000 -7.000000 -20.396339 -15.422529 653.865051
3.200000 4.880000 -6.960000 -10.952188 -28.512228 932.897583
3.200000 4.880000 -6.920000 5.592230 -31.025164 993.833801
3.200000 4.880000 -6.880000 19.479832 -21.576448 845.006958
3.200000 4.880000 -6.840000 23.969673 -5.962938 610.101868
3.200000 4.880000 -6.800000 18.773382 8.305625 421.423279
3.200000 4.920000 -7.200000 16.461151 -10.385479 378.827667
3.200000 4.920000 -7.160000 16.443233 -1.199090 271.817719
3.200000 4.920000 -7.120000 8.832668 4.018611 94.165268
3.200000 4.920000 -7.080000 0.401882 0.560669 0.475859
3.200000 4.920000 -7.040000 -1.280782 -8.488966 73.702950
3.200000 4.920000 -7.000000 5.455141 -15.424515 267.674225
3.200000 4.920000 -6.960000 15.742922 -14.756144 465.583374
3.200000 4.920000 -6.920000 23.093706 -6.840818 580.116089
3.200000 4.920000 -6.880000 24.201086 4.148414 602.901917
3.200000 4.920000 -6.840000 19.323254 14.312711 578.241821
3.200000 4.920000 -6.800000 9.769730 21.456793 555.841553
3.200000 4.960000 -7.200000 21.102480 2.853376 453.456421
3.200000 4.960000 -7.160000 15.196770 10.858115 348.840454
3.200000 4.960000 -7.120000 6.820183 9.739449 141.371750
3.200000 4.960000 -7.080000 4.910039 2.531550 30.517227
3.200000 4.960000 -7.040000 11.054901 -1.986037 126.155182
3.200000 4.960000 -7.000000 18.861420 1.475189 357.929321
3.200000 4.960000 -6.960000 21.347830 10.323894 562.312622
3.200000 4.960000 -6.920000 17.424692 18.365818 640.923218
3.200000 4.960000 -6.880000 10.760607 22.626694 627.757935
3.200000 4.960000 -6.840000 3.848878 24.532108 616.638184
3.200000 4.960000 -6.800000 -4.556798 25.084408 649.991943
3.200000 5.000000 -7.200000 14.691162 17.081581 507.610657
3.200000 5.000000 -7.160000 3.670764 20.142145 419.180542
3.200000 5.000000 -7.120000 -2.525769 13.057767 176.884781
3.200000 5.000000 -7.080000 1.680358 5.766163 36.072235
3.200000 5.000000 -7.040000 10.454578 7.258290 161.980988
3.200000 5.000000 -7.000000 13.849527 16.592234 467.111633
3.200000 5.000000 -6.960000 8.407343 25.342510 712.926208
3.200000 5.000000 -6.920000 -0.727314 27.446888 753.860657
3.200000 5.000000 -6.880000 -7.277336 24.602619 658.248474
3.200000 5.000000 -6.840000 -10.967558 21.728529 592.416260
3.200000 5.000000 -6.800000 -15.689954 19.288179 618.208496
3.200000 5.040000 -7.200000 -1.302358 23.196175 539.758667
3.200000 5.040000 -7.160000 -13.789149 18.116692 518.355164
3.200000 5.040000 -7.120000 -14.975657 6.263908 263.506866
3.200000 5.040000 -7.080000 -5.598958 0.575697 31.679758
3.200000 5.040000 -7.040000 3.464807 6.256772 51.152077
3.200000 5.040000 -7.000000 3.277074 16.842228 294.399872
3.200000 5.040000 -6.960000 -4.850787 22.571064 532.983093
3.200000 5.040000 -6.920000 -12.965663 20.605469 592.693726
3.200000 5.040000 -6.880000 -16.249084 15.798123 513.613464
3.200000 5.040000 -6.840000 -16.978321 12.850564 453.400391
3.200000 5.040000 -6.800000 -18.969231 10.466286 469.374878
3.200000 5.080000 -7.200000 -18.004021 15.459892 563.153076
3.200000 5.080000 -7.160000 -26.078968 2.209435 684.994141
3.200000 5.080000 -7.120000 -19.485710 -11.444200 510.662598
3.200000 5.080000 -7.080000 -5.048204 -13.676809 212.539490
3.200000 5.080000 -7.040000 4.644576 -4.114439 38.500698
3.200000 5.080000 -7.000000 3.431144 7.846584 73.341629
3.200000 5.080000 -6.960000 -4.545862 13.543437 204.089539
3.200000 5.080000 -6.920000 -11.556837 12.355329 286.214630
3.200000 5.080000 -6.880000 -14.489986 9.177745 294.190704
3.200000 5.080000 -6.840000 -15.587826 7.176190 294.478027
3.200000 5.080000 -6.800000 -16.861258 5.234256 311.699432
3.200000 5.120000 -7.200000 -24.185429 -2.828391 592.934753
3.200000 5.120000 -7.160000 -22.917011 -19.595213 909.161743
3.200000 5.120000 -7.120000 -7.862880 -29.708820 944.438904
3.200000 5.120000 -7.080000 10.177058 -25.079586 732.558167
3.200000 5.120000 -7.040000 19.218010 -9.552465 460.581512
3.200000 5.120000 -7.000000 15.700140 6.223177 285.222321
3.200000 5.120000 -6.960000 5.028538 14.432682 233.588501
3.200000 5.120000 -6.920000 -5.281784 14.700450 244.000458
3.200000 5.120000 -6.880000 -11.637027 11.154041 259.833038
3.200000 5.120000 -6.840000 -14.547163 7.305819 264.994934
3.200000 5.120000 -6.800000 -15.511707 4.468405 260.579712
3.200000 5.160000 -7.200000 -14.862687 -20.154854 627.117615
3.200000 5.160000 -7.160000 -4.115354 -32.992599 1105.447754
3.200000 5.160000 -7.120000 15.585380 -34.119747 1407.061157
3.200000 5.160000 -7.080000 32.152256 -20.240526 1443.446533
3.200000 5.160000 -7.040000 35.729404 1.568818 1279.051514
3.200000 5.160000 -7.000000 25.337549 20.025726 1043.021118
3.200000 5.160000 -6.960000 7.893231 27.712883 830.307007
3.200000 5.160000 -6.920000 -7.847535 24.569717 665.254822
3.200000 5.160000 -6.880000 -16.727741 15.815756 529.955444
3.200000 5.160000 -6.840000 -18.796623 7.530029 410.014374
3.200000 5.160000 -6.800000 -17.797882 3.270170 327.458618
3.200000 5.200000 -7.200000 3.942665 -24.946606 637.877747
3.200000 5.200000 -7.160000 18.514532 -28.459993 1152.759155
3.200000 5.200000 -7.120000 35.333359 -19.429268 1625.942749
3.200000 5.200000 -7.080000 43.801018 1.066019 1919.665527
3.200000 5.200000 -7.040000 37.455063 24.167488 1986.949219
3.200000 5.200000 -7.000000 18.265856 39.069527 1860.069336
3.200000 5.200000 -6.960000 -4.897025 39.750114 1604.052490
3.200000 5.200000 -6.920000 -21.979851 28.181190 1277.293335
3.200000 5.200000 -6.880000 -27.796478 12.423304 926.982666
3.200000 5.200000 -6.840000 -24.648075 0.992434 608.512512
3.200000 5.200000 -6.800000 -19.925276 -2.834954 405.053558
