#kx 	ky 	kz 	real 	imag 	intensity
0.800000 6.800000 4.800000 7.791888 -16.685108 339.106354
0.800000 6.800000 4.840000 5.153556 -4.119596 43.530212
0.800000 6.800000 4.880000 -6.532063 -1.968571 46.543110
0.800000 6.800000 4.920000 -13.400097 -13.241288 354.894287
0.800000 6.800000 4.960000 -5.289878 -27.303467 773.462097
0.800000 6.800000 5.000000 14.003090 -29.404701 1060.723022
0.800000 6.800000 5.040000 29.668474 -14.676435 1095.616089
0.800000 6.800000 5.080000 29.491795 7.153064 920.932251
0.800000 6.800000 5.120000 14.800009 20.998339 659.970459
0.800000 6.800000 5.160000 -1.971176 20.210211 412.338135
0.800000 6.800000 5.200000 -9.971532 11.051056 221.557281
0.800000 6.840000 4.800000 9.047613 -11.585312 216.078766
0.800000 6.840000 4.840000 1.801544 -2.024639 7.344721
0.800000 6.840000 4.880000 -9.878639 -5.654300 129.558609
0.800000 6.840000 4.920000 -11.329014 -20.117962 533.078979
0.800000 6.840000 4.960000 3.078811 -30.691727 951.461182
0.800000 6.840000 5.000000 22.973278 -24.323318 1119.395264
0.800000 6.840000 5.040000 31.108793 -3.168906 977.799011
0.800000 6.840000 5.080000 20.052481 16.673864 680.119751
0.800000 6.840000 5.120000 -0.573645 20.489902 420.165161
0.800000 6.840000 5.160000 -13.890759 8.757833 269.652832
0.800000 6.840000 5.200000 -12.344603 -4.763608 175.081161
0.800000 6.880000 4.800000 9.588895 -11.458618 223.246826
0.800000 6.880000 4.840000 1.512199 -6.278597 41.707527
0.800000 6.880000 4.880000 -6.062789 -13.454148 217.771515
0.800000 6.880000 4.920000 -1.329913 -26.062559 681.025635
0.800000 6.880000 4.960000 15.219875 -29.547695 1104.710938
0.800000 6.880000 5.000000 29.860628 -16.806175 1174.104614
0.800000 6.880000 5.040000 28.990496 3.462040 852.434570
0.800000 6.880000 5.080000 13.215631 14.773890 392.920715
0.800000 6.880000 5.120000 -2.994856 9.352034 96.429695
0.800000 6.880000 5.160000 -6.150322 -4.334492 56.614285
0.800000 6.880000 5.200000 2.738162 -11.170291 132.272934
0.800000 6.920000 4.800000 15.557401 -11.764813 380.443542
0.800000 6.920000 4.840000 9.053495 -8.773308 158.936707
0.800000 6.920000 4.880000 5.687153 -15.207379 263.608093
0.800000 6.920000 4.920000 12.852937 -22.671124 679.177856
0.800000 6.920000 4.960000 26.284210 -20.331402 1104.225586
0.800000 6.920000 5.000000 33.977764 -6.836593 1201.227417
0.800000 6.920000 5.040000 28.844492 7.710413 891.455200
0.800000 6.920000 5.080000 16.312357 12.266410 416.557800
0.800000 6.920000 5.120000 8.351927 6.446986 111.318314
0.800000 6.920000 5.160000 10.391832 0.352257 108.114265
0.800000 6.920000 5.200000 15.722563 2.698099 254.478714
0.800000 6.960000 4.800000 24.426397 -4.679430 618.545898
0.800000 6.960000 4.840000 18.443039 -1.453829 342.259308
0.800000 6.960000 4.880000 15.838872 -5.333467 279.315735
0.800000 6.960000 4.920000 20.936161 -9.096951 521.077332
0.800000 6.960000 4.960000 29.508383 -5.724890 903.518982
0.800000 6.960000 5.000000 33.658443 4.432364 1152.536743
0.800000 6.960000 5.040000 30.083666 14.720878 1121.731201
0.800000 6.960000 5.080000 22.641922 19.717216 901.425232
0.800000 6.960000 5.120000 16.867733 20.423658 701.646240
0.800000 6.960000 5.160000 13.361992 21.380016 635.647949
0.800000 6.960000 5.200000 8.094008 23.665865 625.586182
0.800000 7.000000 4.800000 26.908047 10.847153 841.703674
0.800000 7.000000 4.840000 18.921558 13.805056 548.604919
0.800000 7.000000 4.880000 14.210534 10.142401 304.807587
0.800000 7.000000 4.920000 16.455141 5.663762 302.849854
0.800000 7.000000 4.960000 23.219551 6.460939 580.891296
0.800000 7.000000 5.000000 28.514013 14.205189 1014.836304
0.800000 7.000000 5.040000 27.571108 25.621815 1416.643433
0.800000 7.000000 5.080000 19.565639 35.536377 1645.648315
0.800000 7.000000 5.120000 6.983105 40.043850 1652.273682
0.800000 7.000000 5.160000 -6.391394 37.584656 1453.456299
0.800000 7.000000 5.200000 -16.651777 28.606409 1095.608398
0.800000 7.040000 4.800000 16.919731 26.391727 982.800537
0.800000 7.040000 4.840000 6.486761 26.099400 723.256714
0.800000 7.040000 4.880000 0.700580 18.944620 359.389435
0.800000 7.040000 4.920000 3.674845 11.133142 137.451324
0.800000 7.040000 4.960000 13.024071 10.450079 278.830566
0.800000 7.040000 5.000000 20.499451 20.260914 830.732117
0.800000 7.040000 5.040000 17.561234 35.955639 1601.204834
0.800000 7.040000 5.080000 2.120654 47.282227 2240.105957
0.800000 7.040000 5.120000 -18.992268 45.534702 2434.115479
0.800000 7.040000 5.160000 -34.348503 30.146294 2088.618652
0.800000 7.040000 5.200000 -35.907852 9.389394 1377.534668
0.800000 7.080000 4.800000 -1.495907 31.793295 1013.051331
0.800000 7.080000 4.840000 -11.646142 26.059147 814.711792
0.800000 7.080000 4.880000 -14.439283 14.477621 418.094421
0.800000 7.080000 4.920000 -6.596544 5.385708 72.520248
0.800000 7.080000 4.960000 6.292893 7.801042 100.456757
0.800000 7.080000 5.000000 12.024321 22.676056 658.787781
0.800000 7.080000 5.040000 1.596379 39.546261 1566.455200
0.800000 7.080000 5.080000 -21.580854 43.593086 2366.090332
0.800000 7.080000 5.120000 -42.562355 28.271027 2610.804932
0.800000 7.080000 5.160000 -46.504395 1.960230 2166.501221
0.800000 7.080000 5.200000 -31.138124 -18.174488 1299.894775
0.800000 7.120000 4.800000 -17.786074 24.810244 931.892639
0.800000 7.120000 4.840000 -24.132698 14.559361 794.362122
0.800000 7.120000 4.880000 -20.755196 1.557237 433.203125
0.800000 7.120000 4.920000 -7.653857 -3.979533 74.418213
0.800000 7.120000 4.960000 4.948907 4.807813 47.606743
0.800000 7.120000 5.000000 3.793509 22.506121 520.916199
0.800000 7.120000 5.040000 -14.434420 33.292755 1316.760010
0.800000 7.120000 5.080000 -37.403694 24.358280 1992.362183
0.800000 7.120000 5.120000 -46.298538 -1.186542 2144.962646
0.800000 7.120000 5.160000 -32.578457 -25.282566 1700.563965
0.800000 7.120000 5.200000 -6.426368 -30.235308 955.472046
0.800000 7.160000 4.800000 -24.916378 12.414579 774.947632
0.800000 7.160000 4.840000 -26.081184 0.604796 680.593933
0.800000 7.160000 4.880000 -16.986004 -9.638804 381.430878
0.800000 7.160000 4.920000 -2.425386 -8.563066 79.208611
0.800000 7.160000 4.960000 4.761641 5.024769 47.921532
0.800000 7.160000 5.000000 -4.364352 19.369102 394.209717
0.800000 7.160000 5.040000 -24.038273 19.034639 940.156067
0.800000 7.160000 5.080000 -36.684299 0.287278 1345.820312
0.800000 7.160000 5.120000 -28.780922 -23.230757 1368.009521
0.800000 7.160000 5.160000 -4.606714 -31.833853 1034.615967
0.800000 7.160000 5.200000 16.464321 -18.121481 599.461914
0.800000 7.200000 4.800000 -24.922354 2.825511 629.107239
0.800000 7.200000 4.840000 -21.864674 -8.439293 549.285645
0.800000 7.200000 4.880000 -10.025789 -14.000525 296.531158
0.800000 7.200000 4.920000 1.617650 -7.516948 59.121300
0.800000 7.200000 4.960000 1.781047 5.699361 35.654846
0.800000 7.200000 5.000000 -10.683244 11.880392 255.275421
0.800000 7.200000 5.040000 -23.423481 2.418804 554.510071
0.800000 7.200000 5.080000 -21.732916 -15.912414 725.524536
0.800000 7.200000 5.120000 -3.793125 -25.959702 688.293945
0.800000 7.200000 5.160000 15.939532 -16.715715 533.483826
0.800000 7.200000 5.200000 19.811089 5.067989 418.163727
0.840000 6.800000 4.800000 12.165753 -2.218815 152.928696
0.840000 6.800000 4.840000 3.647429 3.018354 22.414202
0.840000 6.800000 4.880000 -4.885294 -1.831289 27.219717
0.840000 6.800000 4.920000 -4.785748 -12.657635 183.119095
0.840000 6.800000 4.960000 5.770760 -19.814373 425.911041
0.840000 6.800000 5.000000 20.036581 -15.924795 655.063660
0.840000 6.800000 5.040000 28.050999 -1.839706 790.243042
0.840000 6.800000 5.080000 24.429905 14.346049 802.629395
0.840000 6.800000 5.120000 11.859572 23.930218 713.304810
0.840000 6.800000 5.160000 -2.198220 23.772070 569.943481
0.840000 6.800000 5.200000 -11.737680 16.852867 421.792297
0.840000 6.840000 4.800000 8.267488 0.272266 68.425491
0.840000 6.840000 4.840000 2.697282 1.050729 8.379361
0.840000 6.840000 4.880000 0.203125 -3.354461 11.293667
0.840000 6.840000 4.920000 3.932508 -7.831697 76.800102
0.840000 6.840000 4.960000 11.352791 -6.701089 173.790466
0.840000 6.840000 5.000000 16.092030 1.218672 260.438599
0.840000 6.840000 5.040000 13.389529 11.273290 306.366547
0.840000 6.840000 5.080000 4.221186 16.856455 301.958496
0.840000 6.840000 5.120000 -5.696680 14.964236 256.380524
0.840000 6.840000 5.160000 -11.060852 8.230388 190.081726
0.840000 6.840000 5.200000 -11.142140 1.663986 126.916138
0.840000 6.880000 4.800000 8.657015 -2.231134 79.921867
0.840000 6.880000 4.840000 8.397337 -0.017494 70.515572
0.840000 6.880000 4.880000 7.985103 2.173792 68.487244
0.840000 6.880000 4.920000 6.827038 4.658133 68.306641
0.840000 6.880000 4.960000 4.259932 6.767315 63.943565
0.840000 6.880000 5.000000 0.558448 7.212944 52.338425
0.840000 6.880000 5.040000 -2.742945 5.264519 35.238903
0.840000 6.880000 5.080000 -3.825274 1.823468 17.957752
0.840000 6.880000 5.120000 -2.256753 -0.850555 5.816379
0.840000 6.880000 5.160000 0.191988 -0.962690 0.963632
0.840000 6.880000 5.200000 0.872472 0.878203 1.532447
0.840000 6.920000 4.800000 15.200113 -0.720653 231.562775
0.840000 6.920000 4.840000 15.366106 7.917532 298.804535
0.840000 6.920000 4.880000 8.746176 15.733644 324.043152
0.840000 6.920000 4.920000 -2.497078 16.887278 291.415558
0.840000 6.920000 4.960000 -11.563305 9.252000 219.309525
0.840000 6.920000 5.000000 -12.031211 -2.785322 152.508057
0.840000 6.920000 5.040000 -3.276449 -11.054982 132.947754
0.840000 6.920000 5.080000 8.586943 -9.815718 170.083893
0.840000 6.920000 5.120000 15.251583 -0.214025 232.656601
0.840000 6.920000 5.160000 12.456302 10.676651 269.150330
0.840000 6.920000 5.200000 2.969575 15.321821 243.576584
0.840000 6.960000 4.800000 19.495274 10.046129 480.990417
0.840000 6.960000 4.840000 12.629412 22.776428 678.267700
0.840000 6.960000 4.880000 -3.854998 27.477695 769.884766
0.840000 6.960000 4.920000 -20.142944 17.455359 710.427734
0.840000 6.960000 4.960000 -23.469387 -2.793477 558.615662
0.840000 6.960000 5.000000 -9.404533 -19.093132 452.992950
0.840000 6.960000 5.040000 12.849102 -18.628036 512.103149
0.840000 6.960000 5.080000 27.014935 -0.979015 730.765198
0.840000 6.960000 5.120000 22.868542 21.065521 966.726440
0.840000 6.960000 5.160000 4.344317 31.929550 1038.369263
0.840000 6.960000 5.200000 -14.353460 25.597971 861.277954
0.840000 7.000000 4.800000 12.384831 24.003199 729.537598
0.840000 7.000000 4.840000 -3.448821 32.431770 1063.714111
0.840000 7.000000 4.880000 -23.797344 25.454746 1214.257690
0.840000 7.000000 4.920000 -33.068420 2.971340 1102.349243
0.840000 7.000000 4.960000 -20.724689 -20.477566 848.843445
0.840000 7.000000 5.000000 7.022481 -25.933813 721.877930
0.840000 7.000000 5.040000 29.757023 -6.772112 931.341919
0.840000 7.000000 5.080000 29.287102 23.891109 1428.519409
0.840000 7.000000 5.120000 5.435197 43.244164 1899.598999
0.840000 7.000000 5.160000 -23.640671 37.806683 1988.226562
0.840000 7.000000 5.200000 -37.062584 14.113561 1572.827759
0.840000 7.040000 4.800000 -5.024940 29.252731 880.972290
0.840000 7.040000 4.840000 -23.493824 26.805422 1270.490479
0.840000 7.040000 4.880000 -36.655071 8.271661 1412.014648
0.840000 7.040000 4.920000 -30.517799 -17.035254 1221.535889
0.840000 7.040000 4.960000 -4.639236 -29.460560 889.447083
0.840000 7.040000 5.000000 23.182236 -15.799798 787.049683
0.840000 7.040000 5.040000 29.957893 16.494759 1169.552490
0.840000 7.040000 5.080000 7.968078 43.035934 1915.581909
0.840000 7.040000 5.120000 -26.963575 42.748840 2554.497803
0.840000 7.040000 5.160000 -48.386848 16.347084 2608.514160
0.840000 7.040000 5.200000 -41.957825 -14.593840 1973.439209
0.840000 7.080000 4.800000 -21.465210 20.515486 881.640381
0.840000 7.080000 4.840000 -33.554115 8.653772 1200.766479
0.840000 7.080000 4.880000 -33.182907 -12.384814 1254.489014
0.840000 7.080000 4.920000 -14.503006 -28.029692 996.000854
0.840000 7.080000 4.960000 12.053152 -22.764114 663.483398
0.840000 7.080000 5.000000 25.089050 3.692099 643.092041
0.840000 7.080000 5.040000 10.843735 32.088486 1147.257446
0.840000 7.080000 5.080000 -22.184862 38.511841 1975.329956
0.840000 7.080000 5.120000 -48.438557 15.982731 2601.741455
0.840000 7.080000 5.160000 -47.281040 -18.155821 2565.130615
0.840000 7.080000 5.200000 -21.315891 -37.237160 1840.973267
0.840000 7.120000 4.800000 -26.721569 4.663552 735.790955
0.840000 7.120000 4.840000 -28.713524 -8.990872 905.302246
0.840000 7.120000 4.880000 -18.169291 -22.743301 847.380859
0.840000 7.120000 4.920000 1.913578 -23.923534 575.997314
0.840000 7.120000 4.960000 16.701366 -7.125205 329.704193
0.840000 7.120000 5.000000 11.400605 16.840076 413.561951
0.840000 7.120000 5.040000 -13.228125 27.456150 928.823425
0.840000 7.120000 5.080000 -38.258614 12.914631 1630.509277
0.840000 7.120000 5.120000 -42.115623 -17.199402 2069.545166
0.840000 7.120000 5.160000 -20.564350 -38.859287 1932.936646
0.840000 7.120000 5.200000 8.586767 -35.006088 1299.158813
0.840000 7.160000 4.800000 -21.586159 -6.793722 512.116882
0.840000 7.160000 4.840000 -17.083265 -16.013767 548.278687
0.840000 7.160000 4.880000 -4.983377 -20.007694 425.141876
0.840000 7.160000 4.920000 7.301582 -12.301079 204.629639
0.840000 7.160000 4.960000 8.270445 3.581878 81.230110
0.840000 7.160000 5.000000 -5.809554 14.067246 231.638336
0.840000 7.160000 5.040000 -24.310024 7.303224 644.314392
0.840000 7.160000 5.080000 -29.937113 -13.970459 1091.404419
0.840000 7.160000 5.120000 -15.038571 -32.570652 1287.006104
0.840000 7.160000 5.160000 9.614793 -31.883713 1109.015381
0.840000 7.160000 5.200000 23.600948 -11.871481 697.936829
0.840000 7.200000 4.800000 -15.632614 -9.724220 338.939087
0.840000 7.200000 4.840000 -10.083571 -14.622620 315.499420
0.840000 7.200000 4.880000 -1.638057 -13.641406 188.771179
0.840000 7.200000 4.920000 2.594212 -5.930662 41.902683
0.840000 7.200000 4.960000 -2.359282 1.596458 8.114889
0.840000 7.200000 5.000000 -12.371455 -0.009525 153.052994
0.840000 7.200000 5.040000 -16.342319 -11.763368 405.448242
0.840000 7.200000 5.080000 -7.004799 -23.584995 605.319214
0.840000 7.200000 5.120000 10.286083 -22.938780 631.991150
0.840000 7.200000 5.160000 20.968220 -7.604609 497.496307
0.840000 7.200000 5.200000 14.783975 10.607338 331.081512
0.880000 6.800000 4.800000 3.681786 9.419048 102.274010
0.880000 6.800000 4.840000 -1.819627 5.241859 30.788132
0.880000 6.800000 4.880000 -2.203362 -1.004389 5.863603
0.880000 6.800000 4.920000 1.923676 -5.441770 33.313385
0.880000 6.800000 4.960000 8.258972 -6.180510 106.409325
0.880000 6.800000 5.000000 14.652325 -2.793093 222.491974
0.880000 6.800000 5.040000 18.991316 4.710743 382.861176
0.880000 6.800000 5.080000 18.488815 15.228870 573.754761
0.880000 6.800000 5.120000 10.879175 25.104328 748.583740
0.880000 6.800000 5.160000 -2.692080 28.794312 836.359680
0.880000 6.800000 5.200000 -16.386948 22.623062 780.334961
0.880000 6.840000 4.800000 -0.531610 5.617888 31.843281
0.880000 6.840000 4.840000 3.654321 4.908998 37.452316
0.880000 6.840000 4.880000 5.840509 10.608318 146.647964
0.880000 6.840000 4.920000 0.693111 16.984768 288.962738
0.880000 6.840000 4.960000 -8.701176 16.497602 347.881348
0.880000 6.840000 5.000000 -13.869988 8.567127 265.772247
0.880000 6.840000 5.040000 -10.282749 0.720989 106.254761
0.880000 6.840000 5.080000 -2.634268 0.648726 7.360213
0.880000 6.840000 5.120000 -0.093330 7.764813 60.301037
0.880000 6.840000 5.160000 -6.525157 13.507200 225.022125
0.880000 6.840000 5.200000 -16.105011 10.205015 363.513702
0.880000 6.880000 4.800000 3.152528 1.968136 13.811991
0.880000 6.880000 4.840000 9.509652 14.146353 290.552795
0.880000 6.880000 4.880000 -0.170135 30.769766 946.807434
0.880000 6.880000 4.920000 -24.129503 33.938652 1734.065063
0.880000 6.880000 4.960000 -44.502502 15.288731 2214.218018
0.880000 6.880000 5.000000 -43.577503 -13.809111 2089.690430
0.880000 6.880000 5.040000 -21.232679 -31.579529 1448.093262
0.880000 6.880000 5.080000 4.385586 -25.944622 692.356750
0.880000 6.880000 5.120000 13.797813 -5.238609 217.822678
0.880000 6.880000 5.160000 3.740603 10.750908 129.574142
0.880000 6.880000 5.200000 -11.758715 9.820313 234.705917
0.880000 6.920000 4.800000 8.840382 6.899647 125.757469
0.880000 6.920000 4.840000 3.548437 29.886086 905.769531
0.880000 6.920000 4.880000 -25.754902 42.182976 2442.718262
0.880000 6.920000 4.920000 -60.278904 23.785187 4199.281250
0.880000 6.920000 4.960000 -70.094498 -19.647589 5299.266602
0.880000 6.920000 5.000000 -42.396202 -57.996895 5161.078125
0.880000 6.920000 5.040000 4.548065 -62.574169 3936.211426
0.880000 6.920000 5.080000 36.592754 -32.039375 2365.551270
0.880000 6.920000 5.120000 33.821236 7.036860 1193.393311
0.880000 6.920000 5.160000 6.436465 25.061666 669.515198
0.880000 6.920000 5.200000 -17.741905 14.974730 539.017700
0.880000 6.960000 4.800000 5.691047 17.775429 348.353882
0.880000 6.960000 4.840000 -17.569735 37.279671 1698.469360
0.880000 6.960000 4.880000 -56.957478 28.405056 4051.001465
0.880000 6.960000 4.920000 -79.530380 -15.500380 6565.343262
0.880000 6.960000 4.960000 -58.810295 -67.710098 8043.308105
0.880000 6.960000 5.000000 -2.481688 -88.205872 7786.434570
0.880000 6.960000 5.040000 50.557541 -59.552036 6102.509766
0.880000 6.960000 5.080000 63.200577 -3.682509 4007.873779
0.880000 6.960000 5.120000 32.105919 37.353127 2426.046143
0.880000 6.960000 5.160000 -11.725994 38.252586 1600.759277
0.880000 6.960000 5.200000 -33.009861 9.719291 1184.115479
0.880000 7.000000 4.800000 -8.574121 22.486826 579.172913
0.880000 7.000000 4.840000 -40.904411 24.370115 2267.073486
0.880000 7.000000 4.880000 -69.605019 -7.688382 4903.969727
0.880000 7.000000 4.920000 -62.577400 -59.829895 7495.547363
0.880000 7.000000 4.960000 -12.686210 -93.133530 8834.793945
0.880000 7.000000 5.000000 49.551224 -76.950027 8376.630859
0.880000 7.000000 5.040000 79.121826 -18.890972 6617.131836
0.880000 7.000000 5.080000 55.705624 39.119831 4633.477539
0.880000 7.000000 5.120000 1.490281 56.765450 3224.537109
0.880000 7.000000 5.160000 -39.680000 29.399757 2438.848145
0.880000 7.000000 5.200000 -41.297935 -11.600095 1840.081787
0.880000 7.040000 4.800000 -23.315041 12.850695 708.731445
0.880000 7.040000 4.840000 -47.715141 -3.650372 2290.059814
0.880000 7.040000 4.880000 -51.609573 -42.864815 4500.940430
0.880000 7.040000 4.920000 -18.473000 -78.154854 6449.432617
0.880000 7.040000 4.960000 36.946819 -76.664200 7242.466797
0.880000 7.040000 5.000000 75.496460 -30.958227 6658.126953
0.880000 7.040000 5.040000 66.481750 29.455067 5287.424316
0.880000 7.040000 5.080000 16.300835 61.086079 3997.226318
0.880000 7.040000 5.120000 -35.872925 44.005466 3223.347656
0.880000 7.040000 5.160000 -52.417862 -1.653240 2750.365479
0.880000 7.040000 5.200000 -29.098701 -35.803261 2128.607910
0.880000 7.080000 4.800000 -25.566893 -5.368708 682.489014
0.880000 7.080000 4.840000 -32.039688 -27.186367 1765.640137
0.880000 7.080000 4.880000 -15.693081 -53.356361 3093.174072
0.880000 7.080000 4.920000 21.933098 -60.012497 4082.560547
0.880000 7.080000 4.960000 56.668381 -32.872925 4291.934570
0.880000 7.080000 5.000000 59.684799 14.974201 3786.501953
0.880000 7.080000 5.040000 24.435032 49.773895 3074.511475
0.880000 7.080000 5.080000 -24.211857 45.389614 2646.431152
0.880000 7.080000 5.120000 -49.970421 7.141844 2548.048828
0.880000 7.080000 5.160000 -36.723587 -32.536095 2407.219238
0.880000 7.080000 5.200000 -1.613162 -43.297043 1877.236206
0.880000 7.120000 4.800000 -14.091372 -17.732182 512.997070
0.880000 7.120000 4.840000 -7.425402 -30.613865 992.345337
0.880000 7.120000 4.880000 11.596711 -36.533607 1469.188232
0.880000 7.120000 4.920000 33.318172 -24.355436 1703.287842
0.880000 7.120000 4.960000 39.885422 3.906609 1606.108521
0.880000 7.120000 5.000000 21.269306 29.927914 1348.063354
0.880000 7.120000 5.040000 -12.304333 32.763264 1224.828003
0.880000 7.120000 5.080000 -36.110302 8.382038 1374.212402
0.880000 7.120000 5.120000 -31.932838 -24.536152 1621.729004
0.880000 7.120000 5.160000 -4.892750 -40.085770 1630.807861
0.880000 7.120000 5.200000 20.961100 -28.168972 1232.858643
0.880000 7.160000 4.800000 -0.933912 -16.382980 269.274231
0.880000 7.160000 4.840000 6.251509 -17.377880 341.072083
0.880000 7.160000 4.880000 14.447141 -12.403633 362.570007
0.880000 7.160000 4.920000 17.445900 -0.874954 305.124969
0.880000 7.160000 4.960000 9.784033 10.932915 215.255920
0.880000 7.160000 5.000000 -6.113853 12.979694 205.851685
0.880000 7.160000 5.040000 -18.973305 0.785540 360.603363
0.880000 7.160000 5.080000 -17.372156 -18.147453 631.121826
0.880000 7.160000 5.120000 -0.948963 -28.961758 839.683899
0.880000 7.160000 5.160000 17.547920 -22.501091 814.228638
0.880000 7.160000 5.200000 22.952209 -4.432346 546.449585
0.880000 7.200000 4.800000 1.746359 -8.421312 73.968269
0.880000 7.200000 4.840000 2.546913 -5.644081 38.342419
0.880000 7.200000 4.880000 1.277165 -3.255440 12.229039
0.880000 7.200000 4.920000 -1.715675 -2.576155 9.580115
0.880000 7.200000 4.960000 -4.995821 -5.042500 50.385033
0.880000 7.200000 5.000000 -5.575308 -10.697831 145.527649
0.880000 7.200000 5.040000 -0.788315 -16.480652 272.233307
0.880000 7.200000 5.080000 8.378511 -17.303396 369.606995
0.880000 7.200000 5.120000 16.269808 -10.434974 373.595306
0.880000 7.200000 5.160000 16.453712 0.691721 271.203125
0.880000 7.200000 5.200000 7.844118 7.988712 125.349701
0.920000 6.800000 4.800000 -10.046787 10.393297 208.958557
0.920000 6.800000 4.840000 -6.157974 3.146832 47.823196
0.920000 6.800000 4.880000 -0.735474 2.665854 7.647696
0.920000 6.800000 4.920000 0.512535 5.020580 25.468918
0.920000 6.800000 4.960000 -0.558495 4.282780 18.654118
0.920000 6.800000 5.000000 2.348804 0.957699 6.434065
0.920000 6.800000 5.040000 10.679184 2.304581 119.356064
0.920000 6.800000 5.080000 16.823736 13.395739 462.483887
0.920000 6.800000 5.120000 11.068872 28.904835 958.009460
0.920000 6.800000 5.160000 -7.026781 35.925858 1340.042847
0.920000 6.800000 5.200000 -25.550629 26.300722 1344.562500
0.920000 6.840000 4.800000 -9.296004 2.683056 93.614487
0.920000 6.840000 4.840000 1.182766 11.343519 130.074371
0.920000 6.840000 4.880000 -5.132683 27.675364 792.270142
0.920000 6.840000 4.920000 -27.406178 30.901779 1706.018555
0.920000 6.840000 4.960000 -45.527828 11.453876 2203.974609
0.920000 6.840000 5.000000 -40.221619 -16.907051 1903.626953
0.920000 6.840000 5.040000 -13.843952 -29.491264 1061.389648
0.920000 6.840000 5.080000 10.547295 -15.455929 350.131165
0.920000 6.840000 5.120000 11.717422 10.859791 255.233047
0.920000 6.840000 5.160000 -8.826580 24.192167 663.169495
0.920000 6.840000 5.200000 -29.099661 13.454008 1027.800659
0.920000 6.880000 4.800000 -2.713899 1.589239 9.890926
0.920000 6.880000 4.840000 -4.199015 28.318451 819.566406
0.920000 6.880000 4.880000 -37.271416 44.242439 3346.551758
0.920000 6.880000 4.920000 -78.243454 22.088303 6609.931152
0.920000 6.880000 4.960000 -88.262589 -31.104218 8757.756836
0.920000 6.880000 5.000000 -51.696304 -76.181252 8476.090820
0.920000 6.880000 5.040000 6.147507 -77.464111 6038.480469
0.920000 6.880000 5.080000 41.282043 -36.594101 3043.335449
0.920000 6.880000 5.120000 31.642769 9.588711 1093.208252
0.920000 6.880000 5.160000 -4.528332 24.661465 628.693665
0.920000 6.880000 5.200000 -29.621813 5.433392 906.973511
0.920000 6.920000 4.800000 -1.069225 8.598734 75.081467
0.920000 6.920000 4.840000 -28.118393 36.701649 2137.655029
0.920000 6.920000 4.880000 -80.565193 26.495972 7192.787109
0.920000 6.920000 4.920000 -111.145630 -33.256462 13459.342773
0.920000 6.920000 4.960000 -81.698204 -104.955345 17690.220703
0.920000 6.920000 5.000000 -3.448277 -132.319641 17520.378906
0.920000 6.920000 5.040000 68.756218 -92.290276 13244.912109
0.920000 6.920000 5.080000 84.820885 -17.229849 7491.450195
0.920000 6.920000 5.120000 43.437271 35.087528 3117.931152
0.920000 6.920000 5.160000 -10.858676 33.686832 1252.713623
0.920000 6.920000 5.200000 -32.409950 -2.292100 1055.658569
0.920000 6.960000 4.800000 -10.242917 13.351422 283.177826
0.920000 6.960000 4.840000 -56.002735 20.115568 3540.942383
0.920000 6.960000 4.880000 -99.500565 -25.802092 10566.110352
0.920000 6.960000 4.920000 -89.581581 -104.317543 18907.009766
0.920000 6.960000 4.960000 -14.161120 -155.613983 24416.248047
0.920000 6.960000 5.000000 80.729034 -132.876923 24173.453125
0.920000 6.960000 5.040000 127.828369 -47.685154 18613.964844
0.920000 6.960000 5.080000 97.959549 37.994682 11039.668945
0.920000 6.960000 5.120000 24.304983 66.666473 5035.150391
0.920000 6.960000 5.160000 -31.039915 33.799992 2105.915771
0.920000 6.960000 5.200000 -33.775414 -15.534416 1382.096680
0.920000 7.000000 4.800000 -22.307022 5.196169 524.603394
0.920000 7.000000 4.840000 -63.032715 -17.136955 4266.798340
0.920000 7.000000 4.880000 -71.715958 -80.245445 11582.509766
0.920000 7.000000 4.920000 -18.477091 -139.665756 19847.925781
0.920000 7.000000 4.960000 73.610046 -140.030334 25026.933594
0.920000 7.000000 5.000000 141.029419 -67.860916 24494.400391
0.920000 7.000000 5.040000 133.979965 30.767473 18897.267578
0.920000 7.000000 5.080000 61.196377 88.018997 11492.339844
0.920000 7.000000 5.120000 -18.490883 72.743408 5633.516113
0.920000 7.000000 5.160000 -49.484608 13.840963 2640.298584
0.920000 7.000000 5.200000 -25.670418 -31.815165 1671.175049
0.920000 7.040000 4.800000 -22.734035 -13.134949 689.363220
0.920000 7.040000 4.840000 -38.314594 -49.507835 3919.034180
0.920000 7.040000 4.880000 -11.954250 -97.601517 9668.959961
0.920000 7.040000 4.920000 55.498459 -112.675446 15775.834961
0.920000 7.040000 4.960000 121.519119 -67.134583 19273.949219
0.920000 7.040000 5.000000 134.688202 18.337040 18477.158203
0.920000 7.040000 5.040000 81.089485 87.017487 14147.546875
0.920000 7.040000 5.080000 -0.833965 93.669144 8774.603516
0.920000 7.040000 5.120000 -53.036972 43.086071 4669.330078
0.920000 7.040000 5.160000 -47.624409 -17.020485 2557.781250
0.920000 7.040000 5.200000 -6.592298 -40.796074 1707.778076
0.920000 7.080000 4.800000 -6.781925 -26.176165 731.186096
0.920000 7.080000 4.840000 1.876959 -52.480377 2757.712891
0.920000 7.080000 4.880000 38.198994 -67.280083 5985.772461
0.920000 7.080000 4.920000 83.637955 -46.156475 9125.727539
0.920000 7.080000 4.960000 102.747894 9.428314 10646.023438
0.920000 7.080000 5.000000 73.788803 66.540558 9872.433594
0.920000 7.080000 5.040000 11.407875 85.553574 7449.553711
0.920000 7.080000 5.080000 -42.526787 54.385887 4766.352539
0.920000 7.080000 5.120000 -53.751514 -0.386415 2889.374756
0.920000 7.080000 5.160000 -23.923582 -37.070671 1946.572388
0.920000 7.080000 5.200000 14.015070 -34.864609 1411.963135
0.920000 7.120000 4.800000 13.475302 -21.566879 646.714050
0.920000 7.120000 4.840000 27.466570 -26.276892 1444.887451
0.920000 7.120000 4.880000 46.884098 -17.233521 2495.112793
0.920000 7.120000 4.920000 57.221252 8.686852 3349.733154
0.920000 7.120000 4.960000 44.832520 39.667549 3583.469238
0.920000 7.120000 5.000000 10.981205 54.812359 3124.981689
0.920000 7.120000 5.040000 -25.099691 41.104435 2319.569092
0.920000 7.120000 5.080000 -39.961575 6.379875 1637.630249
0.920000 7.120000 5.120000 -25.549648 -25.332424 1294.516235
0.920000 7.120000 5.160000 3.689686 -33.534386 1138.168823
0.920000 7.120000 5.200000 23.699852 -18.168518 891.778076
0.920000 7.160000 4.800000 20.672544 -4.135723 444.458313
0.920000 7.160000 4.840000 22.661812 3.809931 528.073303
0.920000 7.160000 4.880000 19.515720 12.347145 533.315308
0.920000 7.160000 4.920000 11.422930 18.454382 471.047546
0.920000 7.160000 4.960000 0.045258 19.133778 366.103485
0.920000 7.160000 5.000000 -10.681370 12.291124 265.163391
0.920000 7.160000 5.040000 -15.139040 -0.789749 229.814240
0.920000 7.160000 5.080000 -9.657720 -14.084171 291.635437
0.920000 7.160000 5.120000 3.333128 -19.840559 404.757538
0.920000 7.160000 5.160000 15.579510 -14.767756 460.807739
0.920000 7.160000 5.200000 19.128933 -3.643795 379.193329
0.920000 7.200000 4.800000 10.679547 8.072338 179.215378
0.920000 7.200000 4.840000 0.476712 11.950268 143.036148
0.920000 7.200000 4.880000 -9.457455 5.704172 121.981033
0.920000 7.200000 4.920000 -10.962734 -6.202390 158.651184
0.920000 7.200000 4.960000 -3.315792 -14.867492 232.036789
0.920000 7.200000 5.000000 7.027826 -15.156719 279.116486
0.920000 7.200000 5.040000 13.100358 -9.274313 257.632263
0.920000 7.200000 5.080000 13.221331 -3.157927 184.776093
0.920000 7.200000 5.120000 10.678467 -0.476425 114.256638
0.920000 7.200000 5.160000 9.108840 -0.483673 83.204903
0.920000 7.200000 5.200000 9.192376 -0.671926 84.951263
0.960000 6.800000 4.800000 -19.633711 2.005990 389.506592
0.960000 6.800000 4.840000 -8.208975 -0.011755 67.387405
0.960000 6.800000 4.880000 -4.070847 6.809340 62.938896
0.960000 6.800000 4.920000 -9.477970 10.140228 192.656143
0.960000 6.800000 4.960000 -13.914045 3.252800 204.181366
0.960000 6.800000 5.000000 -6.636810 -6.186790 82.323624
0.960000 6.800000 5.040000 9.385151 -3.877140 103.113266
0.960000 6.800000 5.080000 18.301979 14.401077 542.353455
0.960000 6.800000 5.120000 7.495386 35.534908 1318.910522
0.960000 6.800000 5.160000 -17.799738 40.518303 1958.563599
0.960000 6.800000 5.200000 -37.620323 23.565964 1970.643311
0.960000 6.840000 4.800000 -13.662597 -4.286638 205.041809
0.960000 6.840000 4.840000 -8.797203 15.522516 318.339294
0.960000 6.840000 4.880000 -30.990036 29.705442 1842.795654
0.960000 6.840000 4.920000 -61.272675 13.760223 3943.684326
0.960000 6.840000 4.960000 -66.637970 -26.992188 5169.197266
0.960000 6.840000 5.000000 -34.389591 -59.107491 4676.339844
0.960000 6.840000 5.040000 12.192192 -53.006660 2958.355713
0.960000 6.840000 5.080000 34.672295 -13.124144 1374.411133
0.960000 6.840000 5.120000 16.497185 25.457024 920.217163
0.960000 6.840000 5.160000 -21.561966 30.923641 1421.189941
0.960000 6.840000 5.200000 -43.083786 4.635373 1877.699341
0.960000 6.880000 4.800000 -7.974552 -2.047062 67.783943
0.960000 6.880000 4.840000 -29.863293 26.756859 1607.745728
0.960000 6.880000 4.880000 -79.272980 18.671986 6632.848145
0.960000 6.880000 4.920000 -107.871643 -38.919472 13151.016602
0.960000 6.880000 4.960000 -76.724426 -107.658615 17477.015625
0.960000 6.880000 5.000000 1.595184 -130.426117 17013.517578
0.960000 6.880000 5.040000 70.145912 -85.795868 12281.380859
0.960000 6.880000 5.080000 79.285904 -9.805023 6382.393066
0.960000 6.880000 5.120000 31.839125 37.677937 2433.356934
0.960000 6.880000 5.160000 -22.954744 28.231821 1323.956055
0.960000 6.880000 5.200000 -38.819786 -13.163686 1680.258423
0.960000 6.920000 4.800000 -10.803358 2.273215 121.880058
0.960000 6.920000 4.840000 -59.916595 12.760910 3752.839111
0.960000 6.920000 4.880000 -108.450935 -37.480873 13166.420898
0.960000 6.920000 4.920000 -96.159676 -125.457481 24986.263672
0.960000 6.920000 4.960000 -9.412209 -181.507111 33033.421875
0.960000 6.920000 5.000000 97.460686 -152.537659 32766.324219
0.960000 6.920000 5.040000 147.365845 -54.376774 24673.525391
0.960000 6.920000 5.080000 109.857384 40.311882 13693.692383
0.960000 6.920000 5.120000 26.601791 67.716591 5293.191895
0.960000 6.920000 5.160000 -31.064827 27.483768 1720.381104
0.960000 6.920000 5.200000 -28.237595 -25.675686 1456.602539
0.960000 6.960000 4.800000 -18.770216 -2.415525 358.155792
0.960000 6.960000 4.840000 -70.814919 -27.618919 5777.557129
0.960000 6.960000 4.880000 -82.496086 -107.186859 18294.626953
0.960000 6.960000 4.920000 -14.052299 -182.527740 33513.843750
0.960000 6.960000 4.960000 103.847313 -181.621597 43770.671875
0.960000 6.960000 5.000000 188.846893 -88.540031 43502.484375
0.960000 6.960000 5.040000 178.807877 36.074890 33273.652344
0.960000 6.960000 5.080000 87.775940 106.672150 19083.562500
0.960000 6.960000 5.120000 -8.808537 87.405174 7717.254883
0.960000 6.960000 5.160000 -44.030266 17.808655 2255.812500
0.960000 6.960000 5.200000 -15.175006 -32.056335 1257.889404
0.960000 7.000000 4.800000 -18.649944 -17.529346 655.098389
0.960000 7.000000 4.840000 -44.110580 -68.092377 6582.314941
0.960000 7.000000 4.880000 -7.647036 -138.150665 19144.082031
0.960000 7.000000 4.920000 89.791504 -160.592926 33852.601562
0.960000 7.000000 4.960000 185.409912 -95.194458 43438.820312
0.960000 7.000000 5.000000 205.276459 27.119808 42873.910156
0.960000 7.000000 5.040000 131.198181 125.288498 32910.171875
0.960000 7.000000 5.080000 18.496101 137.439590 19231.746094
0.960000 7.000000 5.120000 -53.454117 72.609451 8129.474609
0.960000 7.000000 5.160000 -49.700302 -3.735695 2484.075439
0.960000 7.000000 5.200000 -2.115471 -32.995926 1093.206299
0.960000 7.040000 4.800000 -2.308553 -30.037663 907.590576
0.960000 7.040000 4.840000 7.378937 -75.773262 5796.036133
0.960000 7.040000 4.880000 66.958763 -104.023758 15304.417969
0.960000 7.040000 4.920000 144.290512 -71.265327 25898.500000
0.960000 7.040000 4.960000 178.848663 20.167671 32393.578125
0.960000 7.040000 5.000000 134.808197 115.477112 31508.212891
0.960000 7.040000 5.040000 36.359467 150.915024 24097.355469
0.960000 7.040000 5.080000 -50.610153 108.264938 14282.684570
0.960000 7.040000 5.120000 -74.492188 28.649670 6369.889648
0.960000 7.040000 5.160000 -38.758102 -26.645206 2212.157715
0.960000 7.040000 5.200000 9.244560 -29.304607 944.221924
0.960000 7.080000 4.800000 21.583534 -24.769279 1079.366211
0.960000 7.080000 4.840000 47.178635 -42.380417 4021.923340
0.960000 7.080000 4.880000 90.454193 -30.351761 9103.190430
0.960000 7.080000 4.920000 117.913177 20.766373 14334.759766
0.960000 7.080000 4.960000 98.697304 86.260529 17182.037109
0.960000 7.080000 5.000000 34.370270 122.893585 16284.148438
0.960000 7.080000 5.040000 -37.819756 104.449532 12340.039062
0.960000 7.080000 5.080000 -73.895988 44.770363 7465.002441
0.960000 7.080000 5.120000 -58.739174 -13.890034 3643.223633
0.960000 7.080000 5.160000 -15.724442 -36.597160 1586.610229
0.960000 7.080000 5.200000 17.210327 -22.280443 792.613525
0.960000 7.120000 4.800000 33.711334 -1.706712 1139.366943
0.960000 7.120000 4.840000 47.372482 5.846756 2278.336670
0.960000 7.120000 4.880000 54.901978 27.305807 3759.834229
0.960000 7.120000 4.920000 44.449139 54.913727 4991.243164
0.960000 7.120000 4.960000 13.943352 72.202148 5407.567383
0.960000 7.120000 5.000000 -24.070801 65.256454 4837.808105
0.960000 7.120000 5.040000 -49.250618 34.475857 3614.208008
0.960000 7.120000 5.080000 -48.037605 -3.804260 2322.083984
0.960000 7.120000 5.120000 -24.108517 -28.623259 1400.511475
0.960000 7.120000 5.160000 4.752567 -29.817081 911.645264
0.960000 7.120000 5.200000 20.932539 -14.373086 644.756836
0.960000 7.160000 4.800000 23.542557 21.302357 1008.042358
0.960000 7.160000 4.840000 14.428066 31.394184 1193.763916
0.960000 7.160000 4.880000 0.038509 32.932175 1084.529541
0.960000 7.160000 4.920000 -11.651035 25.660591 794.212585
0.960000 7.160000 4.960000 -16.708942 14.885052 500.753510
0.960000 7.160000 5.000000 -16.717812 5.099495 305.490082
0.960000 7.160000 5.040000 -14.282680 -3.281776 214.764984
0.960000 7.160000 5.080000 -9.153709 -11.192970 209.072983
0.960000 7.160000 5.120000 0.244955 -16.852043 284.051361
0.960000 7.160000 5.160000 12.390410 -16.260778 417.935181
0.960000 7.160000 5.200000 21.673975 -8.038979 534.386353
0.960000 7.200000 4.800000 1.584782 25.314737 643.347473
0.960000 7.200000 4.840000 -17.588287 20.010870 709.782715
0.960000 7.200000 4.880000 -25.863369 -0.616596 669.294067
0.960000 7.200000 4.920000 -14.581486 -20.554068 635.089417
0.960000 7.200000 4.960000 6.925282 -24.030590 625.428772
0.960000 7.200000 5.000000 20.728937 -10.946877 549.522949
0.960000 7.200000 5.040000 18.129427 4.005352 344.718964
0.960000 7.200000 5.080000 7.152554 7.004646 100.224091
0.960000 7.200000 5.120000 2.672510 -1.338418 8.933674
0.960000 7.200000 5.160000 10.447365 -8.303043 178.087952
0.960000 7.200000 5.200000 22.050144 -3.576243 498.998383
1.000000 6.800000 4.800000 -21.425323 -8.918690 538.587524
1.000000 6.800000 4.840000 -9.688437 -3.230186 104.299904
1.000000 6.800000 4.880000 -11.256546 5.857407 161.019043
1.000000 6.800000 4.920000 -20.099352 4.256729 422.103699
1.000000 6.800000 4.960000 -20.544407 -8.298561 490.938782
1.000000 6.800000 5.000000 -5.390884 -16.676117 307.154510
1.000000 6.800000 5.040000 13.999100 -6.413728 237.110687
1.000000 6.800000 5.080000 17.701134 19.144112 679.827148
1.000000 6.800000 5.120000 -2.073439 39.611473 1573.368042
1.000000 6.800000 5.160000 -31.319195 36.782665 2333.856445
1.000000 6.800000 5.200000 -46.655354 12.945768 2344.314941
1.000000 6.840000 4.800000 -14.500900 -11.683876 346.789062
1.000000 6.840000 4.840000 -22.708416 9.084330 598.197205
1.000000 6.840000 4.880000 -52.670029 7.161858 2825.424072
1.000000 6.840000 4.920000 -70.724297 -28.747185 5828.327148
1.000000 6.840000 4.960000 -48.385841 -72.572021 7607.887695
1.000000 6.840000 5.000000 5.691315 -83.592133 7020.035645
1.000000 6.840000 5.040000 50.066799 -47.001320 4715.808594
1.000000 6.840000 5.080000 48.986076 9.303551 2486.191895
1.000000 6.840000 5.120000 6.695677 40.066994 1650.196045
1.000000 6.840000 5.160000 -37.310005 25.161819 2025.153687
1.000000 6.840000 5.200000 -46.983936 -13.498958 2389.712158
1.000000 6.880000 4.800000 -11.822315 -9.831914 236.433670
1.000000 6.880000 4.840000 -49.258011 1.707478 2429.267090
1.000000 6.880000 4.880000 -88.597351 -37.926121 9287.880859
1.000000 6.880000 4.920000 -77.160233 -109.997978 18053.257812
1.000000 6.880000 4.960000 -2.888306 -154.294861 23815.246094
1.000000 6.880000 5.000000 86.512451 -125.275497 23178.355469
1.000000 6.880000 5.040000 124.011795 -38.456776 16857.849609
1.000000 6.880000 5.080000 85.084305 41.122471 8930.396484
1.000000 6.880000 5.120000 9.421137 58.304924 3488.221924
1.000000 6.880000 5.160000 -38.632607 16.147762 1753.228516
1.000000 6.880000 5.200000 -30.069567 -33.458878 2023.675293
1.000000 6.920000 4.800000 -14.206545 -11.743555 339.737000
1.000000 6.920000 4.840000 -63.722385 -33.498085 5182.664062
1.000000 6.920000 4.880000 -74.579315 -109.709808 17598.316406
1.000000 6.920000 4.920000 -6.479420 -181.680511 33049.792969
1.000000 6.920000 4.960000 109.257446 -177.530807 43454.375000
1.000000 6.920000 5.000000 189.904297 -82.943146 42943.207031
1.000000 6.920000 5.040000 175.039795 39.517426 32200.556641
1.000000 6.920000 5.080000 82.049072 104.611465 17675.609375
1.000000 6.920000 5.120000 -11.590954 79.906380 6519.379395
1.000000 6.920000 5.160000 -40.698395 8.998218 1737.327271
1.000000 6.920000 5.200000 -7.180218 -37.060684 1425.049805
1.000000 6.960000 4.800000 -12.791279 -21.439295 623.260193
1.000000 6.960000 4.840000 -42.170586 -76.033165 7559.400391
1.000000 6.960000 4.880000 -1.453876 -153.814957 23661.154297
1.000000 6.960000 4.920000 108.115051 -177.461853 43181.574219
1.000000 6.960000 4.960000 214.122299 -101.964775 56245.175781
1.000000 6.960000 5.000000 233.351654 35.550629 55716.843750
1.000000 6.960000 5.040000 148.185760 142.738449 42333.285156
1.000000 6.960000 5.080000 23.697714 152.508789 23820.513672
1.000000 6.960000 5.120000 -51.767376 79.376251 8980.451172
1.000000 6.960000 5.160000 -43.662273 -1.455420 1908.512451
1.000000 6.960000 5.200000 7.980272 -27.639837 827.645386
1.000000 7.000000 4.800000 1.112499 -30.848370 952.859558
1.000000 7.000000 4.840000 10.902407 -90.403542 8291.663086
1.000000 7.000000 4.880000 87.456055 -128.224396 24090.058594
1.000000 7.000000 4.920000 187.674438 -86.052521 42626.730469
1.000000 7.000000 4.960000 231.678513 31.973293 54697.226562
1.000000 7.000000 5.000000 174.444778 153.265411 53921.265625
1.000000 7.000000 5.040000 49.894543 196.710648 41184.542969
1.000000 7.000000 5.080000 -57.132820 142.719589 23633.039062
1.000000 7.000000 5.120000 -84.581268 46.339127 9301.305664
1.000000 7.000000 5.160000 -41.678703 -16.892082 2022.456665
1.000000 7.000000 5.200000 11.105572 -17.178993 418.451538
1.000000 7.040000 4.800000 23.550293 -26.060051 1233.742554
1.000000 7.040000 4.840000 60.572708 -58.742126 7119.690430
1.000000 7.040000 4.880000 129.534882 -44.792377 18785.642578
1.000000 7.040000 4.920000 175.451416 32.471386 31837.589844
1.000000 7.040000 4.960000 148.720139 133.307922 39888.679688
1.000000 7.040000 5.000000 52.956650 189.911133 38870.644531
1.000000 7.040000 5.040000 -53.480286 163.930664 29733.402344
1.000000 7.040000 5.080000 -105.785080 79.080215 17444.164062
1.000000 7.040000 5.120000 -85.629585 -1.771820 7335.564941
1.000000 7.040000 5.160000 -29.885201 -31.718460 1899.185913
1.000000 7.040000 5.200000 9.309639 -14.350954 292.619263
1.000000 7.080000 4.800000 37.995461 -2.859441 1451.831421
1.000000 7.080000 4.840000 70.250153 -0.634180 4935.486328
1.000000 7.080000 4.880000 97.779297 37.454403 10963.623047
1.000000 7.080000 4.920000 87.701248 97.179565 17135.376953
1.000000 7.080000 4.960000 31.264648 139.769638 20513.029297
1.000000 7.080000 5.000000 -44.206909 132.615005 19540.990234
1.000000 7.080000 5.040000 -94.950043 77.158722 14968.978516
1.000000 7.080000 5.080000 -95.242706 8.142189 9137.467773
1.000000 7.080000 5.120000 -55.797153 -34.961216 4335.608887
1.000000 7.080000 5.160000 -10.779037 -37.952614 1556.588501
1.000000 7.080000 5.200000 12.347170 -17.187996 447.879822
1.000000 7.120000 4.800000 30.518785 25.412893 1577.211426
1.000000 7.120000 4.840000 35.097450 41.781624 2977.535156
1.000000 7.120000 4.880000 24.508577 63.393299 4619.380859
1.000000 7.120000 4.920000 -2.639519 76.280838 5825.733398
1.000000 7.120000 4.960000 -36.262512 69.363823 6126.309570
1.000000 7.120000 5.000000 -60.802612 42.245502 5481.640137
1.000000 7.120000 5.040000 -64.862396 5.754120 4240.240234
1.000000 7.120000 5.080000 -47.782452 -24.725464 2894.511230
1.000000 7.120000 5.120000 -19.172203 -38.127434 1821.274536
1.000000 7.120000 5.160000 7.510282 -33.050690 1148.752441
1.000000 7.120000 5.200000 22.608833 -16.787491 792.979187
1.000000 7.160000 4.800000 5.194214 38.233093 1488.749268
1.000000 7.160000 4.840000 -13.080893 41.068085 1857.697266
1.000000 7.160000 4.880000 -29.487366 28.811077 1699.583008
1.000000 7.160000 4.920000 -32.872185 9.477808 1170.409424
1.000000 7.160000 4.960000 -24.559166 -4.221485 620.973572
1.000000 7.160000 5.000000 -15.021379 -8.110672 291.424835
1.000000 7.160000 5.040000 -11.037521 -9.023376 203.248199
1.000000 7.160000 5.080000 -8.462482 -14.469227 280.972137
1.000000 7.160000 5.120000 1.256285 -22.118807 490.819855
1.000000 7.160000 5.160000 18.788246 -21.653913 821.890137
1.000000 7.160000 5.200000 33.500038 -7.055412 1172.031372
1.000000 7.200000 4.800000 -17.558611 27.719429 1076.671631
1.000000 7.200000 4.840000 -35.329945 8.321568 1317.453491
1.000000 7.200000 4.880000 -29.997438 -21.241505 1351.047852
1.000000 7.200000 4.920000 -2.403908 -35.993530 1301.312988
1.000000 7.200000 4.960000 24.861811 -23.859055 1187.364014
1.000000 7.200000 5.000000 30.095875 1.685188 908.601501
1.000000 7.200000 5.040000 14.365761 15.721113 453.528473
1.000000 7.200000 5.080000 -0.652733 7.747551 60.450607
1.000000 7.200000 5.120000 3.651788 -8.252583 81.440674
1.000000 7.200000 5.160000 23.249563 -9.844680 637.459900
1.000000 7.200000 5.200000 36.459133 9.519985 1419.898560
1.040000 6.800000 4.800000 -18.003304 -17.197220 619.863281
1.040000 6.800000 4.840000 -10.787296 -8.160244 182.955353
1.040000 6.800000 4.880000 -15.763693 -2.339706 253.968246
1.040000 6.800000 4.920000 -21.616970 -8.650806 542.129822
1.040000 6.800000 4.960000 -15.028740 -20.274662 636.924927
1.040000 6.800000 5.000000 3.573845 -21.011005 454.234711
1.040000 6.800000 5.040000 18.147606 -2.916981 337.844391
1.040000 6.800000 5.080000 12.337957 23.146179 687.970825
1.040000 6.800000 5.120000 -13.183695 36.160004 1481.355713
1.040000 6.800000 5.160000 -39.672260 24.919525 2194.870850
1.040000 6.800000 5.200000 -47.419861 -0.880127 2249.417969
1.040000 6.840000 4.800000 -13.187357 -19.610811 558.490295
1.040000 6.840000 4.840000 -28.923786 -9.634258 929.404297
1.040000 6.840000 4.880000 -49.552559 -27.971317 3237.850586
1.040000 6.840000 4.920000 -42.990967 -66.388008 6255.590820
1.040000 6.840000 4.960000 0.053307 -89.614456 8030.753906
1.040000 6.840000 5.000000 51.799446 -69.201881 7472.083008
1.040000 6.840000 5.040000 70.799103 -13.960320 5207.403809
1.040000 6.840000 5.080000 41.228176 35.182304 2937.557129
1.040000 6.840000 5.120000 -11.380358 42.344986 1922.610352
1.040000 6.840000 5.160000 -44.211800 9.204637 2039.408569
1.040000 6.840000 5.200000 -36.850788 -29.232393 2212.513428
1.040000 6.880000 4.800000 -10.292633 -22.012798 590.501587
1.040000 6.880000 4.840000 -42.833576 -34.465214 3022.566162
1.040000 6.880000 4.880000 -49.450672 -86.696060 9961.576172
1.040000 6.880000 4.920000 0.714676 -136.329712 18586.302734
1.040000 6.880000 4.960000 85.062904 -129.949554 24122.583984
1.040000 6.880000 5.000000 141.807693 -56.995090 23357.863281
1.040000 6.880000 5.040000 125.844994 34.786823 17047.085938
1.040000 6.880000 5.080000 51.576004 80.453934 9132.919922
1.040000 6.880000 5.120000 -20.472067 56.109474 3567.378662
1.040000 6.880000 5.160000 -39.826244 -2.898172 1594.529175
1.040000 6.880000 5.200000 -9.146102 -39.974297 1681.595459
1.040000 6.920000 4.800000 -5.435714 -27.403175 780.481018
1.040000 6.920000 4.840000 -28.847145 -71.033279 5877.884277
1.040000 6.920000 4.880000 6.849319 -134.846024 18230.363281
1.040000 6.920000 4.920000 100.822998 -151.907684 33241.222656
1.040000 6.920000 4.960000 189.924194 -83.712547 43078.988281
1.040000 6.920000 5.000000 202.260513 36.100021 42212.527344
1.040000 6.920000 5.040000 124.446045 126.326973 31445.322266
1.040000 6.920000 5.080000 15.569073 129.745636 17076.326172
1.040000 6.920000 5.120000 -46.698448 62.062283 6032.471680
1.040000 6.920000 5.160000 -34.418434 -8.491287 1256.730591
1.040000 6.920000 5.200000 13.878460 -27.681660 958.885925
1.040000 6.960000 4.800000 6.852798 -31.795412 1057.909058
1.040000 6.960000 4.840000 16.484262 -88.615211 8124.386719
1.040000 6.960000 4.880000 92.202789 -124.108818 23904.353516
1.040000 6.960000 4.920000 190.408783 -79.959717 42649.058594
1.040000 6.960000 4.960000 231.062347 38.363029 54861.531250
1.040000 6.960000 5.000000 170.930084 156.988770 53862.570312
1.040000 6.960000 5.040000 46.701649 195.890396 40554.089844
1.040000 6.960000 5.080000 -55.986061 138.997620 22454.777344
1.040000 6.960000 5.120000 -77.893623 44.401009 8038.866211
1.040000 6.960000 5.160000 -32.747345 -13.033293 1242.255249
1.040000 6.960000 5.200000 16.885256 -7.854342 346.802551
1.040000 7.000000 4.800000 24.948248 -25.960545 1296.364990
1.040000 7.000000 4.840000 66.521156 -64.450012 8578.869141
1.040000 7.000000 4.880000 146.392303 -48.813351 23813.449219
1.040000 7.000000 4.920000 199.256805 40.735451 41362.648438
1.040000 7.000000 4.960000 167.333618 156.521179 52499.417969
1.040000 7.000000 5.000000 56.977951 219.316376 51346.160156
1.040000 7.000000 5.040000 -62.294685 187.196899 38923.308594
1.040000 7.000000 5.080000 -117.184349 91.301727 22068.177734
1.040000 7.000000 5.120000 -91.402649 4.846851 8377.936523
1.040000 7.000000 5.160000 -31.072807 -22.411114 1467.777344
1.040000 7.000000 5.200000 5.577450 -0.541636 31.401316
1.040000 7.040000 4.800000 37.533264 -5.413119 1438.047852
1.040000 7.040000 4.840000 84.175476 -8.076144 7150.734863
1.040000 7.040000 4.880000 127.890656 42.732647 18182.097656
1.040000 7.040000 4.920000 118.265770 127.609352 30270.937500
1.040000 7.040000 4.960000 41.534054 189.209595 37525.347656
1.040000 7.040000 5.000000 -61.837959 180.341507 36346.992188
1.040000 7.040000 5.040000 -129.011215 105.370857 27746.912109
1.040000 7.040000 5.080000 -126.724777 15.626081 16303.343750
1.040000 7.040000 5.120000 -74.786652 -35.609001 6861.044434
1.040000 7.040000 5.160000 -21.840532 -34.910358 1695.741943
1.040000 7.040000 5.200000 -0.505596 -9.967267 99.602043
1.040000 7.080000 4.800000 32.413738 21.565430 1515.718140
1.040000 7.080000 4.840000 54.965240 42.869865 4859.002930
1.040000 7.080000 4.880000 52.207375 87.662491 10410.322266
1.040000 7.080000 4.920000 9.543961 125.640045 15876.507812
1.040000 7.080000 4.960000 -56.009712 124.821732 18717.552734
1.040000 7.080000 5.000000 -107.379593 78.848175 17747.412109
1.040000 7.080000 5.040000 -116.500336 12.570023 13730.333984
1.040000 7.080000 5.080000 -84.761574 -38.348141 8655.104492
1.040000 7.080000 5.120000 -37.888817 -54.340046 4388.403320
1.040000 7.080000 5.160000 -2.806126 -41.866463 1760.675049
1.040000 7.080000 5.200000 11.074902 -21.078335 566.949646
1.040000 7.120000 4.800000 9.289754 38.216415 1546.793945
1.040000 7.120000 4.840000 1.507442 54.251057 2945.449707
1.040000 7.120000 4.880000 -21.433891 62.857800 4410.514648
1.040000 7.120000 4.920000 -49.106441 53.631203 5287.748535
1.040000 7.120000 4.960000 -67.307526 28.036209 5316.332031
1.040000 7.120000 5.000000 -68.294052 -3.377731 4675.486816
1.040000 7.120000 5.040000 -53.647152 -29.530380 3750.060059
1.040000 7.120000 5.080000 -29.871147 -44.363075 2860.367920
1.040000 7.120000 5.120000 -3.566357 -46.313751 2157.682617
1.040000 7.120000 5.160000 19.380135 -35.867157 1662.042603
1.040000 7.120000 5.200000 32.857670 -15.853089 1330.946899
1.040000 7.160000 4.800000 -17.255527 33.863914 1444.517822
1.040000 7.160000 4.840000 -36.000465 25.084444 1925.262939
1.040000 7.160000 4.880000 -43.025814 2.256998 1856.314697
1.040000 7.160000 4.920000 -31.549826 -18.418869 1334.646240
1.040000 7.160000 4.960000 -12.375521 -23.605068 710.352722
1.040000 7.160000 5.000000 -1.321936 -16.693703 280.427246
1.040000 7.160000 5.040000 -1.468513 -12.404190 156.020462
1.040000 7.160000 5.080000 -0.633625 -18.428797 340.022034
1.040000 7.160000 5.120000 12.886094 -25.488138 815.696655
1.040000 7.160000 5.160000 34.383568 -17.673880 1494.595703
1.040000 7.160000 5.200000 45.345200 8.121603 2122.147461
1.040000 7.200000 4.800000 -29.653606 14.695736 1095.301025
1.040000 7.200000 4.840000 -35.393269 -13.362287 1431.234131
1.040000 7.200000 4.880000 -13.307924 -38.295975 1643.682495
1.040000 7.200000 4.920000 21.723293 -36.167023 1779.955078
1.040000 7.200000 4.960000 40.544739 -8.223709 1711.505249
1.040000 7.200000 5.000000 29.834339 19.267441 1261.322021
1.040000 7.200000 5.040000 6.063168 22.277466 533.047485
1.040000 7.200000 5.080000 -2.375658 4.174282 23.068382
1.040000 7.200000 5.120000 14.156710 -8.528251 273.143494
1.040000 7.200000 5.160000 36.213104 4.635136 1332.873413
1.040000 7.200000 5.200000 36.327103 35.531494 2582.145508
1.080000 6.800000 4.800000 -13.090504 -22.417566 673.908569
1.080000 6.800000 4.840000 -8.750612 -15.092758 304.364563
1.080000 6.800000 4.880000 -11.766529 -12.503372 294.785522
1.080000 6.800000 4.920000 -12.258034 -17.824760 467.981445
1.080000 6.800000 4.960000 -2.969116 -22.925682 534.402588
1.080000 6.800000 5.000000 11.427612 -16.636116 407.350647
1.080000 6.800000 5.040000 17.299282 2.448334 305.259491
1.080000 6.800000 5.080000 5.385523 22.166180 520.343384
1.080000 6.800000 5.120000 -18.834984 26.910269 1078.919189
1.080000 6.800000 5.160000 -38.709717 12.223969 1647.867554
1.080000 6.800000 5.200000 -41.097095 -10.725537 1804.008423
1.080000 6.840000 4.800000 -8.005324 -28.488970 875.706604
1.080000 6.840000 4.840000 -18.161718 -30.107723 1236.322998
1.080000 6.840000 4.880000 -19.989571 -50.128555 2912.455078
1.080000 6.840000 4.920000 3.362167 -70.806351 5024.843262
1.080000 6.840000 4.960000 43.627575 -65.791473 6231.883301
1.080000 6.840000 5.000000 70.970688 -27.607666 5799.021484
1.080000 6.840000 5.040000 60.927132 21.147221 4159.320312
1.080000 6.840000 5.080000 18.642525 46.016315 2465.044922
1.080000 6.840000 5.120000 -24.327700 31.548578 1587.149780
1.080000 6.840000 5.160000 -38.223351 -5.423209 1490.435791
1.080000 6.840000 5.200000 -20.702110 -32.817806 1505.585815
1.080000 6.880000 4.800000 1.037253 -33.586548 1129.132080
1.080000 6.880000 4.840000 -9.290443 -56.057320 3228.735352
1.080000 6.880000 4.880000 14.014019 -90.701111 8423.083984
1.080000 6.880000 4.920000 71.662231 -97.237961 14590.696289
1.080000 6.880000 4.960000 125.333801 -51.526421 18363.533203
1.080000 6.880000 5.000000 130.013412 25.756821 17566.902344
1.080000 6.880000 5.040000 76.937492 83.039322 12814.906250
1.080000 6.880000 5.080000 4.066978 83.039536 6912.104980
1.080000 6.880000 5.120000 -37.405579 35.484097 2658.298340
1.080000 6.880000 5.160000 -27.945196 -14.445972 989.620117
1.080000 6.880000 5.200000 7.502316 -29.273445 913.219299
1.080000 6.920000 4.800000 14.854317 -34.094170 1383.063110
1.080000 6.920000 4.840000 24.497505 -70.931267 5631.372559
1.080000 6.920000 4.880000 80.287590 -91.915871 14894.625000
1.080000 6.920000 4.920000 150.434387 -55.040726 25659.984375
1.080000 6.920000 4.960000 176.452332 34.765694 32344.080078
1.080000 6.920000 5.000000 127.501961 122.189758 31187.085938
1.080000 6.920000 5.040000 32.406776 148.079224 22977.656250
1.080000 6.920000 5.080000 -43.961716 101.900764 12316.398438
1.080000 6.920000 5.120000 -57.640621 28.963406 4161.319824
1.080000 6.920000 5.160000 -20.592186 -13.555147 607.780151
1.080000 6.920000 5.200000 18.260399 -7.117511 384.101135
1.080000 6.960000 4.800000 30.064676 -25.185005 1538.169189
1.080000 6.960000 4.840000 66.047592 -53.915447 7269.160156
1.080000 6.960000 4.880000 132.972153 -36.544067 19017.062500
1.080000 6.960000 4.920000 174.811096 42.824074 32392.820312
1.080000 6.960000 4.960000 143.112427 141.940125 40628.164062
1.080000 6.960000 5.000000 45.675514 192.701080 39219.960938
1.080000 6.960000 5.040000 -55.938526 161.213074 29118.773438
1.080000 6.960000 5.080000 -99.350235 77.347343 15853.080078
1.080000 6.960000 5.120000 -73.679985 5.511435 5459.116211
1.080000 6.960000 5.160000 -21.753590 -13.286678 649.754517
1.080000 6.960000 5.200000 5.970886 8.540422 108.590294
1.080000 7.000000 4.800000 38.613373 -5.905968 1525.873047
1.080000 7.000000 4.840000 85.009521 -7.302300 7279.942383
1.080000 7.000000 4.880000 128.161514 45.183098 18466.884766
1.080000 7.000000 4.920000 116.646545 131.247574 30832.343750
1.080000 7.000000 4.960000 37.672943 191.876038 38235.664062
1.080000 7.000000 5.000000 -65.711746 180.239014 36804.136719
1.080000 7.000000 5.040000 -129.581573 103.789978 27563.744141
1.080000 7.000000 5.080000 -123.270508 16.817022 15478.430664
1.080000 7.000000 5.120000 -71.046844 -28.224861 5844.296875
1.080000 7.000000 5.160000 -23.419643 -22.616062 1059.965942
1.080000 7.000000 5.200000 -9.832458 1.461658 98.813683
1.080000 7.040000 4.800000 32.983540 16.993071 1376.678345
1.080000 7.040000 4.840000 64.044983 40.849773 5770.463867
1.080000 7.040000 4.880000 64.998322 97.334549 13698.796875
1.080000 7.040000 4.920000 14.326078 147.658157 22008.167969
1.080000 7.040000 4.960000 -66.785233 149.069763 26682.062500
1.080000 7.040000 5.000000 -129.584595 93.261879 25489.945312
1.080000 7.040000 5.040000 -138.439285 14.017448 19361.923828
1.080000 7.040000 5.080000 -98.467758 -42.414421 11494.882812
1.080000 7.040000 5.120000 -45.775055 -54.717686 5089.380859
1.080000 7.040000 5.160000 -13.164434 -37.192253 1556.566040
1.080000 7.040000 5.200000 -5.793001 -18.175755 363.916931
1.080000 7.080000 4.800000 13.395205 31.833347 1192.793579
1.080000 7.080000 4.840000 16.008701 58.693920 3701.254883
1.080000 7.080000 4.880000 -10.947464 86.287224 7565.332031
1.080000 7.080000 4.920000 -58.961487 87.473099 11128.000000
1.080000 7.080000 4.960000 -99.963646 52.887985 12789.869141
1.080000 7.080000 5.000000 -109.469055 -0.948265 11984.373047
1.080000 7.080000 5.040000 -85.139496 -46.077080 9371.831055
1.080000 7.080000 5.080000 -44.916599 -64.878143 6226.674316
1.080000 7.080000 5.120000 -9.741485 -59.257950 3606.401123
1.080000 7.080000 5.160000 11.027502 -42.268707 1908.249390
1.080000 7.080000 5.200000 19.768332 -24.385284 985.429016
1.080000 7.120000 4.800000 -10.285418 30.660440 1045.852417
1.080000 7.120000 4.840000 -25.762730 37.806892 2093.079346
1.080000 7.120000 4.880000 -47.140320 29.463171 3090.288086
1.080000 7.120000 4.920000 -59.339760 6.267723 3560.491455
1.080000 7.120000 4.960000 -54.992004 -19.793510 3415.903564
1.080000 7.120000 5.000000 -38.826324 -37.643761 2924.536133
1.080000 7.120000 5.040000 -19.609276 -45.371906 2443.133545
1.080000 7.120000 5.080000 -0.904240 -46.598835 2172.269043
1.080000 7.120000 5.120000 18.427139 -41.895573 2094.798340
1.080000 7.120000 5.160000 36.307930 -27.424541 2070.371094
1.080000 7.120000 5.200000 44.133831 -2.821602 1955.756470
1.080000 7.160000 4.800000 -25.363684 16.270676 908.051392
1.080000 7.160000 4.840000 -35.987667 -0.320930 1295.215210
1.080000 7.160000 4.880000 -29.033276 -22.863155 1365.655029
1.080000 7.160000 4.920000 -7.094750 -32.921848 1134.183594
1.080000 7.160000 4.960000 12.125999 -24.337543 739.355896
1.080000 7.160000 5.000000 15.567787 -9.960541 341.568359
1.080000 7.160000 5.040000 9.414284 -6.402447 129.620056
1.080000 7.160000 5.080000 11.225452 -14.080550 324.272675
1.080000 7.160000 5.120000 28.059727 -16.014040 1043.797729
1.080000 7.160000 5.160000 45.772667 2.280929 2100.339600
1.080000 7.160000 5.200000 42.882271 33.794891 2980.983887
1.080000 7.200000 4.800000 -26.596581 0.237172 707.434387
1.080000 7.200000 4.840000 -17.965837 -24.910240 943.291382
1.080000 7.200000 4.880000 12.112036 -34.201332 1316.432495
1.080000 7.200000 4.920000 39.526978 -14.743023 1779.738647
1.080000 7.200000 4.960000 40.409187 17.804161 1949.890625
1.080000 7.200000 5.000000 17.131176 34.471725 1481.776978
1.080000 7.200000 5.040000 -3.586666 23.789692 578.813660
1.080000 7.200000 5.080000 0.476381 4.300953 18.725134
1.080000 7.200000 5.120000 22.454123 4.223808 522.028198
1.080000 7.200000 5.160000 33.430885 29.965467 2015.553467
1.080000 7.200000 5.200000 13.993025 57.890259 3547.086670
1.120000 6.800000 4.800000 -7.556299 -26.153379 741.096924
1.120000 6.800000 4.840000 -1.623119 -20.428551 419.960205
1.120000 6.800000 4.880000 -1.103764 -16.249836 265.275452
1.120000 6.800000 4.920000 -0.458641 -16.275387 265.098572
1.120000 6.800000 4.960000 4.833839 -16.237114 287.009857
1.120000 6.800000 5.000000 12.182796 -9.606346 240.702423
1.120000 6.800000 5.040000 13.210493 4.313477 193.123199
1.120000 6.800000 5.080000 2.096092 17.428886 308.159698
1.120000 6.800000 5.120000 -17.224909 19.049770 659.591187
1.120000 6.800000 5.160000 -32.771015 5.840045 1108.045532
1.120000 6.800000 5.200000 -34.323997 -14.254496 1381.327515
1.120000 6.840000 4.800000 3.217970 -34.897064 1228.160400
1.120000 6.840000 4.840000 5.564476 -37.059834 1404.394653
1.120000 6.840000 4.880000 15.014923 -43.160118 2088.243652
1.120000 6.840000 4.920000 34.504490 -41.714668 2930.673340
1.120000 6.840000 4.960000 53.397659 -22.978180 3379.306885
1.120000 6.840000 5.000000 55.204002 8.603695 3121.505615
1.120000 6.840000 5.040000 33.316528 34.870583 2325.948730
1.120000 6.840000 5.080000 -0.703373 38.446712 1478.644409
1.120000 6.840000 5.120000 -25.402754 18.115332 973.465210
1.120000 6.840000 5.160000 -27.156643 -9.923429 835.957703
1.120000 6.840000 5.200000 -10.695704 -26.273960 804.719055
1.120000 6.880000 4.800000 20.302429 -35.631016 1681.757935
1.120000 6.880000 4.840000 29.800173 -46.096321 3012.921143
1.120000 6.880000 4.880000 57.002914 -48.723610 5623.322266
1.120000 6.880000 4.920000 88.406372 -25.374039 8459.528320
1.120000 6.880000 4.960000 97.588631 21.738491 9996.102539
1.120000 6.880000 5.000000 69.781693 66.681137 9315.858398
1.120000 6.880000 5.040000 18.307384 80.267059 6777.960938
1.120000 6.880000 5.080000 -24.606522 55.712097 3709.318848
1.120000 6.880000 5.120000 -34.847527 14.581181 1426.960938
1.120000 6.880000 5.160000 -15.671625 -12.849748 410.715851
1.120000 6.880000 5.200000 8.641352 -13.540878 258.028351
1.120000 6.920000 4.800000 36.558395 -24.297733 1926.895996
1.120000 6.920000 4.840000 59.763283 -32.505245 4628.240723
1.120000 6.920000 4.880000 96.411461 -14.376152 9501.843750
1.120000 6.920000 4.920000 115.282181 37.113331 14667.380859
1.120000 6.920000 4.960000 90.272980 96.545868 17470.316406
1.120000 6.920000 5.000000 27.787146 124.651047 16310.009766
1.120000 6.920000 5.040000 -35.075058 102.765678 11791.043945
1.120000 6.920000 5.080000 -61.422585 49.733318 6246.136719
1.120000 6.920000 5.120000 -45.217007 4.613916 2065.865967
1.120000 6.920000 5.160000 -12.621276 -7.647425 217.779709
1.120000 6.920000 5.200000 5.371957 5.635649 60.618454
1.120000 6.960000 4.800000 42.994492 -3.609065 1861.551636
1.120000 6.960000 4.840000 73.633446 3.144928 5431.774902
1.120000 6.960000 4.880000 98.115181 45.104286 11660.985352
1.120000 6.960000 4.920000 82.945572 106.148071 18147.380859
1.120000 6.960000 4.960000 22.395306 145.329498 21622.210938
1.120000 6.960000 5.000000 -51.408569 132.431473 20180.937500
1.120000 6.960000 5.040000 -94.250389 75.779709 14625.700195
1.120000 6.960000 5.080000 -87.251343 14.900591 7834.824707
1.120000 6.960000 5.120000 -50.037262 -14.514446 2714.396729
1.120000 6.960000 5.160000 -18.654545 -8.955011 428.184265
1.120000 6.960000 5.200000 -12.046541 7.101682 195.553040
1.120000 7.000000 4.800000 35.045242 17.284737 1526.931152
1.120000 7.000000 4.840000 57.534851 41.049484 4995.319336
1.120000 7.000000 4.880000 53.432476 89.430344 10852.815430
1.120000 7.000000 4.920000 6.853134 129.399597 16791.220703
1.120000 7.000000 4.960000 -62.159317 126.541885 19876.628906
1.120000 7.000000 5.000000 -112.260345 76.972870 18527.207031
1.120000 7.000000 5.040000 -115.959526 11.569479 13580.463867
1.120000 7.000000 5.080000 -81.343063 -31.341595 7598.989258
1.120000 7.000000 5.120000 -40.671692 -37.482368 3059.114502
1.120000 7.000000 5.160000 -19.560261 -22.776787 901.385864
1.120000 7.000000 5.200000 -17.829309 -11.748833 455.919342
1.120000 7.040000 4.800000 16.469370 28.484009 1082.578857
1.120000 7.040000 4.840000 19.381815 56.854485 3608.087158
1.120000 7.040000 4.880000 -8.650696 86.886673 7624.128418
1.120000 7.040000 4.920000 -59.468994 89.136444 11481.867188
1.120000 7.040000 4.960000 -102.575882 53.133827 13345.015625
1.120000 7.040000 5.000000 -111.329674 -2.391315 12400.014648
1.120000 7.040000 5.040000 -84.805359 -46.172081 9323.809570
1.120000 7.040000 5.080000 -45.168324 -60.471680 5697.001465
1.120000 7.040000 5.120000 -15.720483 -51.513889 2900.814453
1.120000 7.040000 5.160000 -2.866853 -37.156025 1388.789062
1.120000 7.040000 5.200000 2.065408 -27.867998 780.891235
1.120000 7.080000 4.800000 -3.018967 26.240017 697.652649
1.120000 7.080000 4.840000 -16.270630 42.136475 2040.215942
1.120000 7.080000 4.880000 -45.279816 42.757645 3878.478027
1.120000 7.080000 4.920000 -70.973190 19.230997 5407.024902
1.120000 7.080000 4.960000 -75.265396 -17.642754 5976.146484
1.120000 7.080000 5.000000 -56.407837 -47.977222 5483.658203
1.120000 7.080000 5.040000 -27.534695 -59.992249 4357.229492
1.120000 7.080000 5.080000 -2.561163 -56.389942 3186.385254
1.120000 7.080000 5.120000 14.308634 -46.066479 2326.857422
1.120000 7.080000 5.160000 25.858431 -33.295937 1777.277832
1.120000 7.080000 5.200000 32.656551 -16.886869 1351.616699
1.120000 7.120000 4.800000 -14.892839 15.172752 452.009094
1.120000 7.120000 4.840000 -28.691387 11.227353 949.249146
1.120000 7.120000 4.880000 -36.852230 -5.951044 1393.501831
1.120000 7.120000 4.920000 -30.235359 -25.832092 1581.473877
1.120000 7.120000 4.960000 -13.379353 -36.054962 1478.967407
1.120000 7.120000 5.000000 2.252487 -35.023018 1231.685547
1.120000 7.120000 5.040000 11.743881 -30.718090 1081.519775
1.120000 7.120000 5.080000 20.375019 -28.321646 1217.256958
1.120000 7.120000 5.120000 33.438427 -22.731628 1634.855347
1.120000 7.120000 5.160000 45.496296 -5.865384 2104.315674
1.120000 7.120000 5.200000 43.692764 19.813559 2301.634766
1.120000 7.160000 4.800000 -17.716469 3.697624 327.545685
1.120000 7.160000 4.840000 -17.641304 -12.398560 464.939880
1.120000 7.160000 4.880000 -1.870917 -24.583599 607.853638
1.120000 7.160000 4.920000 18.652863 -19.938606 745.477295
1.120000 7.160000 4.960000 26.971636 -2.769844 735.141174
1.120000 7.160000 5.000000 19.659958 9.622665 479.109619
1.120000 7.160000 5.040000 11.134403 7.079625 174.096039
1.120000 7.160000 5.080000 16.592640 -0.758682 275.891296
1.120000 7.160000 5.120000 32.691727 4.940948 1093.161987
1.120000 7.160000 5.160000 38.997185 29.251471 2376.428955
1.120000 7.160000 5.200000 20.341921 54.383018 3371.306396
1.120000 7.200000 4.800000 -16.668549 -3.273652 288.557312
1.120000 7.200000 4.840000 -0.611392 -16.981789 288.754944
1.120000 7.200000 4.880000 23.950289 -10.402800 681.834595
1.120000 7.200000 4.920000 33.966530 15.319185 1388.402588
1.120000 7.200000 4.960000 19.275723 38.091690 1822.530273
1.120000 7.200000 5.000000 -4.792902 38.117260 1475.897461
1.120000 7.200000 5.040000 -13.287659 20.178843 583.747559
1.120000 7.200000 5.080000 0.550776 9.121487 83.504868
1.120000 7.200000 5.120000 16.731697 22.187153 772.219421
1.120000 7.200000 5.160000 10.022638 48.481476 2450.906982
1.120000 7.200000 5.200000 -21.360392 59.158920 3956.044189
1.160000 6.800000 4.800000 -0.573563 -28.164953 793.593567
1.160000 6.800000 4.840000 7.736513 -19.783470 451.239319
1.160000 6.800000 4.880000 7.556540 -10.973522 177.519485
1.160000 6.800000 4.920000 3.712692 -8.032801 78.309967
1.160000 6.800000 4.960000 3.608444 -9.365599 100.735306
1.160000 6.800000 5.000000 8.519579 -7.414579 127.559204
1.160000 6.800000 5.040000 11.245902 2.262882 131.590942
1.160000 6.800000 5.080000 3.515168 14.324998 217.561981
1.160000 6.800000 5.120000 -13.997124 17.324753 496.066528
1.160000 6.800000 5.160000 -29.927681 4.948460 920.153320
1.160000 6.800000 5.200000 -31.595661 -16.422253 1267.976196
1.160000 6.840000 4.800000 17.781250 -33.344658 1428.039062
1.160000 6.840000 4.840000 26.268261 -24.963123 1313.179077
1.160000 6.840000 4.880000 30.429207 -15.720333 1173.065552
1.160000 6.840000 4.920000 32.360577 -6.410011 1088.295166
1.160000 6.840000 4.960000 31.975313 4.550419 1043.126953
1.160000 6.840000 5.000000 26.070316 16.909401 965.589233
1.160000 6.840000 5.040000 12.286665 25.848141 819.088562
1.160000 6.840000 5.080000 -6.057308 24.743685 648.940918
1.160000 6.840000 5.120000 -20.074982 11.621107 538.054993
1.160000 6.840000 5.160000 -21.639141 -7.208995 520.222046
1.160000 6.840000 5.200000 -10.390223 -20.841152 542.310364
1.160000 6.880000 4.800000 37.360027 -23.551651 1950.451904
1.160000 6.880000 4.840000 47.465607 -12.743968 2415.392578
1.160000 6.880000 4.880000 53.710629 3.617840 2897.920410
1.160000 6.880000 4.920000 51.568230 24.131018 3241.588379
1.160000 6.880000 4.960000 37.716583 42.809765 3255.216797
1.160000 6.880000 5.000000 14.480104 51.349968 2846.492432
1.160000 6.880000 5.040000 -9.423466 44.933197 2107.793945
1.160000 6.880000 5.080000 -23.755215 26.701641 1277.287842
1.160000 6.880000 5.120000 -23.715336 6.398902 603.363098
1.160000 6.880000 5.160000 -13.075558 -6.273885 210.331848
1.160000 6.880000 5.200000 -0.702648 -8.045603 65.225441
1.160000 6.920000 4.800000 45.953400 -1.595649 2114.260986
1.160000 6.920000 4.840000 55.028061 14.908069 3250.337891
1.160000 6.920000 4.880000 54.548309 39.894737 4567.108398
1.160000 6.920000 4.920000 37.382561 64.493805 5556.906250
1.160000 6.920000 4.960000 6.368600 75.371040 5721.353027
1.160000 6.920000 5.000000 -25.191389 65.389420 4910.382324
1.160000 6.920000 5.040000 -42.709229 40.214737 3441.303223
1.160000 6.920000 5.080000 -41.191643 14.275977 1900.554932
1.160000 6.920000 5.120000 -27.954304 -0.454439 781.649658
1.160000 6.920000 5.160000 -15.043842 -2.565003 232.896423
1.160000 6.920000 5.200000 -9.080282 0.649548 82.873436
1.160000 6.960000 4.800000 37.627460 20.653687 1842.400635
1.160000 6.960000 4.840000 39.883556 42.085594 3361.895508
1.160000 6.960000 4.880000 25.318699 67.654663 5218.189941
1.160000 6.960000 4.920000 -7.001279 81.253525 6651.153320
1.160000 6.960000 4.960000 -43.198807 71.254417 6943.329102
1.160000 6.960000 5.000000 -64.648689 41.679432 5916.627930
1.160000 6.960000 5.040000 -63.099094 9.484173 4071.445068
1.160000 6.960000 5.080000 -46.334850 -9.605427 2239.182617
1.160000 6.960000 5.120000 -29.470495 -12.917686 1035.376709
1.160000 6.960000 5.160000 -21.221554 -9.557331 541.696899
1.160000 6.960000 5.200000 -18.662434 -8.890913 427.334778
1.160000 7.000000 4.800000 17.955204 31.002930 1283.571045
1.160000 7.000000 4.840000 9.816152 50.930618 2690.284912
1.160000 7.000000 4.880000 -16.212343 64.711990 4450.481445
1.160000 7.000000 4.920000 -50.081791 57.515701 5816.241699
1.160000 7.000000 4.960000 -72.561310 29.052404 6109.185547
1.160000 7.000000 5.000000 -71.936409 -5.142668 5201.294434
1.160000 7.000000 5.040000 -53.498650 -27.346745 3609.949951
1.160000 7.000000 5.080000 -32.817616 -32.230618 2115.808594
1.160000 7.000000 5.120000 -20.687410 -28.158306 1220.859131
1.160000 7.000000 5.160000 -15.443358 -25.592583 893.477600
1.160000 7.000000 5.200000 -9.195449 -26.110737 766.326843
1.160000 7.040000 4.800000 -0.508525 26.514929 703.300049
1.160000 7.040000 4.840000 -15.867576 37.006653 1621.272217
1.160000 7.040000 4.880000 -40.784863 33.073273 2757.246338
1.160000 7.040000 4.920000 -59.212448 10.583609 3618.126709
1.160000 7.040000 4.960000 -58.560814 -18.979439 3789.587891
1.160000 7.040000 5.000000 -41.175911 -39.289696 3239.135742
1.160000 7.040000 5.040000 -20.465462 -43.868557 2343.285400
1.160000 7.040000 5.080000 -6.954501 -39.325882 1594.890137
1.160000 7.040000 5.120000 0.179122 -35.160835 1236.316406
1.160000 7.040000 5.160000 7.855027 -32.829937 1139.506226
1.160000 7.040000 5.200000 17.858688 -26.299858 1010.615295
1.160000 7.080000 4.800000 -8.854824 14.947420 301.833282
1.160000 7.080000 4.840000 -22.699011 13.046500 685.456299
1.160000 7.080000 4.880000 -33.555679 -2.085850 1130.334473
1.160000 7.080000 4.920000 -30.666981 -22.617626 1452.020752
1.160000 7.080000 4.960000 -15.455717 -35.505661 1499.531128
1.160000 7.080000 5.000000 0.958824 -35.867180 1287.373901
1.160000 7.080000 5.040000 10.415325 -30.217463 1021.574036
1.160000 7.080000 5.080000 15.359781 -26.654625 946.391968
1.160000 7.080000 5.120000 22.931469 -24.518753 1127.021484
1.160000 7.080000 5.160000 33.366371 -16.160965 1374.491455
1.160000 7.080000 5.200000 37.507858 1.339023 1408.632446
1.160000 7.120000 4.800000 -8.630318 6.548638 117.367043
1.160000 7.120000 4.840000 -12.922068 -3.097527 176.574493
1.160000 7.120000 4.880000 -6.817084 -15.389363 283.305145
1.160000 7.120000 4.920000 7.302003 -19.290787 425.453705
1.160000 7.120000 4.960000 18.314934 -12.318306 487.177460
1.160000 7.120000 5.000000 19.619432 -3.422256 396.633972
1.160000 7.120000 5.040000 16.983284 -1.656750 291.176758
1.160000 7.120000 5.080000 20.873407 -4.326078 454.414093
1.160000 7.120000 5.120000 31.994776 0.367632 1023.800781
1.160000 7.120000 5.160000 37.881084 18.160591 1764.783691
1.160000 7.120000 5.200000 26.212006 38.797989 2192.353027
1.160000 7.160000 4.800000 -8.320728 4.199883 86.873535
1.160000 7.160000 4.840000 -1.283648 -4.664988 23.409861
1.160000 7.160000 4.880000 13.128132 -3.883090 187.426224
1.160000 7.160000 4.920000 21.847414 9.313841 564.057129
1.160000 7.160000 4.960000 16.318533 23.427153 815.125977
1.160000 7.160000 5.000000 3.742168 25.239998 651.061340
1.160000 7.160000 5.040000 -0.221602 15.997979 255.984436
1.160000 7.160000 5.080000 9.806108 11.409164 226.328781
1.160000 7.160000 5.120000 20.619385 23.687870 986.274170
1.160000 7.160000 5.160000 13.837119 45.411404 2253.661377
1.160000 7.160000 5.200000 -12.514389 54.822628 3162.130371
1.160000 7.200000 4.800000 -13.219311 1.670996 177.542404
1.160000 7.200000 4.840000 0.697567 -0.368671 0.622519
1.160000 7.200000 4.880000 11.663232 12.886419 302.090759
1.160000 7.200000 4.920000 6.147213 31.237961 1013.598389
1.160000 7.200000 4.960000 -12.383929 36.889542 1514.199951
1.160000 7.200000 5.000000 -25.527216 24.880501 1270.677979
1.160000 7.200000 5.040000 -20.317432 10.242961 517.716309
1.160000 7.200000 5.080000 -5.167707 11.946195 169.416763
1.160000 7.200000 5.120000 -2.005098 30.521666 935.592529
1.160000 7.200000 5.160000 -21.640381 45.178688 2509.419922
1.160000 7.200000 5.200000 -49.569302 35.442005 3713.251465
1.200000 6.800000 4.800000 6.889928 -26.699005 760.307983
1.200000 6.800000 4.840000 13.222564 -13.572320 359.044067
1.200000 6.800000 4.880000 7.645032 -3.363286 69.758209
1.200000 6.800000 4.920000 -0.581388 -3.851853 15.174787
1.200000 6.800000 4.960000 -0.501255 -10.303950 106.422653
1.200000 6.800000 5.000000 8.186819 -10.542963 178.178070
1.200000 6.800000 5.040000 13.813401 1.153029 192.139542
1.200000 6.800000 5.080000 5.011338 16.065615 283.217468
1.200000 6.800000 5.120000 -15.797395 18.450237 589.968933
1.200000 6.800000 5.160000 -32.392349 1.719720 1052.221680
1.200000 6.800000 5.200000 -29.450407 -23.217331 1406.370850
1.200000 6.840000 4.800000 27.975990 -22.890911 1306.649902
1.200000 6.840000 4.840000 30.206532 -4.491369 932.606995
1.200000 6.840000 4.880000 20.356508 7.139310 465.357178
1.200000 6.840000 4.920000 9.850075 7.050051 146.727188
1.200000 6.840000 4.960000 7.653218 2.404659 64.354134
1.200000 6.840000 5.000000 11.116335 3.608796 136.596298
1.200000 6.840000 5.040000 9.677689 12.067512 239.282486
1.200000 6.840000 5.080000 -2.349755 17.972281 328.524231
1.200000 6.840000 5.120000 -17.869835 10.940042 439.015533
1.200000 6.840000 5.160000 -22.979317 -7.656476 586.670654
1.200000 6.840000 5.200000 -11.146902 -24.135303 706.766296
1.200000 6.880000 4.800000 41.288651 -3.691114 1718.376953
1.200000 6.880000 4.840000 35.332909 17.298889 1547.666016
1.200000 6.880000 4.880000 18.860516 27.090900 1089.635986
1.200000 6.880000 4.920000 4.511217 23.791929 586.406982
1.200000 6.880000 4.960000 -0.287031 16.150894 260.933777
1.200000 6.880000 5.000000 0.774467 13.530245 183.667313
1.200000 6.880000 5.040000 -1.266602 16.242058 265.408722
1.200000 6.880000 5.080000 -9.693186 16.342798 361.044922
1.200000 6.880000 5.120000 -18.003868 7.575125 381.521759
1.200000 6.880000 5.160000 -16.951605 -6.533482 330.043274
1.200000 6.880000 5.200000 -5.021450 -15.276834 258.596619
1.200000 6.920000 4.800000 37.090202 19.963703 1774.232544
1.200000 6.920000 4.840000 21.411587 37.499996 1864.705811
1.200000 6.920000 4.880000 -0.501524 39.842480 1587.674805
1.200000 6.920000 4.920000 -15.435032 28.829247 1069.365601
1.200000 6.920000 4.960000 -17.747847 15.537925 556.413147
1.200000 6.920000 5.000000 -13.091852 9.565241 262.890442
1.200000 6.920000 5.040000 -11.270479 10.694229 241.390244
1.200000 6.920000 5.080000 -15.864050 10.924383 371.010223
1.200000 6.920000 5.120000 -21.232313 4.143941 467.983368
1.200000 6.920000 5.160000 -19.378181 -6.926567 423.491241
1.200000 6.920000 5.200000 -9.077209 -13.504791 264.775116
1.200000 6.960000 4.800000 18.212494 33.208740 1434.515381
1.200000 6.960000 4.840000 -3.506249 40.897934 1684.934814
1.200000 6.960000 4.880000 -24.569344 32.104919 1634.378418
1.200000 6.960000 4.920000 -32.900917 13.428997 1262.808350
1.200000 6.960000 4.960000 -26.941771 -1.678279 728.675659
1.200000 6.960000 5.000000 -16.509747 -4.923527 296.812836
1.200000 6.960000 5.040000 -12.913289 -0.104431 166.763947
1.200000 6.960000 5.080000 -18.084692 1.874728 330.570709
1.200000 6.960000 5.120000 -23.573189 -5.297711 583.760986
1.200000 6.960000 5.160000 -20.046375 -16.909586 687.791260
1.200000 6.960000 5.200000 -7.334314 -22.313076 551.665527
1.200000 7.000000 4.800000 -1.788936 29.587442 878.617065
1.200000 7.000000 4.840000 -21.693092 25.327274 1112.061035
1.200000 7.000000 4.880000 -33.790173 7.936238 1204.759644
1.200000 7.000000 4.920000 -30.288290 -11.605299 1052.063477
1.200000 7.000000 4.960000 -16.148470 -20.353531 675.039307
1.200000 7.000000 5.000000 -4.845314 -15.569958 265.900635
1.200000 7.000000 5.040000 -5.321788 -7.152406 79.478333
1.200000 7.000000 5.080000 -13.335211 -7.278555 230.805222
1.200000 7.000000 5.120000 -16.338491 -17.748707 581.962891
1.200000 7.000000 5.160000 -6.936476 -28.160435 841.124756
1.200000 7.000000 5.200000 9.081313 -26.823477 801.969116
1.200000 7.040000 4.800000 -10.529014 16.289539 376.209229
1.200000 7.040000 4.840000 -21.442345 4.358267 478.768616
1.200000 7.040000 4.880000 -20.692097 -13.275427 604.399841
1.200000 7.040000 4.920000 -7.546616 -24.367252 650.714417
1.200000 7.040000 4.960000 7.231682 -21.497375 514.434387
1.200000 7.040000 5.000000 11.509600 -10.328920 239.157471
1.200000 7.040000 5.040000 4.330182 -4.254021 36.847168
1.200000 7.040000 5.080000 -2.891294 -10.330317 115.075020
1.200000 7.040000 5.120000 1.430400 -21.468296 462.933777
1.200000 7.040000 5.160000 16.208591 -23.751991 826.875549
1.200000 7.040000 5.200000 28.198219 -11.393440 924.950073
1.200000 7.080000 4.800000 -7.654396 6.573474 101.800339
1.200000 7.080000 4.840000 -7.825204 -5.241962 88.711983
1.200000 7.080000 4.880000 2.119931 -14.551083 216.228119
1.200000 7.080000 4.920000 15.925448 -12.725262 415.552185
1.200000 7.080000 4.960000 21.996212 -1.304289 485.534515
1.200000 7.080000 5.000000 15.956034 8.116255 320.468597
1.200000 7.080000 5.040000 6.405036 5.984147 76.834503
1.200000 7.080000 5.080000 6.158387 -4.152654 55.170265
1.200000 7.080000 5.120000 17.789957 -8.643144 391.186523
1.200000 7.080000 5.160000 29.663763 1.401491 881.903015
1.200000 7.080000 5.200000 27.764740 19.494642 1150.921875
1.200000 7.120000 4.800000 -3.785165 6.423512 55.588978
1.200000 7.120000 4.840000 2.786821 0.481515 7.998230
1.200000 7.120000 4.880000 13.563753 2.259069 189.078796
1.200000 7.120000 4.920000 18.981064 12.965245 528.378357
1.200000 7.120000 4.960000 13.005457 23.477444 720.332275
1.200000 7.120000 5.000000 1.602565 23.397301 550.001892
1.200000 7.120000 5.040000 -2.378623 13.499775 187.901779
1.200000 7.120000 5.080000 6.370710 6.506879 82.925423
1.200000 7.120000 5.120000 18.093346 13.578786 511.752594
1.200000 7.120000 5.160000 17.295132 30.786922 1246.956177
1.200000 7.120000 5.200000 -0.091728 41.478897 1720.507324
1.200000 7.160000 4.800000 -8.268688 8.949379 148.462585
1.200000 7.160000 4.840000 -0.463553 9.435768 89.248604
1.200000 7.160000 4.880000 4.568626 18.258305 354.238037
1.200000 7.160000 4.920000 -0.755499 28.905369 836.091125
1.200000 7.160000 4.960000 -13.424238 30.337347 1100.564819
1.200000 7.160000 5.000000 -20.931850 20.173237 845.101807
1.200000 7.160000 5.040000 -14.895547 9.562081 313.310730
1.200000 7.160000 5.080000 -2.189627 12.067093 150.409195
1.200000 7.160000 5.120000 0.595597 27.607327 762.519226
1.200000 7.160000 5.160000 -14.762823 40.101299 1826.055176
1.200000 7.160000 5.200000 -37.167465 33.498478 2503.568359
1.200000 7.200000 4.800000 -18.295942 2.530612 341.145508
1.200000 7.200000 4.840000 -11.731279 6.660259 181.981964
1.200000 7.200000 4.880000 -13.086157 16.349257 438.545685
1.200000 7.200000 4.920000 -24.117428 20.545151 1003.753540
1.200000 7.200000 4.960000 -34.405388 12.387471 1337.180176
1.200000 7.200000 5.000000 -32.233475 -0.930377 1039.862549
1.200000 7.200000 5.040000 -19.208889 -4.427330 388.582672
1.200000 7.200000 5.080000 -10.838394 7.469446 173.263397
1.200000 7.200000 5.120000 -20.162560 22.315516 904.511047
1.200000 7.200000 5.160000 -41.691971 21.260082 2190.211426
1.200000 7.200000 5.200000 -54.692085 -0.127884 2991.240479
