#kx 	ky 	kz 	real 	imag 	intensity
0.800000 6.800000 4.983333 -98.209007 -131.673996 26983.050781
0.800000 6.800000 4.991667 105.119659 -58.575966 14481.286133
0.800000 6.800000 5.000000 -87.830040 51.190792 10334.613281
0.800000 6.800000 5.008333 -47.581139 -194.610107 40137.058594
0.800000 6.800000 5.016667 144.382507 -50.829777 23429.974609
0.800000 6.900000 4.983333 20.915504 -102.178131 10877.828125
0.800000 6.900000 4.991667 83.188812 30.180668 7831.250977
0.800000 6.900000 5.000000 -47.584446 -61.432583 6038.241699
0.800000 6.900000 5.008333 121.495483 -99.265182 24614.728516
0.800000 6.900000 5.016667 136.814575 23.725832 19281.144531
0.800000 7.000000 4.983333 28.213448 -63.055134 4771.948730
0.800000 7.000000 4.991667 120.528244 11.836849 14667.168945
0.800000 7.000000 5.000000 44.140671 61.700684 5755.373047
0.800000 7.000000 5.008333 98.594917 -3.787094 9735.299805
0.800000 7.000000 5.016667 111.750031 211.747696 57325.156250
0.800000 7.100000 4.983333 22.373123 -32.952217 1586.405273
0.800000 7.100000 4.991667 90.176712 154.173691 31901.367188
0.800000 7.100000 5.000000 -156.721710 60.403687 28210.300781
0.800000 7.100000 5.008333 47.378387 25.441729 2891.993164
0.800000 7.100000 5.016667 -198.648102 91.068695 47754.574219
0.800000 7.200000 4.983333 39.947865 -45.664871 3681.112305
0.800000 7.200000 4.991667 -45.728409 119.918320 16471.490234
0.800000 7.200000 5.000000 -65.170731 -136.515305 22883.652344
0.800000 7.200000 5.008333 56.173126 7.328487 3209.126953
0.800000 7.200000 5.016667 38.246662 -113.284111 14296.097656
0.900000 6.800000 4.983333 7.915172 -50.708462 2633.998047
0.900000 6.800000 4.991667 36.668152 -90.427063 9521.607422
0.900000 6.800000 5.000000 27.614529 10.018593 862.934387
0.900000 6.800000 5.008333 50.206650 -127.102982 18675.875000
0.900000 6.800000 5.016667 169.167664 99.932236 38604.152344
0.900000 6.900000 4.983333 394.607819 -482.625580 388642.781250
0.900000 6.900000 4.991667 -76.320549 444.920471 203779.046875
0.900000 6.900000 5.000000 -384.582886 -302.190399 239223.031250
0.900000 6.900000 5.008333 -94.357735 -293.318420 94939.078125
0.900000 6.900000 5.016667 154.367676 -536.686096 311861.343750
0.900000 7.000000 4.983333 836.084412 407.440369 865044.750000
0.900000 7.000000 4.991667 -617.244019 -59.847416 384571.906250
0.900000 7.000000 5.000000 382.265686 -587.195679 490925.812500
0.900000 7.000000 5.008333 413.764374 -322.010406 274891.656250
0.900000 7.000000 5.016667 1020.591064 169.978897 1070499.000000
0.900000 7.100000 4.983333 -78.207718 549.529297 308098.875000
0.900000 7.100000 4.991667 -31.789181 -269.919525 73867.101562
0.900000 7.100000 5.000000 309.382965 176.506485 126872.359375
0.900000 7.100000 5.008333 239.075287 201.089325 97593.906250
0.900000 7.100000 5.016667 -21.348198 663.640747 440874.781250
0.900000 7.200000 4.983333 52.167221 151.319855 25619.117188
0.900000 7.200000 4.991667 -182.006653 17.199547 33422.246094
0.900000 7.200000 5.000000 -3.647697 -102.909760 10603.724609
0.900000 7.200000 5.008333 -1.895936 -26.160978 687.991333
0.900000 7.200000 5.016667 35.945110 -9.428375 1380.945190
1.000000 6.800000 4.983333 -36.877735 -83.491287 8330.762695
1.000000 6.800000 4.991667 173.047333 -64.763115 34139.640625
1.000000 6.800000 5.000000 -19.237297 72.231033 5587.395996
1.000000 6.800000 5.008333 98.937485 -116.061050 23258.792969
1.000000 6.800000 5.016667 96.949127 160.592010 35188.925781
1.000000 6.900000 4.983333 891.218201 415.187561 966650.562500
1.000000 6.900000 4.991667 -612.702698 -19.434921 375782.312500
1.000000 6.900000 5.000000 370.285461 -689.471924 612482.875000
1.000000 6.900000 5.008333 530.953064 -322.304260 385791.187500
1.000000 6.900000 5.016667 1033.881714 147.899994 1090785.750000
1.000000 7.000000 4.983333 -446.019043 1387.462769 2123985.750000
1.000000 7.000000 4.991667 31.584427 -992.003052 985067.625000
1.000000 7.000000 5.000000 1079.425781 507.014709 1422223.875000
1.000000 7.000000 5.008333 651.471924 562.567810 740898.187500
1.000000 7.000000 5.016667 144.487198 1748.706909 3078852.250000
1.000000 7.100000 4.983333 -888.162170 -77.763275 794879.187500
1.000000 7.100000 4.991667 564.491455 -30.637558 319589.250000
1.000000 7.100000 5.000000 -302.615295 656.810669 522976.250000
1.000000 7.100000 5.008333 -243.488541 400.399139 219606.140625
1.000000 7.100000 5.016667 -1112.173706 250.325394 1299593.125000
1.000000 7.200000 4.983333 -118.728592 35.054798 15325.317383
1.000000 7.200000 4.991667 -44.658981 -94.913368 11002.972656
1.000000 7.200000 5.000000 41.001663 -117.652740 15523.303711
1.000000 7.200000 5.008333 104.035889 -40.036423 12426.380859
1.000000 7.200000 5.016667 80.123413 -27.591869 7181.072266
1.100000 6.800000 4.983333 70.025009 -39.230930 6442.567871
1.100000 6.800000 4.991667 69.384308 55.325806 7875.126953
1.100000 6.800000 5.000000 -22.954723 42.062168 2296.145264
1.100000 6.800000 5.008333 92.092911 -22.468464 8985.936523
1.100000 6.800000 5.016667 16.691669 188.530228 35822.261719
1.100000 6.900000 4.983333 -204.352448 699.605286 531207.500000
1.100000 6.900000 4.991667 -42.367302 -397.428101 159744.078125
1.100000 6.900000 5.000000 463.124512 209.133972 258221.328125
1.100000 6.900000 5.008333 289.587158 319.651459 186037.781250
1.100000 6.900000 5.016667 -48.001183 770.500916 595975.812500
1.100000 7.000000 4.983333 -1010.254150 -205.570160 1062872.500000
1.100000 7.000000 4.991667 645.055054 -102.428833 426587.687500
1.100000 7.000000 5.000000 -238.632416 757.422852 630634.812500
1.100000 7.000000 5.008333 -323.956543 442.940552 301144.187500
1.100000 7.000000 5.016667 -1098.826416 260.748901 1275409.500000
1.100000 7.100000 4.983333 53.079323 -619.118347 386124.937500
1.100000 7.100000 4.991667 100.046638 389.755585 161918.750000
1.100000 7.100000 5.000000 -476.292969 -131.306168 244096.296875
1.100000 7.100000 5.008333 -241.213898 -169.446884 86896.390625
1.100000 7.100000 5.016667 -227.487579 -635.395081 455477.500000
1.100000 7.200000 4.983333 28.014431 31.643143 1786.096802
1.100000 7.200000 4.991667 -12.840549 9.048189 246.749451
1.100000 7.200000 5.000000 74.415688 2.555462 5544.224609
1.100000 7.200000 5.008333 65.932373 74.256218 9861.063477
1.100000 7.200000 5.016667 23.929195 129.223526 17271.324219
1.200000 6.800000 4.983333 -30.407446 35.425457 2179.575684
1.200000 6.800000 4.991667 49.661697 -43.513664 4359.723145
1.200000 6.800000 5.000000 -47.981140 19.658806 2688.658447
1.200000 6.800000 5.008333 103.274887 -44.117546 12612.060547
1.200000 6.800000 5.016667 -67.047058 151.578522 27471.357422
1.200000 6.900000 4.983333 -158.892502 -78.454079 31401.869141
1.200000 6.900000 4.991667 74.628105 -26.333805 6262.823242
1.200000 6.900000 5.000000 -36.060410 0.204824 1300.395142
1.200000 6.900000 5.008333 24.733021 43.259659 2483.120361
1.200000 6.900000 5.016667 -116.820923 -36.915588 15009.888672
1.200000 7.000000 4.983333 95.566231 -160.409805 34864.210938
1.200000 7.000000 4.991667 79.960205 16.890388 6678.919434
1.200000 7.000000 5.000000 3.261017 -15.026390 236.426636
1.200000 7.000000 5.008333 39.603096 -35.626026 2837.619141
1.200000 7.000000 5.016667 64.784096 4.261921 4215.143066
1.200000 7.100000 4.983333 86.111542 118.812531 21531.615234
1.200000 7.100000 4.991667 21.341427 51.799545 3138.649414
1.200000 7.100000 5.000000 0.778149 40.789852 1664.417480
1.200000 7.100000 5.008333 78.922234 36.431149 7555.947266
1.200000 7.100000 5.016667 -37.309280 142.748367 21769.078125
1.200000 7.200000 4.983333 -119.174942 85.267845 21473.273438
1.200000 7.200000 4.991667 -49.940819 -21.336605 2949.336182
1.200000 7.200000 5.000000 -51.896996 -11.605269 2827.980469
1.200000 7.200000 5.008333 12.535404 31.809895 1169.005737
1.200000 7.200000 5.016667 -135.903870 13.111203 18641.765625
