#kx 	ky 	kz 	real 	imag 	intensity
1.800000 -8.200000 1.800000 -60.872906 -5.359805 3734.238281
1.800000 -8.200000 1.840000 -45.619568 -22.300522 2578.458252
1.800000 -8.200000 1.880000 -29.326775 -22.285004 1356.681152
1.800000 -8.200000 1.920000 -25.102552 -14.546252 841.731567
1.800000 -8.200000 1.960000 -30.906582 -14.141544 1155.200073
1.800000 -8.200000 2.000000 -32.623055 -25.611069 1720.190430
1.800000 -8.200000 2.040000 -19.832684 -37.970459 1835.091064
1.800000 -8.200000 2.080000 2.318609 -36.133606 1311.013428
1.800000 -8.200000 2.120000 17.378141 -16.747116 582.465698
1.800000 -8.200000 2.160000 13.308858 7.776591 237.601074
1.800000 -8.200000 2.200000 -6.373400 20.622810 465.920532
1.800000 -8.160000 1.800000 -44.354584 -35.308605 3214.026855
1.800000 -8.160000 1.840000 -22.434666 -38.150097 1958.744141
1.800000 -8.160000 1.880000 -11.301955 -27.647926 892.142029
1.800000 -8.160000 1.920000 -14.304216 -19.424736 581.930969
1.800000 -8.160000 1.960000 -20.237143 -23.076738 942.077759
1.800000 -8.160000 2.000000 -16.298464 -33.195751 1367.597778
1.800000 -8.160000 2.040000 -1.719139 -36.174244 1311.531372
1.800000 -8.160000 2.080000 11.659864 -24.953327 758.620972
1.800000 -8.160000 2.120000 11.597574 -6.416904 175.680389
1.800000 -8.160000 2.160000 -2.557067 5.389524 35.585564
1.800000 -8.160000 2.200000 -19.800226 2.383378 397.729431
1.800000 -8.120000 1.800000 -12.847418 -41.622879 1897.520264
1.800000 -8.120000 1.840000 2.787067 -30.655952 947.555176
1.800000 -8.120000 1.880000 2.923711 -17.144613 302.485870
1.800000 -8.120000 1.920000 -5.383016 -13.526234 211.935852
1.800000 -8.120000 1.960000 -9.428112 -19.791336 480.586304
1.800000 -8.120000 2.000000 -4.019291 -25.855757 684.674866
1.800000 -8.120000 2.040000 4.595534 -23.413019 569.288452
1.800000 -8.120000 2.080000 6.757340 -14.353483 251.684128
1.800000 -8.120000 2.120000 -0.197508 -7.824846 61.267227
1.800000 -8.120000 2.160000 -9.826264 -10.408152 204.885101
1.800000 -8.120000 2.200000 -13.607645 -20.141331 590.841187
1.800000 -8.080000 1.800000 7.903294 -22.880163 585.963928
1.800000 -8.080000 1.840000 10.061808 -8.693799 176.822113
1.800000 -8.080000 1.880000 1.671440 -1.330284 4.563368
1.800000 -8.080000 1.920000 -6.810828 -4.229300 64.274368
1.800000 -8.080000 1.960000 -8.499386 -11.288507 199.669952
1.800000 -8.080000 2.000000 -5.252945 -15.283631 261.182831
1.800000 -8.080000 2.040000 -2.998273 -15.365196 245.078888
1.800000 -8.080000 2.080000 -3.949164 -16.069462 273.823486
1.800000 -8.080000 2.120000 -4.611097 -20.583298 444.934357
1.800000 -8.080000 2.160000 -0.726252 -26.687822 712.767334
1.800000 -8.080000 2.200000 7.537073 -29.485950 926.228760
1.800000 -8.040000 1.800000 3.441126 -0.214083 11.887179
1.800000 -8.040000 1.840000 -3.331880 5.957249 46.590233
1.800000 -8.040000 1.880000 -11.693123 4.050697 153.137268
1.800000 -8.040000 1.920000 -15.751346 -2.631100 255.027573
1.800000 -8.040000 1.960000 -15.604047 -9.116405 326.595123
1.800000 -8.040000 2.000000 -14.316895 -14.439413 413.470154
1.800000 -8.040000 2.040000 -12.274014 -20.806990 583.582214
1.800000 -8.040000 2.080000 -6.428493 -28.358702 845.541443
1.800000 -8.040000 2.120000 4.927736 -32.901001 1106.758423
1.800000 -8.040000 2.160000 18.254326 -29.888718 1226.555908
1.800000 -8.040000 2.200000 27.112186 -19.841986 1128.775146
1.800000 -8.000000 1.800000 -15.445978 4.018965 254.730331
1.800000 -8.000000 1.840000 -20.197153 0.344019 408.043335
1.800000 -8.000000 1.880000 -21.741920 -5.724660 505.482849
1.800000 -8.000000 1.920000 -20.886772 -11.119701 559.905029
1.800000 -8.000000 1.960000 -19.937572 -16.309265 663.498901
1.800000 -8.000000 2.000000 -17.902363 -23.875822 890.549438
1.800000 -8.000000 2.040000 -10.466238 -33.174255 1210.073364
1.800000 -8.000000 2.080000 4.389488 -38.302532 1486.351562
1.800000 -8.000000 2.120000 21.772697 -33.050682 1566.397949
1.800000 -8.000000 2.160000 32.630295 -17.920055 1385.864502
1.800000 -8.000000 2.200000 31.840269 -0.977868 1014.758972
1.800000 -7.960000 1.800000 -24.972908 -11.222864 749.598816
1.800000 -7.960000 1.840000 -21.513453 -16.881901 747.827209
1.800000 -7.960000 1.880000 -17.134506 -19.379440 669.154053
1.800000 -7.960000 1.920000 -15.065675 -20.485826 646.643677
1.800000 -7.960000 1.960000 -14.522531 -24.465611 809.469971
1.800000 -7.960000 2.000000 -10.150782 -32.354740 1149.867554
1.800000 -7.960000 2.040000 2.305979 -38.659767 1499.895142
1.800000 -7.960000 2.080000 19.782656 -35.437691 1647.183350
1.800000 -7.960000 2.120000 32.678787 -20.525101 1489.182861
1.800000 -7.960000 2.160000 33.093140 -1.103011 1096.372559
1.800000 -7.960000 2.200000 22.376528 12.041257 645.700867
1.800000 -7.920000 1.800000 -13.929456 -25.985497 869.275757
1.800000 -7.920000 1.840000 -6.243758 -25.456675 687.026794
1.800000 -7.920000 1.880000 -2.619627 -21.795815 481.919983
1.800000 -7.920000 1.920000 -3.501329 -20.164799 418.878418
1.800000 -7.920000 1.960000 -4.125893 -23.908936 588.660217
1.800000 -7.920000 2.000000 1.508958 -30.168301 912.403320
1.800000 -7.920000 2.040000 14.068200 -31.346275 1180.503296
1.800000 -7.920000 2.080000 26.687607 -22.217958 1205.865967
1.800000 -7.920000 2.120000 30.462494 -5.890401 962.660400
1.800000 -7.920000 2.160000 22.851116 8.124109 588.174683
1.800000 -7.920000 2.200000 10.302327 12.456219 261.295319
1.800000 -7.880000 1.800000 4.981916 -21.915749 505.119537
1.800000 -7.880000 1.840000 8.317918 -15.572908 311.703247
1.800000 -7.880000 1.880000 6.268305 -10.390827 147.260941
1.800000 -7.880000 1.920000 1.869619 -10.215029 107.842285
1.800000 -7.880000 1.960000 0.491142 -14.962799 224.126587
1.800000 -7.880000 2.000000 5.440110 -19.819008 422.387848
1.800000 -7.880000 2.040000 14.436241 -18.904034 565.767578
1.800000 -7.880000 2.080000 20.944778 -10.752405 554.297974
1.800000 -7.880000 2.120000 19.978533 -0.157623 399.166626
1.800000 -7.880000 2.160000 12.874607 6.113121 203.125763
1.800000 -7.880000 2.200000 5.854433 5.800131 67.915909
1.800000 -7.840000 1.800000 9.863618 -2.417647 103.135971
1.800000 -7.840000 1.840000 5.821791 1.771014 37.029743
1.800000 -7.840000 1.880000 0.203065 2.143126 4.634223
1.800000 -7.840000 1.920000 -4.229041 -1.508295 20.159739
1.800000 -7.840000 1.960000 -4.919762 -7.502228 80.487480
1.800000 -7.840000 2.000000 -1.068489 -12.530100 158.145065
1.800000 -7.840000 2.040000 5.312254 -13.546210 211.719864
1.800000 -7.840000 2.080000 10.535521 -10.135653 213.728638
1.800000 -7.840000 2.120000 12.189669 -4.843693 172.049393
1.800000 -7.840000 2.160000 10.973885 -0.617478 120.807419
1.800000 -7.840000 2.200000 9.184558 2.055454 88.580994
1.800000 -7.800000 1.800000 -6.043312 11.304100 164.304291
1.800000 -7.800000 1.840000 -11.339547 7.009397 177.716965
1.800000 -7.800000 1.880000 -13.737594 1.639971 191.410980
1.800000 -7.800000 1.920000 -14.326088 -3.749822 219.297958
1.800000 -7.800000 1.960000 -13.281418 -9.552856 267.653137
1.800000 -7.800000 2.000000 -9.447727 -15.368822 325.460266
1.800000 -7.800000 2.040000 -2.296397 -19.026648 367.286743
1.800000 -7.800000 2.080000 6.406241 -18.125782 369.583893
1.800000 -7.800000 2.120000 13.323212 -12.256971 327.741333
1.800000 -7.800000 2.160000 15.710289 -3.434338 258.607849
1.800000 -7.800000 2.200000 12.720437 5.241356 189.281342
1.840000 -8.200000 1.800000 -60.722679 -27.650730 4451.806641
1.840000 -8.200000 1.840000 -40.505188 -37.467525 3044.485840
1.840000 -8.200000 1.880000 -27.101397 -33.476906 1855.188965
1.840000 -8.200000 1.920000 -25.352324 -29.675915 1523.400146
1.840000 -8.200000 1.960000 -25.244572 -35.390167 1889.752441
1.840000 -8.200000 2.000000 -14.571694 -44.769184 2216.614014
1.840000 -8.200000 2.040000 5.935324 -43.358829 1915.216064
1.840000 -8.200000 2.080000 21.637762 -24.755856 1081.045166
1.840000 -8.200000 2.120000 18.509216 0.718112 343.106781
1.840000 -8.200000 2.160000 -2.140457 14.781594 223.077087
1.840000 -8.200000 2.200000 -24.187225 8.393522 655.473083
1.840000 -8.160000 1.800000 -30.490280 -56.081589 4074.801758
1.840000 -8.160000 1.840000 -7.457429 -49.954338 2551.049072
1.840000 -8.160000 1.880000 0.996884 -36.728462 1349.973755
1.840000 -8.160000 1.920000 -0.628244 -29.961863 898.107910
1.840000 -8.160000 1.960000 -0.222202 -31.480114 991.046936
1.840000 -8.160000 2.000000 7.825153 -31.929352 1080.716553
1.840000 -8.160000 2.040000 16.932896 -23.012421 816.294495
1.840000 -8.160000 2.080000 16.399994 -7.645374 327.411560
1.840000 -8.160000 2.120000 3.776191 2.611433 21.079203
1.840000 -8.160000 2.160000 -11.853148 -0.538024 140.786606
1.840000 -8.160000 2.200000 -18.610016 -13.835461 537.752686
1.840000 -8.120000 1.800000 7.888899 -52.022888 2768.615479
1.840000 -8.120000 1.840000 22.766518 -34.051430 1677.814209
1.840000 -8.120000 1.880000 22.710835 -16.474569 787.193420
1.840000 -8.120000 1.920000 15.326508 -7.206776 286.839447
1.840000 -8.120000 1.960000 8.693283 -4.999919 100.572365
1.840000 -8.120000 2.000000 4.804438 -4.790693 46.033363
1.840000 -8.120000 2.040000 1.141116 -4.557716 22.074924
1.840000 -8.120000 2.080000 -3.527775 -6.349205 52.757599
1.840000 -8.120000 2.120000 -6.628990 -11.826884 183.818710
1.840000 -8.120000 2.160000 -4.907956 -18.764717 376.202637
1.840000 -8.120000 2.200000 1.330070 -22.732595 518.539978
1.840000 -8.080000 1.800000 25.505499 -24.218195 1237.051514
1.840000 -8.080000 1.840000 29.356522 -3.935836 877.296143
1.840000 -8.080000 1.880000 21.053413 13.221672 618.058838
1.840000 -8.080000 1.920000 5.080809 21.690741 496.302826
1.840000 -8.080000 1.960000 -12.518192 19.024214 518.625854
1.840000 -8.080000 2.000000 -25.020027 6.036850 662.445312
1.840000 -8.080000 2.040000 -26.714020 -12.217991 862.918152
1.840000 -8.080000 2.080000 -16.426805 -27.262615 1013.090088
1.840000 -8.080000 2.120000 0.263306 -31.741278 1007.578064
1.840000 -8.080000 2.160000 13.925617 -24.911926 814.526855
1.840000 -8.080000 2.200000 18.227262 -13.451634 513.179565
1.840000 -8.040000 1.800000 15.185843 -0.726952 231.138306
1.840000 -8.040000 1.840000 12.829737 16.022873 421.334595
1.840000 -8.040000 1.880000 -1.873038 30.130119 911.332397
1.840000 -8.040000 1.920000 -26.249365 31.722658 1695.356201
1.840000 -8.040000 1.960000 -48.846058 14.404192 2593.417969
1.840000 -8.040000 2.000000 -54.750004 -16.814346 3280.285156
1.840000 -8.040000 2.040000 -37.186188 -45.427872 3446.503906
1.840000 -8.040000 2.080000 -5.116922 -54.454197 2991.442383
1.840000 -8.040000 2.120000 22.094322 -40.120346 2097.801270
1.840000 -8.040000 2.160000 29.872849 -15.208439 1123.683716
1.840000 -8.040000 2.200000 19.827091 2.066438 397.383728
1.840000 -8.000000 1.800000 -3.520611 -0.261711 12.463193
1.840000 -8.000000 1.840000 -7.255781 14.296235 257.028687
1.840000 -8.000000 1.880000 -27.027534 23.872129 1300.366211
1.840000 -8.000000 1.920000 -54.526634 13.304029 3150.150879
1.840000 -8.000000 1.960000 -69.224312 -19.988613 5191.549805
1.840000 -8.000000 2.000000 -54.731598 -58.953568 6471.071289
1.840000 -8.000000 2.040000 -15.082922 -78.064590 6321.574707
1.840000 -8.000000 2.080000 25.883045 -64.523262 4833.183594
1.840000 -8.000000 2.120000 43.508331 -29.775795 2779.572754
1.840000 -8.000000 2.160000 32.696396 0.428766 1069.238159
1.840000 -8.000000 2.200000 10.400370 8.503988 180.485504
1.840000 -7.960000 1.800000 -6.960647 -14.615370 262.059631
1.840000 -7.960000 1.840000 -13.084480 1.092310 172.396774
1.840000 -7.960000 1.880000 -36.583443 3.982515 1354.208740
1.840000 -7.960000 1.920000 -58.798183 -18.981691 3817.531006
1.840000 -7.960000 1.960000 -55.902863 -58.488708 6546.059082
1.840000 -7.960000 2.000000 -21.350513 -87.358749 8087.395508
1.840000 -7.960000 2.040000 25.518200 -83.206696 7574.532715
1.840000 -7.960000 2.080000 54.613823 -48.626411 5347.197266
1.840000 -7.960000 2.120000 50.730904 -9.149527 2657.338379
1.840000 -7.960000 2.160000 25.454216 9.491724 738.009949
1.840000 -7.960000 2.200000 4.374238 3.044462 28.402710
1.840000 -7.920000 1.800000 7.212868 -20.479717 471.444275
1.840000 -7.920000 1.840000 -5.589056 -5.323139 59.573353
1.840000 -7.920000 1.880000 -29.345200 -11.485630 993.060425
1.840000 -7.920000 1.920000 -39.683197 -40.912315 3248.573730
1.840000 -7.920000 1.960000 -20.461277 -72.998413 5747.432617
1.840000 -7.920000 2.000000 20.037697 -81.549034 7051.754395
1.840000 -7.920000 2.040000 55.011139 -58.155182 6408.250488
1.840000 -7.920000 2.080000 62.355347 -19.746851 4278.127441
1.840000 -7.920000 2.120000 43.304520 6.988270 1924.117310
1.840000 -7.920000 2.160000 19.097683 9.190006 449.177704
1.840000 -7.920000 2.200000 9.852573 -3.097396 106.667068
1.840000 -7.880000 1.800000 19.231581 -6.801804 416.118225
1.840000 -7.880000 1.840000 -0.173996 0.905266 0.849781
1.840000 -7.880000 1.880000 -18.345257 -13.907316 529.961914
1.840000 -7.880000 1.920000 -16.116802 -40.998741 1940.648071
1.840000 -7.880000 1.960000 8.910027 -58.298920 3478.152588
1.840000 -7.880000 2.000000 39.955364 -51.225948 4220.529297
1.840000 -7.880000 2.040000 55.948147 -25.042624 3757.328125
1.840000 -7.880000 2.080000 49.603451 0.972021 2461.447266
1.840000 -7.880000 2.120000 31.921465 11.377066 1148.417480
1.840000 -7.880000 2.160000 19.851433 7.156156 445.289948
1.840000 -7.880000 2.200000 20.061611 1.746961 405.520111
1.840000 -7.840000 1.800000 10.995807 12.654831 281.052521
1.840000 -7.840000 1.840000 -7.279321 8.286224 121.650024
1.840000 -7.840000 1.880000 -14.958994 -9.920720 322.192200
1.840000 -7.840000 1.920000 -5.429987 -28.181175 823.663391
1.840000 -7.840000 1.960000 14.471593 -33.582050 1337.181152
1.840000 -7.840000 2.000000 31.360023 -24.099096 1564.217529
1.840000 -7.840000 2.040000 36.729347 -8.315788 1418.197266
1.840000 -7.840000 2.080000 32.448952 3.614908 1066.001953
1.840000 -7.840000 2.120000 26.348656 8.596025 768.143311
1.840000 -7.840000 2.160000 23.413223 11.100777 671.406250
1.840000 -7.840000 2.200000 21.438414 16.311657 725.675781
1.840000 -7.800000 1.800000 -12.488619 14.995849 380.841064
1.840000 -7.800000 1.840000 -19.990410 2.890040 407.968811
1.840000 -7.800000 1.880000 -17.527557 -10.652630 420.693787
1.840000 -7.800000 1.920000 -8.190986 -19.072248 430.842926
1.840000 -7.800000 1.960000 2.628131 -20.983986 447.234741
1.840000 -7.800000 2.000000 11.963074 -18.485298 484.821350
1.840000 -7.800000 2.040000 19.660469 -13.143429 559.283813
1.840000 -7.800000 2.080000 25.448858 -4.595620 668.764160
1.840000 -7.800000 2.120000 26.997971 7.263861 781.654114
1.840000 -7.800000 2.160000 21.496029 19.704103 850.330933
1.840000 -7.800000 2.200000 8.948229 27.592419 841.412354
1.880000 -8.200000 1.800000 -50.670013 -50.365822 5104.166016
1.880000 -8.200000 1.840000 -28.370119 -53.120163 3626.615234
1.880000 -8.200000 1.880000 -16.077171 -47.093521 2476.275146
1.880000 -8.200000 1.920000 -11.499886 -44.617229 2122.944580
1.880000 -8.200000 1.960000 -3.657227 -47.421749 2262.197510
1.880000 -8.200000 2.000000 12.103626 -45.294914 2198.126953
1.880000 -8.200000 2.040000 26.492661 -29.343813 1562.920410
1.880000 -8.200000 2.080000 25.341179 -4.923992 666.421082
1.880000 -8.200000 2.120000 5.890719 10.918648 153.917450
1.880000 -8.200000 2.160000 -17.729460 5.792597 347.887939
1.880000 -8.200000 2.200000 -26.713339 -14.978533 937.958923
1.880000 -8.160000 1.800000 -6.415795 -68.676086 4757.567383
1.880000 -8.160000 1.840000 14.819656 -54.370342 3175.756348
1.880000 -8.160000 1.880000 21.479322 -37.312202 1853.561768
1.880000 -8.160000 1.920000 20.431368 -26.459648 1117.553711
1.880000 -8.160000 1.960000 19.975338 -20.328869 812.277039
1.880000 -8.160000 2.000000 20.683922 -12.665113 588.229736
1.880000 -8.160000 2.040000 16.705883 -2.383530 284.767731
1.880000 -8.160000 2.080000 5.086827 3.882835 40.952225
1.880000 -8.160000 2.120000 -8.259736 -0.605983 68.590454
1.880000 -8.160000 2.160000 -13.157675 -13.860062 365.225708
1.880000 -8.160000 2.200000 -5.522812 -25.419918 676.673706
1.880000 -8.120000 1.800000 33.854004 -49.371445 3583.633301
1.880000 -8.120000 1.840000 45.555531 -23.134563 2610.514404
1.880000 -8.120000 1.880000 40.659428 2.343288 1658.680054
1.880000 -8.120000 1.920000 24.203640 18.513252 928.556641
1.880000 -8.120000 1.960000 4.012524 21.977005 499.089081
1.880000 -8.120000 2.000000 -12.509392 13.988518 352.163513
1.880000 -8.120000 2.040000 -20.120451 -0.806145 405.482422
1.880000 -8.120000 2.080000 -17.067562 -15.675825 537.033142
1.880000 -8.120000 2.120000 -6.160536 -24.107471 619.122375
1.880000 -8.120000 2.160000 6.100356 -23.099319 570.792908
1.880000 -8.120000 2.200000 13.132936 -15.109212 400.762299
1.880000 -8.080000 1.800000 43.980766 -12.492970 2090.382080
1.880000 -8.080000 1.840000 43.597504 18.916128 2258.562256
1.880000 -8.080000 1.880000 21.784851 46.479424 2634.916748
1.880000 -8.080000 1.920000 -15.733685 54.458767 3213.306152
1.880000 -8.080000 1.960000 -51.129684 34.712616 3819.210449
1.880000 -8.080000 2.000000 -64.216354 -4.382610 4142.947266
1.880000 -8.080000 2.040000 -47.352219 -40.821526 3908.629639
1.880000 -8.080000 2.080000 -12.551180 -54.020576 3075.754883
1.880000 -8.080000 2.120000 17.017374 -40.240623 1908.898804
1.880000 -8.080000 2.160000 24.954140 -14.571915 835.049805
1.880000 -8.080000 2.200000 13.349593 2.620585 185.079102
1.880000 -8.040000 1.800000 26.755493 11.400985 845.838867
1.880000 -8.040000 1.840000 14.473715 43.494236 2101.237061
1.880000 -8.040000 1.880000 -25.579838 62.595276 4572.496582
1.880000 -8.040000 1.920000 -76.129730 45.671288 7881.602539
1.880000 -8.040000 1.960000 -103.625671 -7.639458 10796.640625
1.880000 -8.040000 2.000000 -84.932426 -68.185738 11862.812500
1.880000 -8.040000 2.040000 -29.434052 -97.636765 10399.300781
1.880000 -8.040000 2.080000 26.090925 -79.814331 7051.063965
1.880000 -8.040000 2.120000 47.313965 -34.032551 3396.825684
1.880000 -8.040000 2.160000 29.962454 2.665224 904.852051
1.880000 -8.040000 2.200000 -0.245616 7.691094 59.213257
1.880000 -8.000000 1.800000 7.192446 10.651031 165.175720
1.880000 -8.000000 1.840000 -17.420166 39.632572 1874.202881
1.880000 -8.000000 1.880000 -69.153244 39.096489 6310.707031
1.880000 -8.000000 1.920000 -112.073929 -8.926740 12640.251953
1.880000 -8.000000 1.960000 -106.324471 -82.709587 18145.769531
1.880000 -8.000000 2.000000 -45.784393 -133.303497 19866.033203
1.880000 -8.000000 2.040000 31.975916 -125.374954 16741.337891
1.880000 -8.000000 2.080000 75.919525 -68.550194 10462.903320
1.880000 -8.000000 2.120000 64.778122 -8.587529 4269.950684
1.880000 -8.000000 2.160000 22.508379 13.552880 690.307678
1.880000 -8.000000 2.200000 -7.565609 -4.504935 77.532883
1.880000 -7.960000 1.800000 4.509625 0.158412 20.361816
1.880000 -7.960000 1.840000 -31.950630 19.781254 1412.140747
1.880000 -7.960000 1.880000 -81.309982 -5.333541 6639.759766
1.880000 -7.960000 1.920000 -96.432327 -72.532913 14560.216797
1.880000 -7.960000 1.960000 -51.010090 -137.236526 21435.892578
1.880000 -7.960000 2.000000 31.922806 -149.488876 23365.990234
1.880000 -7.960000 2.040000 96.777893 -99.066925 19180.216797
1.880000 -7.960000 2.080000 103.495392 -25.224064 11347.548828
1.880000 -7.960000 2.120000 61.151176 18.994656 4100.263184
1.880000 -7.960000 2.160000 15.508821 13.180783 414.256592
1.880000 -7.960000 2.200000 4.492545 -17.453758 324.816620
1.880000 -7.920000 1.800000 13.383878 0.875883 179.895355
1.880000 -7.920000 1.840000 -29.072350 3.872227 860.195679
1.880000 -7.920000 1.880000 -61.088799 -39.601166 5300.093750
1.880000 -7.920000 1.920000 -43.354576 -102.560349 12398.244141
1.880000 -7.920000 1.960000 23.223942 -134.250763 18562.619141
1.880000 -7.920000 2.000000 94.620285 -105.862000 20159.761719
1.880000 -7.920000 2.040000 121.877274 -37.388165 16251.944336
1.880000 -7.920000 2.080000 94.071831 20.901012 9286.362305
1.880000 -7.920000 2.120000 44.831165 34.064545 3170.226562
1.880000 -7.920000 2.160000 17.778469 10.781085 432.305786
1.880000 -7.920000 2.200000 26.448471 -11.231812 825.675171
1.880000 -7.880000 1.800000 13.743176 15.028921 414.743347
1.880000 -7.880000 1.840000 -22.911810 -0.504357 525.205444
1.880000 -7.880000 1.880000 -30.724062 -47.077515 3160.260498
1.880000 -7.880000 1.920000 6.519222 -86.881439 7590.884766
1.880000 -7.880000 1.960000 65.659645 -84.453758 11443.626953
1.880000 -7.880000 2.000000 104.217148 -39.052387 12386.302734
1.880000 -7.880000 2.040000 98.324036 15.546963 9909.324219
1.880000 -7.880000 2.080000 61.908699 42.928619 5675.553223
1.880000 -7.880000 2.120000 29.883074 35.794250 2174.226562
1.880000 -7.880000 2.160000 23.901186 17.546328 879.140259
1.880000 -7.880000 2.200000 34.966591 15.046923 1449.072388
1.880000 -7.840000 1.800000 -3.505605 24.459921 610.576965
1.880000 -7.840000 1.840000 -23.222029 -1.489844 541.482239
1.880000 -7.840000 1.880000 -12.485563 -35.719200 1431.750488
1.880000 -7.840000 1.920000 23.233732 -49.794815 3019.330078
1.880000 -7.840000 1.960000 57.955864 -32.380615 4407.386230
1.880000 -7.840000 2.000000 68.837708 2.337898 4744.095703
1.880000 -7.840000 2.040000 54.907799 29.798674 3902.827393
1.880000 -7.840000 2.080000 33.851112 37.560551 2556.692871
1.880000 -7.840000 2.120000 22.387417 33.278519 1608.656250
1.880000 -7.840000 2.160000 20.981216 32.404808 1490.282959
1.880000 -7.840000 2.200000 17.215618 40.406193 1929.037842
1.880000 -7.800000 1.800000 -24.306414 12.896423 757.119507
1.880000 -7.800000 1.840000 -25.385479 -8.874676 723.182434
1.880000 -7.800000 1.880000 -10.146717 -24.362000 696.462891
1.880000 -7.800000 1.920000 10.302271 -24.892311 725.763916
1.880000 -7.800000 1.960000 24.385918 -13.751022 783.763611
1.880000 -7.800000 2.000000 28.939194 0.171200 837.506226
1.880000 -7.800000 2.040000 27.969093 11.750423 920.342651
1.880000 -7.800000 2.080000 24.929552 22.126982 1111.085938
1.880000 -7.800000 2.120000 18.197422 33.232124 1435.520264
1.880000 -7.800000 2.160000 4.445933 42.158672 1797.119995
1.880000 -7.800000 2.200000 -14.894836 42.374287 2017.436401
1.920000 -8.200000 1.800000 -28.579071 -68.995041 5577.078613
1.920000 -8.200000 1.840000 -5.277570 -64.426025 4178.565430
1.920000 -8.200000 1.880000 7.353779 -53.935005 2963.062988
1.920000 -8.200000 1.920000 13.955553 -46.274132 2336.052734
1.920000 -8.200000 1.960000 22.060360 -39.796608 2070.429443
1.920000 -8.200000 2.000000 30.619762 -27.066734 1670.177979
1.920000 -8.200000 2.040000 30.017210 -7.417973 956.059204
1.920000 -8.200000 2.080000 14.345541 7.993946 269.697723
1.920000 -8.200000 2.120000 -8.138681 6.112850 103.605072
1.920000 -8.200000 2.160000 -19.737232 -13.028855 559.309448
1.920000 -8.200000 2.200000 -9.990114 -33.243790 1204.951904
1.920000 -8.160000 1.800000 23.447342 -68.162506 5195.905273
1.920000 -8.160000 1.840000 40.784378 -45.930794 3773.003174
1.920000 -8.160000 1.880000 42.844551 -22.605623 2346.669678
1.920000 -8.160000 1.920000 35.278053 -5.884306 1279.166016
1.920000 -8.160000 1.960000 24.562408 3.628952 616.481201
1.920000 -8.160000 2.000000 13.004202 8.072891 234.280838
1.920000 -8.160000 2.040000 0.733675 7.189034 52.220482
1.920000 -8.160000 2.080000 -9.353773 -0.902351 88.307312
1.920000 -8.160000 2.120000 -11.318108 -14.339748 333.727966
1.920000 -8.160000 2.160000 -2.126551 -25.189674 639.041931
1.920000 -8.160000 2.200000 12.850076 -24.767239 778.540588
1.920000 -8.120000 1.800000 56.576530 -31.687101 4204.976074
1.920000 -8.120000 1.840000 60.073700 3.093769 3618.420654
1.920000 -8.120000 1.880000 41.528435 33.952389 2877.375488
1.920000 -8.120000 1.920000 7.942932 46.792969 2252.672119
1.920000 -8.120000 1.960000 -25.107199 35.792564 1911.479004
1.920000 -8.120000 2.000000 -42.019146 7.735840 1825.451904
1.920000 -8.120000 2.040000 -36.518272 -21.690899 1804.079346
1.920000 -8.120000 2.080000 -15.149918 -37.555370 1639.925903
1.920000 -8.120000 2.120000 7.701391 -34.577911 1254.943359
1.920000 -8.120000 2.160000 19.509254 -19.065483 744.103638
1.920000 -8.120000 2.200000 16.889378 -3.085106 294.768951
1.920000 -8.080000 1.800000 53.124306 11.446849 2953.222168
1.920000 -8.080000 1.840000 37.622688 51.558109 4073.705078
1.920000 -8.080000 1.880000 -8.060123 75.425247 5753.933594
1.920000 -8.080000 1.920000 -64.247101 60.523872 7790.829102
1.920000 -8.080000 1.960000 -96.991394 7.934486 9470.286133
1.920000 -8.080000 2.000000 -83.968010 -53.184715 9879.240234
1.920000 -8.080000 2.040000 -34.062851 -85.869446 8533.839844
1.920000 -8.080000 2.080000 18.446016 -74.078941 5827.944824
1.920000 -8.080000 2.120000 41.179703 -34.305534 2872.637695
1.920000 -8.080000 2.160000 28.241537 0.241290 797.642639
1.920000 -8.080000 2.200000 0.736738 7.701200 59.851273
1.920000 -8.040000 1.800000 26.033253 32.870346 1758.189819
1.920000 -8.040000 1.840000 -10.993210 68.580559 4824.143555
1.920000 -8.040000 1.880000 -77.726646 66.043655 10403.196289
1.920000 -8.040000 1.920000 -131.331924 7.239746 17300.488281
1.920000 -8.040000 1.960000 -126.988159 -80.693382 22637.414062
1.920000 -8.040000 2.000000 -59.312752 -141.442810 23524.070312
1.920000 -8.040000 2.040000 28.306023 -135.535278 19171.042969
1.920000 -8.040000 2.080000 78.417221 -74.191963 11653.708008
1.920000 -8.040000 2.120000 67.127625 -8.503844 4578.433594
1.920000 -8.040000 2.160000 20.511196 15.808977 670.632935
1.920000 -8.040000 2.200000 -13.777012 -4.890387 213.721939
1.920000 -8.000000 1.800000 2.430676 28.883751 840.179260
1.920000 -8.000000 1.840000 -53.120918 48.065254 5132.100586
1.920000 -8.000000 1.880000 -119.923851 7.372581 14436.084961
1.920000 -8.000000 1.920000 -137.857544 -85.997223 26400.226562
1.920000 -8.000000 1.960000 -75.775917 -172.591736 35529.898438
1.920000 -8.000000 2.000000 33.756176 -188.536423 36685.464844
1.920000 -8.000000 2.040000 117.791367 -122.698883 28929.820312
1.920000 -8.000000 2.080000 125.196793 -27.542549 16432.830078
1.920000 -8.000000 2.120000 68.977150 27.842867 5533.072266
1.920000 -8.000000 2.160000 9.187103 17.352028 385.495728
1.920000 -8.000000 2.200000 -4.607414 -26.055683 700.126892
1.920000 -7.960000 1.800000 -3.773290 17.950224 336.448242
1.920000 -7.960000 1.840000 -66.318542 10.658127 4511.744629
1.920000 -7.960000 1.880000 -107.509323 -61.271915 15312.501953
1.920000 -7.960000 1.920000 -73.474159 -155.980957 29728.511719
1.920000 -7.960000 1.960000 30.456690 -199.452515 40708.914062
1.920000 -7.960000 2.000000 136.925415 -152.067886 41873.210938
1.920000 -7.960000 2.040000 173.641113 -46.898121 32350.669922
1.920000 -7.960000 2.080000 126.688858 39.144844 17582.384766
1.920000 -7.960000 2.120000 49.122040 53.923153 5320.681641
1.920000 -7.960000 2.160000 8.214636 12.073034 213.238403
1.920000 -7.960000 2.200000 24.846497 -27.557251 1376.750488
1.920000 -7.920000 1.800000 -1.740968 16.936176 289.865051
1.920000 -7.920000 1.840000 -53.764851 -17.169418 3185.448242
1.920000 -7.920000 1.880000 -55.534813 -96.296738 12357.176758
1.920000 -7.920000 1.920000 16.408867 -157.531784 25085.513672
1.920000 -7.920000 1.960000 119.873497 -143.126190 34854.761719
1.920000 -7.920000 2.000000 180.952087 -55.674057 35843.257812
1.920000 -7.920000 2.040000 159.983795 42.319290 27385.736328
1.920000 -7.920000 2.080000 85.467377 85.067123 14541.087891
1.920000 -7.920000 2.120000 23.695545 60.871822 4266.857422
1.920000 -7.920000 2.160000 16.067308 15.428524 496.197754
1.920000 -7.920000 2.200000 46.034885 1.846002 2122.618408
1.920000 -7.880000 1.800000 -7.867083 23.044662 592.947449
1.920000 -7.880000 1.840000 -35.111118 -25.374496 1876.655762
1.920000 -7.880000 1.880000 -4.932407 -85.394737 7316.589844
1.920000 -7.880000 1.920000 70.986694 -101.096619 15259.636719
1.920000 -7.880000 1.960000 137.552414 -50.676464 21488.769531
1.920000 -7.880000 2.000000 145.554321 32.037560 22212.464844
1.920000 -7.880000 2.040000 95.537628 88.758530 17005.515625
1.920000 -7.880000 2.080000 33.733932 89.542908 9155.910156
1.920000 -7.880000 2.120000 6.034153 55.540524 3121.160645
1.920000 -7.880000 2.160000 17.062330 31.920303 1310.028809
1.920000 -7.880000 2.200000 33.248543 41.589172 2835.125000
1.920000 -7.840000 1.800000 -23.947300 20.239338 983.104004
1.920000 -7.840000 1.840000 -24.904999 -23.184874 1157.797363
1.920000 -7.840000 1.880000 14.547037 -52.226242 2939.196533
1.920000 -7.840000 1.920000 66.003456 -38.507999 5839.322266
1.920000 -7.840000 1.960000 90.313347 10.174988 8260.031250
1.920000 -7.840000 2.000000 72.679459 58.333508 8685.101562
1.920000 -7.840000 2.040000 33.024834 76.316284 6914.814941
1.920000 -7.840000 2.080000 3.335121 65.042786 4241.687012
1.920000 -7.840000 2.120000 -3.192211 49.002800 2411.464600
1.920000 -7.840000 2.160000 -0.317358 47.847061 2289.442139
1.920000 -7.840000 2.200000 -8.999813 57.248360 3358.371338
1.920000 -7.800000 1.800000 -34.251110 1.085276 1174.316406
1.920000 -7.800000 1.840000 -21.356110 -23.294508 998.717529
1.920000 -7.800000 1.880000 5.963049 -29.087259 881.626587
1.920000 -7.800000 1.920000 27.936642 -13.570335 964.609924
1.920000 -7.800000 1.960000 32.567509 10.157955 1163.826660
1.920000 -7.800000 2.000000 23.359627 27.686579 1312.218750
1.920000 -7.800000 2.040000 11.150391 35.609505 1392.368042
1.920000 -7.800000 2.080000 1.097830 39.856064 1589.711060
1.920000 -7.800000 2.120000 -10.627260 44.479492 2091.363770
1.920000 -7.800000 2.160000 -28.400135 45.039352 2835.110840
1.920000 -7.800000 2.200000 -48.214165 33.899879 3473.807617
1.960000 -8.200000 1.800000 4.312596 -74.516937 5571.372559
1.960000 -8.200000 1.840000 26.423244 -60.754250 4389.266602
1.960000 -8.200000 1.880000 35.793022 -42.363243 3075.784668
1.960000 -8.200000 1.920000 36.834583 -27.254147 2099.574951
1.960000 -8.200000 1.960000 35.286400 -15.109353 1473.422607
1.960000 -8.200000 2.000000 30.596577 -2.719688 943.547241
1.960000 -8.200000 2.040000 18.618633 7.407555 401.525360
1.960000 -8.200000 2.080000 1.109190 7.130135 52.069118
1.960000 -8.200000 2.120000 -10.748074 -7.167246 166.890503
1.960000 -8.200000 2.160000 -5.559727 -26.188934 716.770874
1.960000 -8.200000 2.200000 15.035398 -32.905296 1308.821777
1.960000 -8.160000 1.800000 51.296299 -51.007885 5233.114746
1.960000 -8.160000 1.840000 61.093513 -21.207211 4182.163086
1.960000 -8.160000 1.880000 52.265541 6.758902 2777.369629
1.960000 -8.160000 1.920000 31.511711 22.546419 1501.328857
1.960000 -8.160000 1.960000 9.151751 23.671932 644.114868
1.960000 -8.160000 2.000000 -7.215262 13.940479 246.396973
1.960000 -8.160000 2.040000 -14.342144 -1.063793 206.828751
1.960000 -8.160000 2.080000 -11.507267 -16.093641 391.422485
1.960000 -8.160000 2.120000 0.098000 -25.594620 655.094116
1.960000 -8.160000 2.160000 15.565618 -24.336948 834.575500
1.960000 -8.160000 2.200000 26.005386 -11.406811 806.395386
1.960000 -8.120000 1.800000 66.739098 -2.462072 4460.168945
1.960000 -8.120000 1.840000 55.823448 36.528648 4450.599609
1.960000 -8.120000 1.880000 18.857834 61.605434 4150.847168
1.960000 -8.120000 1.920000 -27.483547 55.831490 3872.500488
1.960000 -8.120000 1.960000 -57.886131 20.655823 3777.467285
1.960000 -8.120000 2.000000 -56.376785 -23.564606 3733.632324
1.960000 -8.120000 2.040000 -27.589569 -51.866047 3451.271240
1.960000 -8.120000 2.080000 7.833122 -51.958019 2760.993652
1.960000 -8.120000 2.120000 29.003239 -30.662138 1781.354492
1.960000 -8.120000 2.160000 28.339970 -5.891791 837.867065
1.960000 -8.120000 2.200000 13.161800 7.374172 227.611404
1.960000 -8.080000 1.800000 45.233765 38.519341 3529.833008
1.960000 -8.080000 1.840000 8.132530 74.750519 5653.778320
1.960000 -8.080000 1.880000 -55.473305 74.862923 8681.744141
1.960000 -8.080000 1.920000 -107.332413 24.427071 12116.928711
1.960000 -8.080000 1.960000 -109.116638 -52.571083 14670.159180
1.960000 -8.080000 2.000000 -56.056065 -108.506851 14916.018555
1.960000 -8.080000 2.040000 16.605980 -109.828979 12338.163086
1.960000 -8.080000 2.080000 61.781445 -63.776237 7884.355469
1.960000 -8.080000 2.120000 58.014866 -9.938654 3464.501465
1.960000 -8.080000 2.160000 22.769253 14.377510 725.151611
1.960000 -8.080000 2.200000 -8.003265 2.574978 70.682762
1.960000 -8.040000 1.800000 8.161002 50.161171 2582.745117
1.960000 -8.040000 1.840000 -52.777866 67.386368 7326.425781
1.960000 -8.040000 1.880000 -122.285629 24.070179 15533.148438
1.960000 -8.040000 1.920000 -141.966644 -70.792694 25166.132812
1.960000 -8.040000 1.960000 -82.583069 -158.729645 32015.062500
1.960000 -8.040000 2.000000 23.910320 -177.996796 32254.562500
1.960000 -8.040000 2.040000 107.252174 -117.500122 25309.308594
1.960000 -8.040000 2.080000 117.668953 -26.688122 14558.238281
1.960000 -8.040000 2.120000 65.747772 28.385092 5128.482910
1.960000 -8.040000 2.160000 7.202389 20.862469 487.117004
1.960000 -8.040000 2.200000 -9.987076 -20.950352 538.658936
1.960000 -8.000000 1.800000 -17.987623 36.958328 1689.472534
1.960000 -8.000000 1.840000 -88.596436 21.484617 8310.916992
1.960000 -8.000000 1.880000 -131.849701 -63.223175 21381.513672
1.960000 -8.000000 1.920000 -91.142700 -169.963074 37194.437500
1.960000 -8.000000 1.960000 25.700283 -218.240326 48289.343750
1.960000 -8.000000 2.000000 144.236847 -165.824860 48302.152344
1.960000 -8.000000 2.040000 185.289810 -49.597958 36792.269531
1.960000 -8.000000 2.080000 133.399200 45.802574 19893.220703
1.960000 -8.000000 2.120000 46.410934 62.247360 6028.708984
1.960000 -8.000000 2.160000 -1.120453 14.254000 204.431931
1.960000 -8.000000 2.200000 16.088205 -34.209435 1429.115723
1.960000 -7.960000 1.800000 -24.475920 19.649595 985.177246
1.960000 -7.960000 1.840000 -82.468094 -29.817450 7690.066406
1.960000 -7.960000 1.880000 -76.749763 -129.319443 22614.042969
1.960000 -7.960000 1.920000 18.263117 -202.201370 41218.937500
1.960000 -7.960000 1.960000 148.799805 -179.318802 54296.617188
1.960000 -7.960000 2.000000 223.177399 -66.054016 54171.285156
1.960000 -7.960000 2.040000 192.832825 58.251686 40577.757812
1.960000 -7.960000 2.080000 94.610809 110.342598 21126.695312
1.960000 -7.960000 2.120000 13.493631 74.999619 5807.020996
1.960000 -7.960000 2.160000 3.939531 10.427471 124.252060
1.960000 -7.960000 2.200000 46.817837 -13.716940 2380.064453
1.960000 -7.920000 1.800000 -22.623783 12.266830 662.310669
1.960000 -7.920000 1.840000 -49.542397 -56.113136 5603.132812
1.960000 -7.920000 1.880000 1.485817 -134.836304 18183.035156
1.960000 -7.920000 1.920000 112.132675 -147.923950 34455.230469
1.960000 -7.920000 1.960000 203.926056 -67.152344 46095.273438
1.960000 -7.920000 2.000000 207.208679 56.608665 46139.976562
1.960000 -7.920000 2.040000 124.746872 137.127731 34365.796875
1.960000 -7.920000 2.080000 27.177010 129.932068 17620.931641
1.960000 -7.920000 2.120000 -14.261505 67.624084 4776.407227
1.960000 -7.920000 2.160000 9.583233 21.400305 549.811401
1.960000 -7.920000 2.200000 47.300900 30.894545 3191.847900
1.960000 -7.880000 1.800000 -26.124565 10.528194 793.335815
1.960000 -7.880000 1.840000 -19.121361 -52.914940 3165.617432
1.960000 -7.880000 1.880000 49.698662 -90.027672 10574.939453
1.960000 -7.880000 1.920000 133.124847 -54.914600 20737.837891
1.960000 -7.880000 1.960000 164.095642 37.437103 28328.916016
1.960000 -7.880000 2.000000 117.506737 122.135635 28724.945312
1.960000 -7.880000 2.040000 32.510788 143.378357 21614.304688
1.960000 -7.880000 2.080000 -26.305382 103.197937 11341.787109
1.960000 -7.880000 2.120000 -28.923128 52.954048 3640.678467
1.960000 -7.880000 2.160000 -1.659060 39.485157 1561.830078
1.960000 -7.880000 2.200000 7.124886 61.965698 3890.511719
1.960000 -7.840000 1.800000 -34.327171 1.864012 1181.829224
1.960000 -7.840000 1.840000 -7.596674 -38.653152 1551.775635
1.960000 -7.840000 1.880000 48.061588 -39.990311 3909.141113
1.960000 -7.840000 1.920000 87.322754 7.073280 7675.294434
1.960000 -7.840000 1.960000 77.442421 69.520065 10830.368164
1.960000 -7.840000 2.000000 27.658257 103.061996 11386.754883
1.960000 -7.840000 2.040000 -22.455154 92.282715 9020.333984
1.960000 -7.840000 2.080000 -42.094765 60.256981 5402.873047
1.960000 -7.840000 2.120000 -35.466114 40.640762 2909.516602
1.960000 -7.840000 2.160000 -30.556046 43.390034 2816.366943
1.960000 -7.840000 2.200000 -45.786144 49.022812 4499.607422
1.960000 -7.800000 1.800000 -34.378624 -16.268267 1446.546265
1.960000 -7.800000 1.840000 -8.549250 -31.909184 1091.285645
1.960000 -7.800000 1.880000 20.188213 -20.891640 844.024536
1.960000 -7.800000 1.920000 30.261383 7.474251 971.615723
1.960000 -7.800000 1.960000 17.880798 32.139366 1352.661865
1.960000 -7.800000 2.000000 -3.474503 40.579121 1658.737183
1.960000 -7.800000 2.040000 -19.692932 37.094109 1763.784424
1.960000 -7.800000 2.080000 -29.424625 32.634304 1930.806396
1.960000 -7.800000 2.120000 -40.676743 29.908276 2549.102295
1.960000 -7.800000 2.160000 -56.812336 21.031464 3669.964111
1.960000 -7.800000 2.200000 -69.426720 -0.775738 4820.670898
2.000000 -8.200000 1.800000 37.444351 -58.751038 4853.763672
2.000000 -8.200000 1.840000 52.930992 -35.352680 4051.501953
2.000000 -8.200000 1.880000 51.863518 -10.952286 2809.777100
2.000000 -8.200000 1.920000 40.482475 4.975349 1663.584961
2.000000 -8.200000 1.960000 27.137190 11.705603 873.448181
2.000000 -8.200000 2.000000 15.060525 12.782726 390.217499
2.000000 -8.200000 2.040000 3.964104 9.077778 98.120171
2.000000 -8.200000 2.080000 -3.602268 -1.049271 14.077305
2.000000 -8.200000 2.120000 -1.366337 -15.018862 227.433090
2.000000 -8.200000 2.160000 13.013704 -22.879166 692.812744
2.000000 -8.200000 2.200000 30.763338 -14.676394 1161.779541
2.000000 -8.160000 1.800000 65.828461 -19.355579 4708.024902
2.000000 -8.160000 1.840000 63.318611 14.384180 4216.151367
2.000000 -8.160000 1.880000 39.742844 38.776466 3083.107910
2.000000 -8.160000 1.920000 7.895607 42.196121 1842.853271
2.000000 -8.160000 1.960000 -16.033682 26.271896 947.291504
2.000000 -8.160000 2.000000 -23.218735 2.495201 545.335632
2.000000 -8.160000 2.040000 -15.159809 -17.032883 519.938904
2.000000 -8.160000 2.080000 0.877594 -25.743044 663.474426
2.000000 -8.160000 2.120000 17.180521 -22.599276 805.897583
2.000000 -8.160000 2.160000 27.294655 -9.900917 843.026306
2.000000 -8.160000 2.200000 26.257782 6.978192 738.166321
2.000000 -8.120000 1.800000 58.207901 28.424452 4196.109375
2.000000 -8.120000 1.840000 30.716433 62.080231 4797.454102
2.000000 -8.120000 1.880000 -18.326828 68.290154 4999.417480
2.000000 -8.120000 1.920000 -60.651295 36.995834 5047.271484
2.000000 -8.120000 1.960000 -69.488632 -15.154434 5058.326660
2.000000 -8.120000 2.000000 -40.882107 -56.657982 4881.473633
2.000000 -8.120000 2.040000 4.043633 -65.226639 4270.865723
2.000000 -8.120000 2.080000 36.753605 -42.820812 3184.449463
2.000000 -8.120000 2.120000 42.288116 -10.272608 1893.811279
2.000000 -8.120000 2.160000 26.218756 10.996577 808.347900
2.000000 -8.120000 2.200000 5.141275 13.101661 198.086227
2.000000 -8.080000 1.800000 21.666477 55.535133 3553.587402
2.000000 -8.080000 1.840000 -30.955221 72.705147 6244.264160
2.000000 -8.080000 1.880000 -90.935020 40.175385 9883.239258
2.000000 -8.080000 1.920000 -112.068130 -34.508057 13750.071289
2.000000 -8.080000 1.960000 -71.405045 -106.091599 16354.107422
2.000000 -8.080000 2.000000 7.677460 -127.172981 16231.910156
2.000000 -8.080000 2.040000 73.144997 -87.751640 13050.541016
2.000000 -8.080000 2.080000 86.974854 -22.137899 8054.711426
2.000000 -8.080000 2.120000 53.650368 22.088394 3366.259277
2.000000 -8.080000 2.160000 10.283194 22.923283 631.220947
2.000000 -8.080000 2.200000 -8.666529 -4.152403 92.351166
2.000000 -8.040000 1.800000 -17.985455 50.435646 2867.230957
2.000000 -8.040000 1.840000 -83.146362 35.068832 8143.140625
2.000000 -8.040000 1.880000 -123.274551 -41.068184 16883.210938
2.000000 -8.040000 1.920000 -89.868088 -136.579376 26730.199219
2.000000 -8.040000 1.960000 10.261986 -182.194641 33300.195312
2.000000 -8.040000 2.000000 113.759506 -141.242310 32890.617188
2.000000 -8.040000 2.040000 152.813797 -43.822407 25272.460938
2.000000 -8.040000 2.080000 112.383141 39.076019 14156.906250
2.000000 -8.040000 2.120000 38.926445 56.953510 4758.970703
2.000000 -8.040000 2.160000 -5.196299 18.587976 372.514404
2.000000 -8.040000 2.200000 4.240534 -25.147665 650.387146
2.000000 -8.000000 1.800000 -38.406002 25.541018 2127.364502
2.000000 -8.000000 1.840000 -92.740891 -26.603287 9308.607422
2.000000 -8.000000 1.880000 -84.645836 -124.673752 22708.460938
2.000000 -8.000000 1.920000 8.922859 -195.553741 38320.882812
2.000000 -8.000000 1.960000 136.065643 -173.786316 48715.542969
2.000000 -8.000000 2.000000 209.075714 -64.687180 47897.082031
2.000000 -8.000000 2.040000 180.939178 55.970592 35871.695312
2.000000 -8.000000 2.080000 85.840202 107.746323 18977.810547
2.000000 -8.000000 2.120000 5.024748 74.001999 5501.543945
2.000000 -8.000000 2.160000 -7.186760 8.626736 126.070084
2.000000 -8.000000 2.200000 34.401352 -20.889078 1619.806641
2.000000 -7.960000 1.800000 -37.289925 2.776037 1398.244873
2.000000 -7.960000 1.840000 -59.091858 -72.058235 8684.236328
2.000000 -7.960000 1.880000 1.121941 -154.020203 23723.480469
2.000000 -7.960000 1.920000 122.387283 -163.783310 41803.621094
2.000000 -7.960000 1.960000 220.648819 -72.741699 53977.257812
2.000000 -7.960000 2.000000 221.481628 63.476463 53083.375000
2.000000 -7.960000 2.040000 128.240585 151.017487 39251.929688
2.000000 -7.960000 2.080000 18.288914 140.604553 20104.125000
2.000000 -7.960000 2.120000 -28.828691 67.028793 5323.952637
2.000000 -7.960000 2.160000 -0.358679 9.340096 87.366028
2.000000 -7.960000 2.200000 48.560562 14.719948 2574.804932
2.000000 -7.920000 1.800000 -28.934401 -6.733474 882.539185
2.000000 -7.920000 1.840000 -12.404556 -78.406799 6301.499023
2.000000 -7.920000 1.880000 74.465164 -115.370979 18855.523438
2.000000 -7.920000 1.920000 174.402847 -64.497345 34576.261719
2.000000 -7.920000 1.960000 206.294342 54.139580 45488.449219
2.000000 -7.920000 2.000000 140.397858 159.257904 45074.640625
2.000000 -7.920000 2.040000 27.264391 180.479782 33316.296875
2.000000 -7.920000 2.080000 -49.269073 120.400772 16923.787109
2.000000 -7.920000 2.120000 -48.281361 46.337269 4478.232422
2.000000 -7.920000 2.160000 -2.516970 22.720282 522.546326
2.000000 -7.920000 2.200000 22.606203 53.225693 3344.014648
2.000000 -7.880000 1.800000 -26.344210 -9.203423 778.720398
2.000000 -7.880000 1.840000 14.755901 -56.233353 3379.926514
2.000000 -7.880000 1.880000 91.749855 -47.727207 10695.921875
2.000000 -7.880000 1.920000 140.488800 28.217644 20533.339844
2.000000 -7.880000 1.960000 113.840553 121.928436 27826.214844
2.000000 -7.880000 2.000000 27.390503 165.536972 28152.728516
2.000000 -7.880000 2.040000 -54.813076 134.853439 21189.921875
2.000000 -7.880000 2.080000 -80.259476 68.362991 11115.082031
2.000000 -7.880000 2.120000 -53.502083 26.038029 3540.451904
2.000000 -7.880000 2.160000 -23.638226 31.628195 1559.108398
2.000000 -7.880000 2.200000 -30.614193 56.125732 4087.326660
2.000000 -7.840000 1.800000 -28.192177 -16.427891 1064.674438
2.000000 -7.840000 1.840000 14.817127 -34.313667 1396.974976
2.000000 -7.840000 1.880000 60.101109 -4.615799 3633.448975
2.000000 -7.840000 1.920000 65.105011 55.524986 7321.686523
2.000000 -7.840000 1.960000 21.101448 100.474854 10540.467773
2.000000 -7.840000 2.000000 -39.073837 98.699654 11268.386719
2.000000 -7.840000 2.040000 -73.586609 60.261250 9046.407227
2.000000 -7.840000 2.080000 -70.357147 22.532322 5457.833496
2.000000 -7.840000 2.120000 -53.111717 11.124180 2944.601807
2.000000 -7.840000 2.160000 -51.503231 17.283598 2951.305420
2.000000 -7.840000 2.200000 -69.126991 12.982492 4947.085938
2.000000 -7.800000 1.800000 -23.327883 -29.970928 1442.446655
2.000000 -7.800000 1.840000 5.681816 -30.232086 946.262085
2.000000 -7.800000 1.880000 23.146938 -6.502827 578.067505
2.000000 -7.800000 1.920000 15.477623 21.500301 701.819763
2.000000 -7.800000 1.960000 -8.710938 33.509899 1198.793701
2.000000 -7.800000 2.000000 -30.411949 26.721661 1638.933838
2.000000 -7.800000 2.040000 -40.124256 13.690025 1797.372681
2.000000 -7.800000 2.080000 -44.028812 4.997425 1963.510620
2.000000 -7.800000 2.120000 -51.634132 -2.440687 2672.040771
2.000000 -7.800000 2.160000 -61.137272 -18.803076 4091.321777
2.000000 -7.800000 2.200000 -59.991524 -45.665916 5684.358887
2.040000 -8.200000 1.800000 53.941608 -24.693516 3519.466797
2.040000 -8.200000 1.840000 56.842178 3.480500 3243.146973
2.040000 -8.200000 1.880000 41.803761 25.059643 2375.540039
2.040000 -8.200000 1.920000 20.079014 31.080431 1369.159912
2.040000 -8.200000 1.960000 3.503558 24.308453 603.175781
2.040000 -8.200000 2.000000 -3.935860 13.056053 185.951523
2.040000 -8.200000 2.040000 -4.612932 2.646173 28.281378
2.040000 -8.200000 2.080000 -0.574501 -5.902066 35.164433
2.040000 -8.200000 2.120000 8.544585 -10.821114 190.106430
2.040000 -8.200000 2.160000 20.670916 -7.297367 480.538300
2.040000 -8.200000 2.200000 27.567455 7.028371 809.362610
2.040000 -8.160000 1.800000 58.257080 15.188293 3624.571777
2.040000 -8.160000 1.840000 41.800201 44.946384 3767.434326
2.040000 -8.160000 1.880000 7.998310 55.638767 3159.645264
2.040000 -8.160000 1.920000 -23.199722 40.665394 2191.901367
2.040000 -8.160000 1.960000 -34.840771 11.009926 1335.097778
2.040000 -8.160000 2.000000 -24.752319 -15.001445 837.720642
2.040000 -8.160000 2.040000 -3.710583 -25.570541 667.621033
2.040000 -8.160000 2.080000 15.262281 -20.659824 659.765564
2.040000 -8.160000 2.120000 25.004679 -7.110447 675.792419
2.040000 -8.160000 2.160000 24.278040 8.051741 654.253723
2.040000 -8.160000 2.200000 14.350925 19.410858 582.730469
2.040000 -8.120000 1.800000 33.163437 47.807014 3385.324219
2.040000 -8.120000 1.840000 -4.926499 66.404915 4433.883301
2.040000 -8.120000 1.880000 -50.610641 49.435257 5005.281738
2.040000 -8.120000 1.920000 -71.827881 1.732174 5162.245117
2.040000 -8.120000 1.960000 -52.726532 -47.208717 5008.750000
2.040000 -8.120000 2.000000 -6.942142 -67.059731 4545.200684
2.040000 -8.120000 2.040000 34.695721 -50.246387 3728.492676
2.040000 -8.120000 2.080000 49.213417 -14.688583 2637.714844
2.040000 -8.120000 2.120000 36.397888 13.957773 1519.625732
2.040000 -8.120000 2.160000 13.062558 22.066740 657.571411
2.040000 -8.120000 2.200000 -3.815342 13.283535 191.009140
2.040000 -8.080000 1.800000 -6.294958 53.993866 2954.964111
2.040000 -8.080000 1.840000 -57.946083 46.315277 5502.853516
2.040000 -8.080000 1.880000 -92.854301 -7.481453 8677.892578
2.040000 -8.080000 1.920000 -75.257629 -77.988113 11745.857422
2.040000 -8.080000 1.960000 -8.658764 -116.010880 13533.499023
2.040000 -8.080000 2.000000 64.009163 -94.641800 13054.243164
2.040000 -8.080000 2.040000 96.026169 -32.196541 10257.642578
2.040000 -8.080000 2.080000 74.877167 25.041067 6233.645508
2.040000 -8.080000 2.120000 28.189299 42.539406 2604.237549
2.040000 -8.080000 2.160000 -4.670906 22.384144 522.867249
2.040000 -8.080000 2.200000 -5.813370 -6.469414 75.648582
2.040000 -8.040000 1.800000 -36.267326 33.390789 2430.263672
2.040000 -8.040000 1.840000 -81.760101 -7.701044 6744.020508
2.040000 -8.040000 1.880000 -78.706779 -85.888412 13571.576172
2.040000 -8.040000 1.920000 -8.544329 -144.614777 20986.439453
2.040000 -8.040000 1.960000 89.721985 -132.818558 25690.804688
2.040000 -8.040000 2.000000 149.175018 -52.924412 25054.179688
2.040000 -8.040000 2.040000 132.542358 38.977676 19086.736328
2.040000 -8.040000 2.080000 63.016953 81.741928 10652.878906
2.040000 -8.040000 2.120000 0.121010 60.086697 3610.425781
2.040000 -8.040000 2.160000 -14.013402 10.944360 316.154449
2.040000 -8.040000 2.200000 13.699171 -16.338676 454.619629
2.040000 -8.000000 1.800000 -42.690514 3.493444 1834.684082
2.040000 -8.000000 1.840000 -60.282387 -61.318642 7393.941895
2.040000 -8.000000 1.880000 -8.622005 -131.780136 17440.343750
2.040000 -8.000000 1.920000 94.784927 -141.267731 28940.753906
2.040000 -8.000000 1.960000 179.419495 -65.299232 36455.343750
2.040000 -8.000000 2.000000 182.121002 50.045059 35672.566406
2.040000 -8.000000 2.040000 104.279991 125.723022 26680.593750
2.040000 -8.000000 2.080000 9.933895 118.559258 14154.980469
2.040000 -8.000000 2.120000 -32.952457 55.418938 4157.123047
2.040000 -8.000000 2.160000 -10.465004 2.108194 113.960793
2.040000 -8.000000 2.200000 33.936497 0.903024 1152.501221
2.040000 -7.960000 1.800000 -30.830267 -16.133549 1210.796753
2.040000 -7.960000 1.840000 -11.525717 -81.136826 6716.026855
2.040000 -7.960000 1.880000 71.311829 -112.619316 17768.488281
2.040000 -7.960000 1.920000 164.573914 -62.224762 30956.492188
2.040000 -7.960000 1.960000 192.967407 50.924328 39829.710938
2.040000 -7.960000 2.000000 128.638092 150.502594 39198.789062
2.040000 -7.960000 2.040000 19.060287 169.532410 29104.533203
2.040000 -7.960000 2.080000 -55.618668 109.286270 15036.925781
2.040000 -7.960000 2.120000 -54.232147 33.470337 4061.389160
2.040000 -7.960000 2.160000 -5.744345 5.793530 66.562485
2.040000 -7.960000 2.200000 26.814257 33.831562 1863.578857
2.040000 -7.920000 1.800000 -17.365265 -20.002111 701.636902
2.040000 -7.920000 1.840000 28.333685 -62.581581 4719.251953
2.040000 -7.920000 1.880000 107.729622 -47.170959 13830.771484
2.040000 -7.920000 1.920000 154.535721 37.265358 25269.996094
2.040000 -7.920000 1.960000 120.027199 137.587769 33336.921875
2.040000 -7.920000 2.000000 21.847000 181.029633 33249.019531
2.040000 -7.920000 2.040000 -69.635269 141.329483 24823.093750
2.040000 -7.920000 2.080000 -95.303558 61.038864 12808.511719
2.040000 -7.920000 2.120000 -58.502010 8.605721 3496.543457
2.040000 -7.920000 2.160000 -14.433840 14.414503 416.113617
2.040000 -7.920000 2.200000 -12.146673 48.853271 2534.183838
2.040000 -7.880000 1.800000 -13.152331 -18.205183 504.412506
2.040000 -7.880000 1.840000 37.060387 -31.044298 2337.220703
2.040000 -7.880000 1.880000 86.171249 11.873291 7566.459473
2.040000 -7.880000 1.920000 83.094780 88.601852 14755.031250
2.040000 -7.880000 1.960000 18.243809 141.280197 20292.929688
2.040000 -7.880000 2.000000 -64.364182 129.266632 20852.609375
2.040000 -7.880000 2.040000 -107.346741 66.769669 15981.510742
2.040000 -7.880000 2.080000 -92.424759 7.130367 8593.177734
2.040000 -7.880000 2.120000 -52.798916 -9.307641 2874.357666
2.040000 -7.880000 2.160000 -35.382278 9.533445 1342.792236
2.040000 -7.880000 2.200000 -53.808624 22.547215 3403.745117
2.040000 -7.840000 1.800000 -13.866484 -22.763765 710.468384
2.040000 -7.840000 1.840000 23.496450 -15.481514 791.760498
2.040000 -7.840000 1.880000 40.125629 26.084778 2290.481934
2.040000 -7.840000 1.920000 14.013870 69.464188 5021.662109
2.040000 -7.840000 1.960000 -38.752594 78.133675 7606.634766
2.040000 -7.840000 2.000000 -79.344254 46.213634 8431.210938
2.040000 -7.840000 2.040000 -83.527252 1.993660 6980.776367
2.040000 -7.840000 2.080000 -62.227909 -22.202059 4365.244141
2.040000 -7.840000 2.120000 -45.525436 -21.189482 2521.559570
2.040000 -7.840000 2.160000 -49.193123 -17.282494 2718.647949
2.040000 -7.840000 2.200000 -59.919922 -32.110992 4621.512695
2.040000 -7.800000 1.800000 -7.408464 -33.514210 1178.087646
2.040000 -7.800000 1.840000 13.728063 -21.449133 648.525024
2.040000 -7.800000 1.880000 15.200714 2.714251 238.428864
2.040000 -7.800000 1.920000 -3.339096 17.655472 322.865265
2.040000 -7.800000 1.960000 -25.207417 13.065266 806.114990
2.040000 -7.800000 2.000000 -35.376774 -2.790543 1259.303223
2.040000 -7.800000 2.040000 -34.516415 -15.737724 1439.058838
2.040000 -7.800000 2.080000 -33.603542 -22.507095 1635.767334
2.040000 -7.800000 2.120000 -37.294456 -32.202328 2427.866211
2.040000 -7.800000 2.160000 -36.616829 -51.807022 4024.759766
2.040000 -7.800000 2.200000 -19.720617 -73.962364 5859.333984
2.080000 -8.200000 1.800000 43.621483 10.247328 2007.841431
2.080000 -8.200000 1.840000 33.305904 33.908142 2259.045410
2.080000 -8.200000 1.880000 9.827652 43.259480 1967.965332
2.080000 -8.200000 1.920000 -11.481055 34.640488 1331.778076
2.080000 -8.200000 1.960000 -19.771900 17.128963 684.329468
2.080000 -8.200000 2.000000 -15.679826 2.539660 252.306808
2.080000 -8.200000 2.040000 -6.686714 -4.114035 61.637432
2.080000 -8.200000 2.080000 1.700623 -4.725193 25.219566
2.080000 -8.200000 2.120000 8.606620 -1.608342 76.660667
2.080000 -8.200000 2.160000 13.224138 5.756749 208.018005
2.080000 -8.200000 2.200000 11.393574 16.748596 410.328979
2.080000 -8.160000 1.800000 31.178612 35.623978 2241.173584
2.080000 -8.160000 1.840000 6.055564 53.367359 2884.744873
2.080000 -8.160000 1.880000 -26.135361 46.833698 2876.452393
2.080000 -8.160000 1.920000 -43.967503 19.311687 2306.082520
2.080000 -8.160000 1.960000 -37.616302 -10.740467 1530.343872
2.080000 -8.160000 2.000000 -15.094292 -25.792166 893.073486
2.080000 -8.160000 2.040000 7.226908 -21.898623 531.777893
2.080000 -8.160000 2.080000 18.357769 -7.471886 392.836761
2.080000 -8.160000 2.120000 17.715866 7.040227 363.416687
2.080000 -8.160000 2.160000 10.007249 16.421787 369.820129
2.080000 -8.160000 2.200000 -0.935202 19.556864 383.345520
2.080000 -8.120000 1.800000 3.504237 46.848671 2207.077637
2.080000 -8.120000 1.840000 -33.215736 47.757603 3384.073730
2.080000 -8.120000 1.880000 -61.734673 16.613157 4087.166748
2.080000 -8.120000 1.920000 -57.920792 -28.460751 4164.832520
2.080000 -8.120000 1.960000 -22.489965 -56.830948 3735.555176
2.080000 -8.120000 2.000000 19.970964 -51.280251 3028.503418
2.080000 -8.120000 2.040000 42.599457 -20.626482 2240.165527
2.080000 -8.120000 2.080000 37.102840 10.946831 1496.453857
2.080000 -8.120000 2.120000 15.805489 25.087339 879.188049
2.080000 -8.120000 2.160000 -3.161768 20.746422 440.410797
2.080000 -8.120000 2.200000 -10.667095 8.577207 187.355392
2.080000 -8.080000 1.800000 -24.495155 36.607147 1940.095947
2.080000 -8.080000 1.840000 -60.065582 12.775827 3771.095947
2.080000 -8.080000 1.880000 -65.136452 -39.032192 5766.269531
2.080000 -8.080000 1.920000 -25.366262 -82.050591 7375.746582
2.080000 -8.080000 1.960000 36.060558 -82.036858 8030.409668
2.080000 -8.080000 2.000000 77.242210 -38.027534 7412.452148
2.080000 -8.080000 2.040000 73.380356 17.296144 5683.833496
2.080000 -8.080000 2.080000 35.728127 46.852867 3471.690186
2.080000 -8.080000 2.120000 -2.282590 39.272480 1547.537842
2.080000 -8.080000 2.160000 -15.568192 12.880159 408.267120
2.080000 -8.080000 2.200000 -5.052783 -5.930338 60.699528
2.080000 -8.040000 1.800000 -37.213169 11.808108 1524.251343
2.080000 -8.040000 1.840000 -54.043053 -32.809017 3997.083252
2.080000 -8.040000 1.880000 -22.969942 -84.496529 7667.281738
2.080000 -8.040000 1.920000 46.086693 -96.784424 11491.208008
2.080000 -8.040000 1.960000 106.062531 -50.768723 13826.723633
2.080000 -8.040000 2.000000 113.132149 24.775734 13412.719727
2.080000 -8.040000 2.040000 65.488998 77.502411 10295.432617
2.080000 -8.040000 2.080000 3.403800 76.816666 5912.386230
2.080000 -8.040000 2.120000 -28.152182 37.257423 2180.660889
2.080000 -8.040000 2.160000 -17.257727 0.010323 297.829224
2.080000 -8.040000 2.200000 11.262087 -6.257142 165.986420
2.080000 -8.000000 1.800000 -30.456379 -11.212251 1053.305542
2.080000 -8.000000 1.840000 -18.087601 -59.577343 3876.621094
2.080000 -8.000000 1.880000 41.464115 -85.031326 8949.599609
2.080000 -8.000000 1.920000 110.534027 -51.149590 14834.051758
2.080000 -8.000000 1.960000 133.947769 29.856018 18833.386719
2.080000 -8.000000 2.000000 89.665207 103.235451 18697.408203
2.080000 -8.000000 2.040000 10.348153 119.171593 14308.952148
2.080000 -8.000000 2.080000 -45.891418 76.125160 7901.062500
2.080000 -8.000000 2.120000 -46.909416 18.696072 2550.036621
2.080000 -8.000000 2.160000 -10.725175 -5.836267 149.091385
2.080000 -8.000000 2.200000 17.921494 11.464121 452.606018
2.080000 -7.960000 1.800000 -14.423422 -20.119236 612.818726
2.080000 -7.960000 1.840000 21.768997 -52.366566 3216.146484
2.080000 -7.960000 1.880000 84.175644 -39.418777 8639.378906
2.080000 -7.960000 1.920000 120.840469 27.914597 15381.643555
2.080000 -7.960000 1.960000 92.733429 107.970619 20257.144531
2.080000 -7.960000 2.000000 13.148659 142.431900 20459.732422
2.080000 -7.960000 2.040000 -61.610565 109.044662 15686.599609
2.080000 -7.960000 2.080000 -82.519966 41.068520 8496.167969
2.080000 -7.960000 2.120000 -50.071198 -5.289837 2535.107178
2.080000 -7.960000 2.160000 -8.311762 -2.390548 74.800110
2.080000 -7.960000 2.200000 0.444792 28.553194 815.482727
2.080000 -7.920000 1.800000 -3.692531 -16.650492 290.873657
2.080000 -7.920000 1.840000 38.849194 -23.707222 2071.292236
2.080000 -7.920000 1.880000 78.715225 16.620480 6472.327148
2.080000 -7.920000 1.920000 71.818344 84.825485 12353.237305
2.080000 -7.920000 1.960000 10.223003 129.577530 16894.845703
2.080000 -7.920000 2.000000 -66.039429 114.390358 17446.359375
2.080000 -7.920000 2.040000 -103.975189 52.261745 13542.129883
2.080000 -7.920000 2.080000 -85.569855 -6.848125 7369.097168
2.080000 -7.920000 2.120000 -41.269955 -23.066402 2235.268066
2.080000 -7.920000 2.160000 -17.149487 -1.139698 295.403809
2.080000 -7.920000 2.200000 -30.477306 20.311977 1341.442627
2.080000 -7.880000 1.800000 -3.163915 -13.162885 183.271896
2.080000 -7.880000 1.840000 29.456537 -1.243176 869.233032
2.080000 -7.880000 1.880000 39.497963 42.267864 3346.661621
2.080000 -7.880000 1.920000 5.840820 84.042091 7097.188477
2.080000 -7.880000 1.960000 -53.429802 86.363449 10313.388672
2.080000 -7.880000 2.000000 -95.732628 43.863003 11088.699219
2.080000 -7.880000 2.040000 -93.666702 -10.951248 8893.380859
2.080000 -7.880000 2.080000 -59.431221 -39.260002 5073.417969
2.080000 -7.880000 2.120000 -29.794102 -32.086460 1917.229370
2.080000 -7.880000 2.160000 -28.411905 -14.707712 1023.553223
2.080000 -7.880000 2.200000 -44.731037 -17.065531 2292.098145
2.080000 -7.840000 1.800000 -4.097854 -18.528080 360.082153
2.080000 -7.840000 1.840000 13.925972 -0.878212 194.703949
2.080000 -7.840000 1.880000 6.318535 28.110119 830.102661
2.080000 -7.840000 1.920000 -26.198418 40.275593 2308.480469
2.080000 -7.840000 1.960000 -58.654236 21.538567 3904.229248
2.080000 -7.840000 2.000000 -66.444168 -14.255497 4618.046875
2.080000 -7.840000 2.040000 -48.913578 -40.317894 4018.070801
2.080000 -7.840000 2.080000 -27.218964 -44.080360 2683.950195
2.080000 -7.840000 2.120000 -20.053392 -37.475880 1806.580078
2.080000 -7.840000 2.160000 -24.310509 -40.516289 2232.570557
2.080000 -7.840000 2.200000 -21.027803 -57.633888 3763.833496
2.080000 -7.800000 1.800000 5.182908 -27.798740 799.632507
2.080000 -7.800000 1.840000 13.992956 -12.844952 360.795593
2.080000 -7.800000 1.880000 5.617241 1.105392 32.775288
2.080000 -7.800000 1.920000 -10.165569 0.736473 103.881187
2.080000 -7.800000 1.960000 -18.445713 -11.742496 478.130554
2.080000 -7.800000 2.000000 -15.304531 -23.756992 798.623413
2.080000 -7.800000 2.040000 -9.508995 -28.356304 894.500977
2.080000 -7.800000 2.080000 -8.920256 -31.582558 1077.028931
2.080000 -7.800000 2.120000 -8.860936 -42.648964 1897.450317
2.080000 -7.800000 2.160000 2.881688 -59.304329 3525.307617
2.080000 -7.800000 2.200000 29.947020 -66.830856 5363.187500
2.120000 -8.200000 1.800000 14.338371 25.270485 844.186279
2.120000 -8.200000 1.840000 -1.936248 37.227592 1389.642700
2.120000 -8.200000 1.880000 -22.367561 32.977833 1587.845215
2.120000 -8.200000 1.920000 -33.099174 15.958948 1350.243286
2.120000 -8.200000 1.960000 -29.320831 -1.546921 862.104065
2.120000 -8.200000 2.000000 -17.355589 -9.905463 399.334656
2.120000 -8.200000 2.040000 -6.596140 -8.839216 121.640808
2.120000 -8.200000 2.080000 -1.063440 -3.956287 16.783115
2.120000 -8.200000 2.120000 0.902068 0.865922 1.563547
2.120000 -8.200000 2.160000 0.865551 5.866034 35.159527
2.120000 -8.200000 2.200000 -2.819061 11.031156 129.633499
2.120000 -8.160000 1.800000 0.682623 31.468626 990.740417
2.120000 -8.160000 1.840000 -22.780014 35.566212 1783.884521
2.120000 -8.160000 1.880000 -42.747299 18.942898 2186.165039
2.120000 -8.160000 1.920000 -44.044212 -7.521087 1996.459473
2.120000 -8.160000 1.960000 -26.824703 -25.883865 1389.539185
2.120000 -8.160000 2.000000 -4.578794 -26.606827 728.888550
2.120000 -8.160000 2.040000 8.988807 -14.298425 285.243591
2.120000 -8.160000 2.080000 10.249010 -0.254221 105.106834
2.120000 -8.160000 2.120000 4.375498 8.283400 87.759689
2.120000 -8.160000 2.160000 -2.868378 11.141267 132.355408
2.120000 -8.160000 2.200000 -9.712226 10.268921 199.778076
2.120000 -8.120000 1.800000 -15.131617 28.173553 1022.714905
2.120000 -8.120000 1.840000 -40.429184 18.523523 1977.639893
2.120000 -8.120000 1.880000 -49.778946 -10.956663 2597.991943
2.120000 -8.120000 1.920000 -32.589005 -39.146286 2594.475098
2.120000 -8.120000 1.960000 -0.269702 -45.442051 2065.052734
2.120000 -8.120000 2.000000 24.614695 -27.408739 1357.122070
2.120000 -8.120000 2.040000 28.045877 -0.742602 787.122681
2.120000 -8.120000 2.080000 14.050945 16.311626 463.498230
2.120000 -8.120000 2.120000 -2.878174 17.533981 315.724365
2.120000 -8.120000 2.160000 -12.063505 9.461020 235.039062
2.120000 -8.120000 2.200000 -13.016800 1.228945 170.947372
2.120000 -8.080000 1.800000 -25.747093 15.530339 904.104248
2.120000 -8.080000 1.840000 -42.466072 -8.348160 1873.059082
2.120000 -8.080000 1.880000 -31.674982 -41.354645 2713.511230
2.120000 -8.080000 1.920000 4.173699 -55.631908 3112.328857
2.120000 -8.080000 1.960000 39.858719 -37.441944 2990.616699
2.120000 -8.080000 2.000000 49.839603 0.236743 2484.042236
2.120000 -8.080000 2.040000 30.262920 30.004185 1816.095459
2.120000 -8.080000 2.080000 -0.018051 34.255730 1173.455322
2.120000 -8.080000 2.120000 -18.357199 17.882473 656.769592
2.120000 -8.080000 2.160000 -17.267601 -0.511667 298.431854
2.120000 -8.080000 2.200000 -6.353943 -7.253616 92.987541
2.120000 -8.040000 1.800000 -25.646084 -0.169842 657.750488
2.120000 -8.040000 1.840000 -24.975336 -29.688404 1505.168701
2.120000 -8.040000 1.880000 5.253478 -50.363167 2564.047607
2.120000 -8.040000 1.920000 45.717236 -38.324451 3558.829102
2.120000 -8.040000 1.960000 64.271805 3.063048 4140.247070
2.120000 -8.040000 2.000000 45.380013 44.583233 4047.010254
2.120000 -8.040000 2.040000 4.219083 57.087093 3276.736816
2.120000 -8.040000 2.080000 -27.856058 36.678379 2121.263428
2.120000 -8.040000 2.120000 -31.402267 5.469519 1016.018066
2.120000 -8.040000 2.160000 -13.383331 -10.837448 296.563843
2.120000 -8.040000 2.200000 3.763268 -5.258196 41.810806
2.120000 -8.000000 1.800000 -16.436531 -10.065473 371.473267
2.120000 -8.000000 1.840000 1.122410 -31.941128 1021.495483
2.120000 -8.000000 1.880000 37.182407 -29.379917 2245.710938
2.120000 -8.000000 1.920000 61.633972 6.093018 3835.871338
2.120000 -8.000000 1.960000 49.452217 52.155151 5165.681641
2.120000 -8.000000 2.000000 5.563376 74.179718 5533.581543
2.120000 -8.000000 2.040000 -38.268974 56.611248 4669.347656
2.120000 -8.000000 2.080000 -51.925819 16.579544 2971.172119
2.120000 -8.000000 2.120000 -32.956551 -13.067731 1256.899902
2.120000 -8.000000 2.160000 -5.596128 -13.809420 222.016724
2.120000 -8.000000 2.200000 4.239056 4.625016 39.360367
2.120000 -7.960000 1.800000 -6.495136 -10.361044 149.538025
2.120000 -7.960000 1.840000 17.681223 -16.264002 577.143433
2.120000 -7.960000 1.880000 42.058662 6.226761 1807.703613
2.120000 -7.960000 1.920000 38.957390 46.804626 3708.351318
2.120000 -7.960000 1.960000 1.881391 74.105453 5495.157715
2.120000 -7.960000 2.000000 -45.310482 64.272003 6183.930664
2.120000 -7.960000 2.040000 -68.843071 23.929678 5311.998047
2.120000 -7.960000 2.080000 -55.527260 -15.593823 3326.443848
2.120000 -7.960000 2.120000 -23.432156 -27.204138 1289.131104
2.120000 -7.960000 2.160000 -2.987983 -11.491616 140.985291
2.120000 -7.960000 2.200000 -8.314163 7.378456 123.566925
2.120000 -7.920000 1.800000 -3.217317 -6.331508 50.439129
2.120000 -7.920000 1.840000 15.707786 1.482294 248.931717
2.120000 -7.920000 1.880000 20.164644 29.048119 1250.406128
2.120000 -7.920000 1.920000 -3.823954 54.638992 3000.041992
2.120000 -7.920000 1.960000 -44.117165 53.003410 4755.685547
2.120000 -7.920000 2.000000 -71.444244 20.501354 5524.585938
2.120000 -7.920000 2.040000 -66.346024 -20.017469 4802.494141
2.120000 -7.920000 2.080000 -37.111473 -40.227962 2995.550293
2.120000 -7.920000 2.120000 -10.772349 -32.239742 1155.444458
2.120000 -7.920000 2.160000 -6.747019 -13.722031 233.816406
2.120000 -7.920000 2.200000 -19.891020 -8.337145 465.160675
2.120000 -7.880000 1.800000 -5.000059 -6.897090 72.570442
2.120000 -7.880000 1.840000 4.019146 5.794230 49.726639
2.120000 -7.880000 1.880000 -5.626640 24.546289 634.179382
2.120000 -7.880000 1.920000 -32.218319 28.517775 1851.283447
2.120000 -7.880000 1.960000 -55.665932 8.029274 3163.165283
2.120000 -7.880000 2.000000 -56.573807 -24.451895 3798.490723
2.120000 -7.880000 2.040000 -35.264679 -45.917492 3352.013672
2.120000 -7.880000 2.080000 -10.824944 -45.044838 2146.216797
2.120000 -7.880000 2.120000 -1.423963 -31.948483 1022.733154
2.120000 -7.880000 2.160000 -6.831841 -25.843348 714.552673
2.120000 -7.880000 2.200000 -10.965496 -34.576580 1315.781982
2.120000 -7.840000 1.800000 -2.422067 -14.047728 203.205063
2.120000 -7.840000 1.840000 0.003342 -2.911151 8.474814
2.120000 -7.840000 1.880000 -11.770109 4.240517 156.517456
2.120000 -7.840000 1.920000 -26.966240 -4.115738 744.117371
2.120000 -7.840000 1.960000 -30.116257 -23.797096 1473.290771
2.120000 -7.840000 2.000000 -17.608650 -39.372021 1860.220581
2.120000 -7.840000 2.040000 -0.920073 -40.889400 1672.789673
2.120000 -7.840000 2.080000 6.847340 -33.939468 1198.773682
2.120000 -7.840000 2.120000 5.631085 -31.929266 1051.187134
2.120000 -7.840000 2.160000 7.649801 -39.703846 1634.914795
2.120000 -7.840000 2.200000 22.301525 -47.379883 2742.211426
2.120000 -7.800000 1.800000 10.870815 -18.719189 468.582642
2.120000 -7.800000 1.840000 10.947803 -8.932655 199.646729
2.120000 -7.800000 1.880000 3.455987 -6.838207 58.704926
2.120000 -7.800000 1.920000 -0.343609 -13.895773 193.210571
2.120000 -7.800000 1.960000 4.722061 -20.969898 462.034485
2.120000 -7.800000 2.000000 12.229282 -20.727993 579.205017
2.120000 -7.800000 2.040000 13.610710 -17.230444 482.139648
2.120000 -7.800000 2.080000 10.732948 -20.425201 532.385010
2.120000 -7.800000 2.120000 15.321951 -31.834181 1248.177246
2.120000 -7.800000 2.160000 34.602829 -39.228706 2736.247070
2.120000 -7.800000 2.200000 59.773407 -28.440039 4381.695801
2.160000 -8.200000 1.800000 -11.597874 13.509322 317.012451
2.160000 -8.200000 1.840000 -23.423775 15.033066 774.666260
2.160000 -8.200000 1.880000 -33.002403 5.692323 1121.561157
2.160000 -8.200000 1.920000 -32.748432 -8.210007 1139.864014
2.160000 -8.200000 1.960000 -23.538401 -17.525309 861.192749
2.160000 -8.200000 2.000000 -12.533704 -18.322924 492.823242
2.160000 -8.200000 2.040000 -5.772580 -13.753066 222.469498
2.160000 -8.200000 2.080000 -3.671723 -8.996580 94.420006
2.160000 -8.200000 2.120000 -3.311752 -5.903995 45.824856
2.160000 -8.200000 2.160000 -3.386407 -3.162186 21.467175
2.160000 -8.200000 2.200000 -5.274031 -0.483658 28.049324
2.160000 -8.160000 1.800000 -13.666697 8.666769 261.891479
2.160000 -8.160000 1.840000 -27.455074 6.191314 792.113525
2.160000 -8.160000 1.880000 -34.334278 -7.993100 1242.732300
2.160000 -8.160000 1.920000 -27.735889 -23.291471 1311.772217
2.160000 -8.160000 1.960000 -12.557435 -28.953205 995.977295
2.160000 -8.160000 2.000000 0.605171 -23.167040 537.077942
2.160000 -8.160000 2.040000 5.304612 -12.594088 186.749939
2.160000 -8.160000 2.080000 3.062001 -4.508896 29.705994
2.160000 -8.160000 2.120000 -1.128714 -0.827158 1.958184
2.160000 -8.160000 2.160000 -4.854705 0.483600 23.802029
2.160000 -8.160000 2.200000 -8.785904 0.392221 77.345947
2.160000 -8.120000 1.800000 -13.898211 5.575336 224.244629
2.160000 -8.120000 1.840000 -26.789413 -2.882715 725.982727
2.160000 -8.120000 1.880000 -27.192202 -20.114180 1143.996094
2.160000 -8.120000 1.920000 -13.222666 -31.873543 1190.761597
2.160000 -8.120000 1.960000 4.583114 -29.120872 869.030151
2.160000 -8.120000 2.000000 13.716852 -15.390062 425.006042
2.160000 -8.120000 2.040000 10.519079 -1.781443 113.824562
2.160000 -8.120000 2.080000 1.115630 3.805156 15.723841
2.160000 -8.120000 2.120000 -6.519363 1.978599 46.416946
2.160000 -8.120000 2.160000 -9.671056 -2.065287 97.794731
2.160000 -8.120000 2.200000 -10.470197 -5.273541 137.435257
2.160000 -8.080000 1.800000 -14.295820 3.342456 215.542496
2.160000 -8.080000 1.840000 -21.927958 -9.831430 577.492371
2.160000 -8.080000 1.880000 -14.335788 -24.915245 826.284241
2.160000 -8.080000 1.920000 3.278101 -27.968456 792.980530
2.160000 -8.080000 1.960000 16.558891 -16.013264 530.621460
2.160000 -8.080000 2.000000 15.605304 0.854452 244.255600
2.160000 -8.080000 2.040000 3.260165 9.686540 104.457726
2.160000 -8.080000 2.080000 -9.227462 6.219071 123.822899
2.160000 -8.080000 2.120000 -13.422516 -3.313994 191.146484
2.160000 -8.080000 2.160000 -10.042179 -10.174175 204.359192
2.160000 -8.080000 2.200000 -5.416852 -11.389624 159.065811
2.160000 -8.040000 1.800000 -14.495594 0.768208 210.712402
2.160000 -8.040000 1.840000 -14.883657 -12.337100 373.727295
2.160000 -8.040000 1.880000 -2.783097 -20.045288 409.559204
2.160000 -8.040000 1.920000 11.106281 -13.788055 313.459961
2.160000 -8.040000 1.960000 13.840253 1.623259 194.187561
2.160000 -8.040000 2.000000 2.748103 12.707833 169.041092
2.160000 -8.040000 2.040000 -12.387438 10.246467 258.438690
2.160000 -8.040000 2.080000 -19.117859 -2.582079 372.159668
2.160000 -8.040000 2.120000 -13.755461 -14.369663 395.699951
2.160000 -8.040000 2.160000 -3.360856 -16.808954 293.836304
2.160000 -8.040000 2.200000 2.491676 -11.502674 138.519958
2.160000 -8.000000 1.800000 -13.805131 -1.679768 193.403259
2.160000 -8.000000 1.840000 -9.550797 -10.122018 193.672958
2.160000 -8.000000 1.880000 0.427621 -9.878575 97.769112
2.160000 -8.000000 1.920000 5.044891 -0.071003 25.455965
2.160000 -8.000000 1.960000 -2.051691 9.741805 99.112198
2.160000 -8.000000 2.000000 -15.638862 8.940166 324.500549
2.160000 -8.000000 2.040000 -23.659883 -3.520029 572.180725
2.160000 -8.000000 2.080000 -18.849794 -17.926254 676.665344
2.160000 -8.000000 2.120000 -5.465375 -23.144043 565.517029
2.160000 -8.000000 2.160000 5.239656 -16.953899 314.888702
2.160000 -8.000000 2.200000 5.895955 -7.278271 87.735512
2.160000 -7.960000 1.800000 -13.007832 -3.538260 181.722977
2.160000 -7.960000 1.840000 -8.889997 -6.739141 124.448074
2.160000 -7.960000 1.880000 -5.404663 -3.370872 40.573158
2.160000 -7.960000 1.920000 -8.904168 1.939259 83.044937
2.160000 -7.960000 1.960000 -17.987431 0.934005 324.420044
2.160000 -7.960000 2.000000 -24.111313 -9.336237 668.520752
2.160000 -7.960000 2.040000 -19.909582 -22.621765 908.135742
2.160000 -7.960000 2.080000 -6.831534 -28.943701 884.407654
2.160000 -7.960000 2.120000 5.814942 -24.052769 612.349243
2.160000 -7.960000 2.160000 9.494083 -13.390748 269.449768
2.160000 -7.960000 2.200000 4.188562 -6.764566 63.303413
2.160000 -7.920000 1.800000 -12.564972 -6.248819 196.926270
2.160000 -7.920000 1.840000 -11.061409 -7.153206 173.523117
2.160000 -7.920000 1.880000 -12.745662 -6.399728 203.408401
2.160000 -7.920000 1.920000 -17.488857 -9.276028 391.904846
2.160000 -7.920000 1.960000 -19.747471 -18.029541 715.026978
2.160000 -7.920000 2.000000 -14.322197 -28.314360 1006.828247
2.160000 -7.920000 2.040000 -2.358685 -32.779205 1080.039673
2.160000 -7.920000 2.080000 8.989586 -28.270399 880.028076
2.160000 -7.920000 2.120000 13.122041 -19.090137 536.621338
2.160000 -7.920000 2.160000 10.062623 -12.922199 268.239624
2.160000 -7.920000 2.200000 6.034163 -13.635630 222.341507
2.160000 -7.880000 1.800000 -9.959394 -11.106050 222.533905
2.160000 -7.880000 1.840000 -9.932998 -12.012376 242.961624
2.160000 -7.880000 1.880000 -12.129275 -15.390932 384.000122
2.160000 -7.880000 1.920000 -11.813261 -23.204470 678.000488
2.160000 -7.880000 1.960000 -4.695431 -31.227533 997.205872
2.160000 -7.880000 2.000000 7.214732 -32.925186 1136.120239
2.160000 -7.880000 2.040000 16.699898 -26.695736 991.548889
2.160000 -7.880000 2.080000 18.615135 -18.168537 676.619019
2.160000 -7.880000 2.120000 15.366341 -14.546202 447.716400
2.160000 -7.880000 2.160000 14.297819 -17.052187 495.204712
2.160000 -7.880000 2.200000 19.764694 -19.808332 783.013184
2.160000 -7.840000 1.800000 -1.484224 -15.075336 229.468674
2.160000 -7.840000 1.840000 -1.556712 -15.033940 228.442719
2.160000 -7.840000 1.880000 -1.751700 -19.713203 391.678833
2.160000 -7.840000 1.920000 4.090983 -26.358000 711.480286
2.160000 -7.840000 1.960000 15.531393 -27.363840 990.003906
2.160000 -7.840000 2.000000 24.605469 -19.722609 994.410400
2.160000 -7.840000 2.040000 24.634918 -9.876335 704.421204
2.160000 -7.840000 2.080000 18.751080 -7.258798 404.293152
2.160000 -7.840000 2.120000 17.479956 -13.190642 479.541901
2.160000 -7.840000 2.160000 27.042261 -18.135553 1060.182129
2.160000 -7.840000 2.200000 41.346992 -11.467863 1841.085571
2.160000 -7.800000 1.800000 11.696667 -11.018259 258.214050
2.160000 -7.800000 1.840000 9.557726 -8.326164 160.675140
2.160000 -7.800000 1.880000 9.495468 -11.916794 232.173889
2.160000 -7.800000 1.920000 16.552067 -14.742479 491.311615
2.160000 -7.800000 1.960000 25.285324 -9.496746 729.535767
2.160000 -7.800000 2.000000 26.235058 0.832416 688.971191
2.160000 -7.800000 2.040000 18.777025 5.206624 379.685638
2.160000 -7.800000 2.080000 14.178974 -1.775549 204.195877
2.160000 -7.800000 2.120000 23.350353 -10.950242 665.146790
2.160000 -7.800000 2.160000 42.480667 -6.574411 1847.829956
2.160000 -7.800000 2.200000 54.030071 15.994320 3175.066895
2.200000 -8.200000 1.800000 -15.178016 -11.052901 352.538788
2.200000 -8.200000 1.840000 -17.585255 -10.898737 428.023651
2.200000 -8.200000 1.880000 -18.977629 -14.503922 570.514160
2.200000 -8.200000 1.920000 -16.751890 -19.306011 653.347900
2.200000 -8.200000 1.960000 -11.495579 -22.054562 618.552002
2.200000 -8.200000 2.000000 -5.799377 -21.573074 499.030304
2.200000 -8.200000 2.040000 -1.603020 -18.989416 363.167603
2.200000 -8.200000 2.080000 0.952044 -15.808016 250.799759
2.200000 -8.200000 2.120000 2.386266 -12.475287 161.327057
2.200000 -8.200000 2.160000 2.548235 -9.000540 87.503220
2.200000 -8.200000 2.200000 1.062726 -6.242881 40.102955
2.200000 -8.160000 1.800000 -4.109705 -13.278364 193.204636
2.200000 -8.160000 1.840000 -9.055665 -11.811372 221.513565
2.200000 -8.160000 1.880000 -12.061692 -15.948704 399.845581
2.200000 -8.160000 1.920000 -9.756350 -21.398769 553.093689
2.200000 -8.160000 1.960000 -3.655025 -23.570827 568.943115
2.200000 -8.160000 2.000000 2.311299 -21.322886 460.007538
2.200000 -8.160000 2.040000 5.611522 -16.628962 308.011536
2.200000 -8.160000 2.080000 6.204349 -11.690446 175.160461
2.200000 -8.160000 2.120000 4.815072 -7.359961 77.353935
2.200000 -8.160000 2.160000 1.557059 -4.187746 19.961649
2.200000 -8.160000 2.200000 -3.090847 -3.539058 22.078262
2.200000 -8.120000 1.800000 2.542284 -5.215031 33.659752
2.200000 -8.120000 1.840000 -6.001844 -5.068699 61.713852
2.200000 -8.120000 1.880000 -10.479962 -11.711462 246.987946
2.200000 -8.120000 1.920000 -7.823516 -18.985079 421.640625
2.200000 -8.120000 1.960000 -0.902766 -21.526119 464.188782
2.200000 -8.120000 2.000000 5.138438 -18.631050 373.519562
2.200000 -8.120000 2.040000 7.339684 -13.263170 229.782639
2.200000 -8.120000 2.080000 5.963483 -8.542108 108.530731
2.200000 -8.120000 2.120000 2.553712 -5.877543 41.066959
2.200000 -8.120000 2.160000 -1.635892 -5.694484 35.103291
2.200000 -8.120000 2.200000 -5.266684 -8.317621 96.920776
2.200000 -8.080000 1.800000 -1.294050 4.445696 21.438778
2.200000 -8.080000 1.840000 -12.163844 0.577763 148.292923
2.200000 -8.080000 1.880000 -16.253494 -10.094719 366.079437
2.200000 -8.080000 1.920000 -11.498779 -19.862812 526.753235
2.200000 -8.080000 1.960000 -2.334499 -23.016153 535.193176
2.200000 -8.080000 2.000000 4.895937 -19.621784 408.984619
2.200000 -8.080000 2.040000 6.984553 -13.944236 243.225693
2.200000 -8.080000 2.080000 5.023636 -10.144082 128.139328
2.200000 -8.080000 2.120000 1.987877 -9.617535 96.448624
2.200000 -8.080000 2.160000 0.076542 -11.501366 132.287277
2.200000 -8.080000 2.200000 0.090235 -14.397974 207.309799
2.200000 -8.040000 1.800000 -11.815584 6.619828 183.430161
2.200000 -8.040000 1.840000 -22.215744 -2.402036 499.309052
2.200000 -8.040000 1.880000 -23.145964 -16.930136 822.365112
2.200000 -8.040000 1.920000 -14.053758 -28.085052 986.278320
2.200000 -8.040000 1.960000 -1.184840 -30.267635 917.533630
2.200000 -8.040000 2.000000 7.975914 -24.844622 680.870483
2.200000 -8.040000 2.040000 10.444583 -17.717384 422.994995
2.200000 -8.040000 2.080000 8.736406 -13.793359 266.581543
2.200000 -8.040000 2.120000 7.213605 -13.633422 237.906281
2.200000 -8.040000 2.160000 8.017851 -14.633921 278.437561
2.200000 -8.040000 2.200000 10.229297 -14.492983 314.685059
2.200000 -8.000000 1.800000 -20.244236 -0.388398 409.979950
2.200000 -8.000000 1.840000 -27.257896 -13.693831 930.513916
2.200000 -8.000000 1.880000 -22.824781 -29.944950 1417.670654
2.200000 -8.000000 1.920000 -8.381683 -39.647194 1642.152588
2.200000 -8.000000 1.960000 7.920584 -38.084129 1513.136475
2.200000 -8.000000 2.000000 17.902184 -28.537786 1134.893433
2.200000 -8.000000 2.040000 19.508472 -18.578749 725.750366
2.200000 -8.000000 2.080000 16.967070 -13.319890 465.300903
2.200000 -8.000000 2.120000 15.575095 -12.080722 388.527435
2.200000 -8.000000 2.160000 16.755211 -10.961946 400.901367
2.200000 -8.000000 2.200000 18.043159 -7.832442 386.902771
2.200000 -7.960000 1.800000 -20.865700 -11.185522 560.493347
2.200000 -7.960000 1.840000 -22.600266 -26.279093 1201.362671
2.200000 -7.960000 1.880000 -12.436050 -40.932945 1830.161377
2.200000 -7.960000 1.920000 6.024778 -46.075062 2159.209229
2.200000 -7.960000 1.960000 23.254517 -38.723980 2040.319092
2.200000 -7.960000 2.000000 31.248014 -24.306187 1567.229126
2.200000 -7.960000 2.040000 29.471079 -11.699590 1005.424927
2.200000 -7.960000 2.080000 23.902697 -5.804626 605.032593
2.200000 -7.960000 2.120000 20.619980 -4.685644 447.138824
2.200000 -7.960000 2.160000 20.545013 -3.400475 433.660797
2.200000 -7.960000 2.200000 20.304558 0.155517 412.299255
2.200000 -7.920000 1.800000 -14.161275 -19.228682 570.283875
2.200000 -7.920000 1.840000 -10.575395 -32.697361 1180.956421
2.200000 -7.920000 1.880000 3.296525 -42.798588 1842.586182
2.200000 -7.920000 1.920000 22.499718 -41.941372 2265.315918
2.200000 -7.920000 1.960000 37.258606 -29.078791 2233.779785
2.200000 -7.920000 2.000000 40.463734 -11.356482 1766.283447
2.200000 -7.920000 2.040000 33.361786 1.500102 1115.259033
2.200000 -7.920000 2.080000 23.883612 5.081330 596.246765
2.200000 -7.920000 2.120000 19.187223 3.003277 377.169220
2.200000 -7.920000 2.160000 19.752934 2.095805 394.570770
2.200000 -7.920000 2.200000 20.603422 5.307572 452.671326
2.200000 -7.880000 1.800000 -4.008996 -21.104794 461.484375
2.200000 -7.880000 1.840000 2.456722 -29.947859 902.909729
2.200000 -7.880000 1.880000 16.326740 -34.650711 1467.234131
2.200000 -7.880000 1.920000 32.924873 -29.049952 1927.946899
2.200000 -7.880000 1.960000 43.000576 -13.157606 2022.172119
2.200000 -7.880000 2.000000 40.396187 4.789918 1654.795288
2.200000 -7.880000 2.040000 28.305908 14.463680 1010.422485
2.200000 -7.880000 2.080000 17.054716 12.597368 449.557007
2.200000 -7.880000 2.120000 14.729477 5.852385 251.207886
2.200000 -7.880000 2.160000 19.826204 4.038048 409.384186
2.200000 -7.880000 2.200000 23.529715 10.343839 660.642456
2.200000 -7.840000 1.800000 5.640521 -16.169193 293.258301
2.200000 -7.840000 1.840000 10.557924 -19.853127 505.616394
2.200000 -7.840000 1.880000 21.072227 -21.343920 899.601685
2.200000 -7.840000 1.920000 33.732098 -14.147819 1338.015137
2.200000 -7.840000 1.960000 39.264446 1.808216 1544.966431
2.200000 -7.840000 2.000000 32.035255 17.202272 1322.175781
2.200000 -7.840000 2.040000 17.641718 21.334217 766.379028
2.200000 -7.840000 2.080000 8.927892 13.503781 262.059357
2.200000 -7.840000 2.120000 13.135815 4.895300 196.513580
2.200000 -7.840000 2.160000 23.798698 7.538623 623.208862
2.200000 -7.840000 2.200000 26.934483 21.421509 1184.347412
2.200000 -7.800000 1.800000 10.905052 -5.056580 144.489166
2.200000 -7.800000 1.840000 10.362724 -6.932897 155.451111
2.200000 -7.800000 1.880000 16.948135 -9.387680 375.367828
2.200000 -7.800000 1.920000 27.121887 -3.413256 747.247070
2.200000 -7.800000 1.960000 29.949192 11.012118 1018.220825
2.200000 -7.800000 2.000000 20.391491 22.707928 931.462891
2.200000 -7.800000 2.040000 7.187117 21.376284 508.600128
2.200000 -7.800000 2.080000 4.518180 10.652533 133.890396
2.200000 -7.800000 2.120000 15.592688 6.005141 279.193634
2.200000 -7.800000 2.160000 27.004152 17.978878 1052.464355
2.200000 -7.800000 2.200000 22.011309 38.909142 1998.418945
