#kx 	ky 	kz 	real 	imag 	intensity
0.800000 2.800000 -9.200000 -27.243937 -17.935879 1063.927734
0.800000 2.800000 -9.160000 -11.449405 -41.863976 1883.681274
0.800000 2.800000 -9.120000 18.062847 -44.730679 2327.100098
0.800000 2.800000 -9.080000 38.644447 -24.658537 2101.436768
0.800000 2.800000 -9.040000 36.614094 1.178506 1341.980835
0.800000 2.800000 -9.000000 18.355566 13.035832 506.859741
0.800000 2.800000 -8.960000 2.386890 5.932395 40.890556
0.800000 2.800000 -8.920000 1.438884 -8.366776 72.073318
0.800000 2.800000 -8.880000 12.405960 -14.844595 374.269836
0.800000 2.800000 -8.840000 22.639025 -9.436419 601.571472
0.800000 2.800000 -8.800000 24.150463 -0.146938 583.266479
0.800000 2.840000 -9.200000 -10.984913 -31.952438 1141.626587
0.800000 2.840000 -9.160000 14.738218 -43.376587 2098.743408
0.800000 2.840000 -9.120000 40.740219 -31.691698 2664.129150
0.800000 2.840000 -9.080000 49.245182 -6.360066 2465.538330
0.800000 2.840000 -9.040000 38.026947 13.544911 1629.513306
0.800000 2.840000 -9.000000 20.637556 16.386162 694.415039
0.800000 2.840000 -8.960000 12.694956 6.742091 206.617706
0.800000 2.840000 -8.920000 18.083149 -1.332933 328.776978
0.800000 2.840000 -8.880000 27.782907 1.458723 774.017822
0.800000 2.840000 -8.840000 30.767494 12.119373 1093.517822
0.800000 2.840000 -8.800000 24.902620 20.815470 1053.424316
0.800000 2.880000 -9.200000 7.984953 -27.226496 805.041504
0.800000 2.880000 -9.160000 31.526905 -24.505739 1594.477051
0.800000 2.880000 -9.120000 45.833523 -5.781465 2134.137207
0.800000 2.880000 -9.080000 42.884796 15.458790 2078.079834
0.800000 2.880000 -9.040000 28.801924 25.693398 1489.701538
0.800000 2.880000 -9.000000 17.096218 22.692009 807.207886
0.800000 2.880000 -8.960000 16.018780 15.772312 505.367157
0.800000 2.880000 -8.920000 22.060104 15.677926 732.445557
0.800000 2.880000 -8.880000 25.026764 24.358030 1219.652588
0.800000 2.880000 -8.840000 18.794348 34.308388 1530.292969
0.800000 2.880000 -8.800000 6.849393 37.044701 1419.223999
0.800000 2.920000 -9.200000 13.352077 -11.426930 308.852692
0.800000 2.920000 -9.160000 27.376675 -2.250423 754.546692
0.800000 2.920000 -9.120000 30.740429 13.843286 1136.610596
0.800000 2.920000 -9.080000 22.874569 26.077240 1203.268311
0.800000 2.920000 -9.040000 12.026122 28.289713 944.935486
0.800000 2.920000 -9.000000 7.167529 24.010851 627.894409
0.800000 2.920000 -8.960000 9.537389 22.212006 584.334961
0.800000 2.920000 -8.920000 12.026245 27.960855 926.440002
0.800000 2.920000 -8.880000 6.828168 37.288422 1437.050293
0.800000 2.920000 -8.840000 -6.350994 41.158024 1734.317993
0.800000 2.920000 -8.800000 -19.640823 34.551762 1579.586182
0.800000 2.960000 -9.200000 3.928029 -1.348122 17.246845
0.800000 2.960000 -9.160000 10.241507 6.004850 140.946686
0.800000 2.960000 -9.120000 9.039804 15.320914 316.448456
0.800000 2.960000 -9.080000 2.425638 19.744957 395.747040
0.800000 2.960000 -9.040000 -2.631030 17.865309 326.091583
0.800000 2.960000 -9.000000 -1.798007 15.310077 237.631287
0.800000 2.960000 -8.960000 1.494415 18.602383 348.281921
0.800000 2.960000 -8.920000 -0.791398 27.421267 752.552124
0.800000 2.960000 -8.880000 -12.563199 33.647827 1290.010254
0.800000 2.960000 -8.840000 -28.266510 28.879074 1632.996582
0.800000 2.960000 -8.800000 -36.921440 13.219236 1537.940918
0.800000 3.000000 -9.200000 -7.176703 -5.247317 79.039413
0.800000 3.000000 -9.160000 -2.793960 -1.445080 9.894470
0.800000 3.000000 -9.120000 -3.883794 2.934077 23.692669
0.800000 3.000000 -9.080000 -7.045481 2.739812 57.145370
0.800000 3.000000 -9.040000 -6.101009 -0.444589 37.419975
0.800000 3.000000 -9.000000 -0.440378 0.398869 0.353029
0.800000 3.000000 -8.960000 2.630817 9.036303 88.575966
0.800000 3.000000 -8.920000 -4.720978 19.683060 409.710480
0.800000 3.000000 -8.880000 -21.151871 21.053246 890.640747
0.800000 3.000000 -8.840000 -35.025146 7.665264 1285.517090
0.800000 3.000000 -8.800000 -34.340233 -13.206915 1353.674194
0.800000 3.040000 -9.200000 -7.843127 -15.810981 311.501740
0.800000 3.040000 -9.160000 -3.393230 -12.261483 161.857971
0.800000 3.040000 -9.120000 -4.275839 -10.599735 130.637192
0.800000 3.040000 -9.080000 -3.619991 -14.132549 212.833282
0.800000 3.040000 -9.040000 4.012708 -16.655748 293.515778
0.800000 3.040000 -9.000000 13.887474 -9.725954 287.456116
0.800000 3.040000 -8.960000 14.463618 5.679062 241.447998
0.800000 3.040000 -8.920000 0.352072 17.084984 292.020630
0.800000 3.040000 -8.880000 -19.375290 11.988650 519.129578
0.800000 3.040000 -8.840000 -27.805763 -8.484588 845.148682
0.800000 3.040000 -8.800000 -16.131842 -28.644438 1080.740234
0.800000 3.080000 -9.200000 0.506371 -20.166105 406.928223
0.800000 3.080000 -9.160000 1.919631 -15.655582 248.782242
0.800000 3.080000 -9.120000 0.707944 -18.055582 326.505219
0.800000 3.080000 -9.080000 7.345942 -24.394367 649.048035
0.800000 3.080000 -9.040000 22.525837 -22.372173 1007.927490
0.800000 3.080000 -9.000000 33.376503 -5.494083 1144.175903
0.800000 3.080000 -8.960000 26.367887 16.485458 967.035828
0.800000 3.080000 -8.920000 3.409982 24.925810 632.924011
0.800000 3.080000 -8.880000 -17.127857 11.058701 415.658356
0.800000 3.080000 -8.840000 -17.140163 -13.651760 480.155762
0.800000 3.080000 -8.800000 3.425249 -27.276117 755.718933
0.800000 3.120000 -9.200000 6.281010 -14.825395 259.243408
0.800000 3.120000 -9.160000 2.516911 -13.764421 195.794113
0.800000 3.120000 -9.120000 4.469742 -22.396872 521.598450
0.800000 3.120000 -9.080000 20.352987 -27.732140 1183.315674
0.800000 3.120000 -9.040000 40.427540 -15.240628 1866.662720
0.800000 3.120000 -9.000000 44.914158 12.824450 2181.748047
0.800000 3.120000 -8.960000 25.039782 36.152351 1933.983154
0.800000 3.120000 -8.920000 -5.447358 35.310966 1276.538086
0.800000 3.120000 -8.880000 -21.786732 11.682702 611.147217
0.800000 3.120000 -8.840000 -11.801314 -12.805157 303.243073
0.800000 3.120000 -8.800000 12.573691 -16.497683 430.271240
0.800000 3.160000 -9.200000 2.120668 -8.971790 84.990250
0.800000 3.160000 -9.160000 -2.384411 -16.751101 286.284790
0.800000 3.160000 -9.120000 8.842978 -28.851196 910.589783
0.800000 3.160000 -9.080000 33.270100 -25.637287 1764.170044
0.800000 3.160000 -9.040000 50.088459 0.656724 2509.285156
0.800000 3.160000 -9.000000 40.344940 34.479897 2816.577637
0.800000 3.160000 -8.960000 7.507263 49.784203 2534.825684
0.800000 3.160000 -8.920000 -23.714640 35.010998 1788.154175
0.800000 3.160000 -8.880000 -30.100674 4.710704 928.241272
0.800000 3.160000 -8.840000 -11.382406 -14.385585 336.504211
0.800000 3.160000 -8.800000 11.009933 -8.560461 194.500122
0.800000 3.200000 -9.200000 -6.224213 -13.098392 210.308685
0.800000 3.200000 -9.160000 -2.699495 -28.559244 822.917725
0.800000 3.200000 -9.120000 19.776306 -35.504997 1651.707153
0.800000 3.200000 -9.080000 45.011749 -17.961138 2348.660156
0.800000 3.200000 -9.040000 48.855080 17.835869 2704.937012
0.800000 3.200000 -9.000000 23.033527 46.472923 2690.276123
0.800000 3.200000 -8.960000 -15.178953 46.203186 2365.135010
0.800000 3.200000 -8.920000 -37.928188 19.213482 1807.705322
0.800000 3.200000 -8.880000 -31.870741 -10.796829 1132.315674
0.800000 3.200000 -8.840000 -8.762560 -20.994614 517.556274
0.800000 3.200000 -8.800000 7.901822 -9.232821 147.683792
0.840000 2.800000 -9.200000 4.944169 -35.999352 1320.398193
0.840000 2.800000 -9.160000 34.271603 -38.606827 2665.029785
0.840000 2.800000 -9.120000 56.409004 -16.315624 3448.175293
0.840000 2.800000 -9.080000 54.631145 14.525593 3195.554932
0.840000 2.800000 -9.040000 33.140205 32.016811 2123.349365
0.840000 2.800000 -9.000000 11.009706 28.297441 921.958801
0.840000 2.800000 -8.960000 3.344463 14.009052 207.438980
0.840000 2.800000 -8.920000 8.977243 5.133500 106.943710
0.840000 2.800000 -8.880000 15.581956 7.269870 295.648346
0.840000 2.800000 -8.840000 14.526151 13.079224 382.075134
0.840000 2.800000 -8.800000 8.992964 13.385417 260.042786
0.840000 2.840000 -9.200000 22.459034 -26.775764 1221.349854
0.840000 2.840000 -9.160000 49.219048 -17.680805 2735.125488
0.840000 2.840000 -9.120000 62.145149 9.750077 3957.083496
0.840000 2.840000 -9.080000 52.718025 38.140816 4233.912109
0.840000 2.840000 -9.040000 29.298767 51.405598 3500.953125
0.840000 2.840000 -9.000000 7.956964 47.010120 2273.264648
0.840000 2.840000 -8.960000 -1.523432 34.820995 1214.822510
0.840000 2.840000 -8.920000 -1.248812 25.840784 669.305603
0.840000 2.840000 -8.880000 0.874540 23.047237 531.940002
0.840000 2.840000 -8.840000 0.565132 22.341818 499.476196
0.840000 2.840000 -8.800000 -0.132135 20.168175 406.772736
0.840000 2.880000 -9.200000 24.531963 -7.573355 659.172913
0.840000 2.880000 -9.160000 43.596771 7.455986 1956.270142
0.840000 2.880000 -9.120000 47.699535 34.478848 3464.036621
0.840000 2.880000 -9.080000 32.516464 58.662994 4498.667480
0.840000 2.880000 -9.040000 6.337346 67.575096 4606.555664
0.840000 2.880000 -9.000000 -17.087532 59.532928 3836.153320
0.840000 2.880000 -8.960000 -28.632162 42.734192 2646.011963
0.840000 2.880000 -8.920000 -28.445694 27.471863 1563.860840
0.840000 2.880000 -8.880000 -22.698610 18.990788 875.876953
0.840000 2.880000 -8.840000 -17.193811 16.422268 565.317993
0.840000 2.880000 -8.800000 -13.947796 16.621935 470.829742
0.840000 2.920000 -9.200000 10.298552 3.250439 116.625519
0.840000 2.920000 -9.160000 23.030745 18.521717 873.469238
0.840000 2.920000 -9.120000 21.130308 42.696205 2269.455811
0.840000 2.920000 -9.080000 1.196499 61.553680 3790.287109
0.840000 2.920000 -9.040000 -27.596930 62.936790 4722.629883
0.840000 2.920000 -9.000000 -50.022110 46.041546 4622.035156
0.840000 2.920000 -8.960000 -56.047318 21.519190 3604.377197
0.840000 2.920000 -8.920000 -47.228874 2.733304 2238.037598
0.840000 2.920000 -8.880000 -33.463638 -3.921517 1135.193359
0.840000 2.920000 -8.840000 -24.056313 -1.570183 581.171631
0.840000 2.920000 -8.800000 -21.417019 2.459605 464.738342
0.840000 2.960000 -9.200000 -4.662820 -3.801964 36.196819
0.840000 2.960000 -9.160000 5.335191 10.998309 149.427063
0.840000 2.960000 -9.120000 -1.206989 32.296883 1044.545410
0.840000 2.960000 -9.080000 -24.824837 43.456009 2504.697266
0.840000 2.960000 -9.040000 -51.624634 33.719280 3802.092773
0.840000 2.960000 -9.000000 -64.404587 7.882545 4210.084961
0.840000 2.960000 -8.960000 -56.793327 -17.815042 3542.857666
0.840000 2.960000 -8.920000 -37.396614 -29.497953 2268.635986
0.840000 2.960000 -8.880000 -20.796192 -26.077349 1112.509766
0.840000 2.960000 -8.840000 -14.840913 -17.312628 519.979797
0.840000 2.960000 -8.800000 -16.160984 -12.891652 427.372070
0.840000 3.000000 -9.200000 -4.868068 -19.724628 412.759064
0.840000 3.000000 -9.160000 2.452906 -2.960010 14.778406
0.840000 3.000000 -9.120000 -9.283872 14.215485 288.270264
0.840000 3.000000 -9.080000 -32.827606 14.681807 1293.207153
0.840000 3.000000 -9.040000 -49.364975 -4.957000 2461.472412
0.840000 3.000000 -9.000000 -45.590103 -30.955479 3036.699219
0.840000 3.000000 -8.960000 -25.298000 -45.193192 2682.413330
0.840000 3.000000 -8.920000 -4.539423 -41.185917 1716.886108
0.840000 3.000000 -8.880000 3.929543 -27.905781 794.173889
0.840000 3.000000 -8.840000 1.068999 -18.893267 358.098297
0.840000 3.000000 -8.800000 -2.599510 -18.884453 363.380005
0.840000 3.040000 -9.200000 9.021745 -27.107168 816.190430
0.840000 3.040000 -9.160000 9.797389 -8.727343 172.155334
0.840000 3.040000 -9.120000 -6.019549 0.452215 36.439472
0.840000 3.040000 -9.080000 -22.466118 -9.727887 599.358215
0.840000 3.040000 -9.040000 -22.584730 -30.753357 1455.838989
0.840000 3.040000 -9.000000 -4.882441 -43.965157 1956.773193
0.840000 3.040000 -8.960000 15.974154 -38.749985 1756.734863
0.840000 3.040000 -8.920000 24.263172 -21.813650 1064.536865
0.840000 3.040000 -8.880000 18.038021 -8.794830 402.719238
0.840000 3.040000 -8.840000 8.884967 -8.036653 143.530426
0.840000 3.040000 -8.800000 8.195301 -13.565653 251.189880
0.840000 3.080000 -9.200000 21.741400 -18.727514 823.408264
0.840000 3.080000 -9.160000 13.792726 -4.486501 210.367966
0.840000 3.080000 -9.120000 -0.432710 -6.359681 40.632774
0.840000 3.080000 -9.080000 -3.236079 -21.089191 455.226196
0.840000 3.080000 -9.040000 10.977640 -31.591961 1118.560547
0.840000 3.080000 -9.000000 29.968006 -24.730202 1509.664307
0.840000 3.080000 -8.960000 36.427876 -4.708111 1349.156372
0.840000 3.080000 -8.920000 25.558920 11.704330 790.249695
0.840000 3.080000 -8.880000 9.146622 12.528722 240.629562
0.840000 3.080000 -8.840000 2.542664 2.057554 10.698669
0.840000 3.080000 -8.800000 8.947908 -5.047441 105.541733
0.840000 3.120000 -9.200000 20.314770 -4.622700 434.059235
0.840000 3.120000 -9.160000 8.237022 -1.257697 69.430344
0.840000 3.120000 -9.120000 3.551936 -11.495804 144.769760
0.840000 3.120000 -9.080000 14.854942 -20.432007 638.136230
0.840000 3.120000 -9.040000 32.606361 -13.138542 1235.796143
0.840000 3.120000 -9.000000 38.492920 9.079194 1564.136597
0.840000 3.120000 -8.960000 24.308985 29.194057 1443.219727
0.840000 3.120000 -8.920000 0.614991 31.264790 977.865295
0.840000 3.120000 -8.880000 -13.727779 16.083696 447.137207
0.840000 3.120000 -8.840000 -10.022455 -0.377851 100.592377
0.840000 3.120000 -8.800000 2.830975 -3.431526 19.789787
0.840000 3.160000 -9.200000 7.775184 -0.517815 60.721619
0.840000 3.160000 -9.160000 1.162870 -8.583116 75.022141
0.840000 3.160000 -9.120000 9.905819 -18.278234 432.219086
0.840000 3.160000 -9.080000 27.702139 -13.274474 943.620178
0.840000 3.160000 -9.040000 36.101746 8.956137 1383.548462
0.840000 3.160000 -9.000000 22.853182 32.929115 1606.594604
0.840000 3.160000 -8.960000 -5.141270 39.284203 1569.681152
0.840000 3.160000 -8.920000 -27.613087 23.225433 1301.903320
0.840000 3.160000 -8.880000 -29.699289 -1.197051 883.480713
0.840000 3.160000 -8.840000 -14.902918 -14.836990 442.233215
0.840000 3.160000 -8.800000 0.091644 -11.008772 121.201462
0.840000 3.200000 -9.200000 -0.744377 -10.764555 116.429741
0.840000 3.200000 -9.160000 5.045624 -22.485043 531.035461
0.840000 3.200000 -9.120000 22.860460 -22.203630 1015.601807
0.840000 3.200000 -9.080000 35.860954 -3.187722 1296.169678
0.840000 3.200000 -9.040000 28.441612 23.057674 1340.581665
0.840000 3.200000 -9.000000 1.697729 36.147709 1309.539185
0.840000 3.200000 -8.960000 -26.469492 25.177605 1334.545898
0.840000 3.200000 -8.920000 -36.925884 -1.536152 1365.880615
0.840000 3.200000 -8.880000 -25.548626 -24.344570 1245.390381
0.840000 3.200000 -8.840000 -5.063560 -29.628586 903.492737
0.840000 3.200000 -8.800000 8.023905 -19.923038 461.310516
0.880000 2.800000 -9.200000 41.684196 -18.612070 2083.981445
0.880000 2.800000 -9.160000 62.780495 5.421053 3970.778320
0.880000 2.800000 -9.120000 57.650120 39.913376 4916.613770
0.880000 2.800000 -9.080000 29.229530 59.154411 4353.609863
0.880000 2.800000 -9.040000 -0.213552 52.489094 2755.150635
0.880000 2.800000 -9.000000 -11.560482 32.243454 1173.285156
0.880000 2.800000 -8.960000 -5.712574 18.673960 381.350281
0.880000 2.800000 -8.920000 1.403879 19.319220 375.203125
0.880000 2.800000 -8.880000 -1.902125 24.338722 595.991516
0.880000 2.800000 -8.840000 -11.244158 20.735039 556.372925
0.880000 2.800000 -8.800000 -13.475507 8.121984 247.555893
0.880000 2.840000 -9.200000 38.443199 6.005870 1513.949951
0.880000 2.840000 -9.160000 50.001816 30.489275 3429.777588
0.880000 2.840000 -9.120000 40.300060 59.209450 5129.854004
0.880000 2.840000 -9.080000 13.840773 74.965469 5811.388672
0.880000 2.840000 -9.040000 -14.430807 71.539078 5326.087891
0.880000 2.840000 -9.000000 -32.527657 55.709816 4161.631836
0.880000 2.840000 -8.960000 -38.845310 38.027550 2955.052734
0.880000 2.840000 -8.920000 -38.326515 23.619431 2026.799316
0.880000 2.840000 -8.880000 -34.352760 11.909636 1321.951660
0.880000 2.840000 -8.840000 -26.379902 2.658741 702.968140
0.880000 2.840000 -8.800000 -14.594530 -0.786096 213.618256
0.880000 2.880000 -9.200000 16.409908 18.108036 597.186035
0.880000 2.880000 -9.160000 24.314926 39.226112 2129.903564
0.880000 2.880000 -9.120000 13.834514 65.987656 4545.764160
0.880000 2.880000 -9.080000 -15.441561 82.600372 7061.263184
0.880000 2.880000 -9.040000 -51.801487 77.633484 8710.351562
0.880000 2.880000 -9.000000 -78.791069 51.475327 8857.742188
0.880000 2.880000 -8.960000 -85.195480 15.670916 7503.847656
0.880000 2.880000 -8.920000 -70.842049 -14.450165 5227.402832
0.880000 2.880000 -8.880000 -45.311703 -28.297474 2853.897461
0.880000 2.880000 -8.840000 -21.606159 -24.634611 1073.690186
0.880000 2.880000 -8.800000 -9.150013 -10.535049 194.710007
0.880000 2.920000 -9.200000 -5.238258 6.706462 72.415985
0.880000 2.920000 -9.160000 3.529312 28.235226 809.684021
0.880000 2.920000 -9.120000 -10.927416 56.926903 3360.080811
0.880000 2.920000 -9.080000 -49.483997 69.840515 7326.363770
0.880000 2.920000 -9.040000 -92.796295 50.547455 11166.197266
0.880000 2.920000 -9.000000 -114.173370 3.930550 13051.007812
0.880000 2.920000 -8.960000 -99.795120 -45.695232 12047.121094
0.880000 2.920000 -8.920000 -59.157169 -72.213882 8714.416016
0.880000 2.920000 -8.880000 -17.158842 -66.332916 4694.481445
0.880000 2.920000 -8.840000 4.849390 -39.997272 1623.298462
0.880000 2.920000 -8.800000 2.894255 -14.505903 218.797943
0.880000 2.960000 -9.200000 -6.629190 -17.063377 335.105011
0.880000 2.960000 -9.160000 -0.028242 10.392593 108.006798
0.880000 2.960000 -9.120000 -24.592934 38.039688 2051.830078
0.880000 2.960000 -9.080000 -70.815910 36.649117 6358.050781
0.880000 2.960000 -9.040000 -106.664932 -3.942760 11392.953125
0.880000 2.960000 -9.000000 -103.151741 -62.961140 14604.386719
0.880000 2.960000 -8.960000 -59.066254 -103.843437 14272.281250
0.880000 2.960000 -8.920000 -2.206297 -103.391945 10694.762695
0.880000 2.960000 -8.880000 33.698803 -68.878105 5879.802734
0.880000 2.960000 -8.840000 35.023922 -28.827394 2057.693848
0.880000 2.960000 -8.800000 14.588742 -7.926111 275.654633
0.880000 3.000000 -9.200000 12.922129 -30.247417 1081.887695
0.880000 3.000000 -9.160000 9.326347 2.056143 91.208481
0.880000 3.000000 -9.120000 -25.947178 19.277409 1044.874512
0.880000 3.000000 -9.080000 -67.712540 -2.522010 4591.348145
0.880000 3.000000 -9.040000 -79.436676 -55.607037 9402.328125
0.880000 3.000000 -9.000000 -45.479572 -104.147278 12915.046875
0.880000 3.000000 -8.960000 14.166127 -113.820839 13155.862305
0.880000 3.000000 -8.920000 60.735821 -80.297096 10136.462891
0.880000 3.000000 -8.880000 69.028511 -30.611752 5702.014648
0.880000 3.000000 -8.840000 45.343021 2.140024 2060.569092
0.880000 3.000000 -8.800000 16.494883 5.673640 304.271332
0.880000 3.040000 -9.200000 34.255615 -20.638786 1599.406616
0.880000 3.040000 -9.160000 16.358067 7.153736 318.762268
0.880000 3.040000 -9.120000 -20.760445 6.307232 470.777222
0.880000 3.040000 -9.080000 -43.722656 -29.545141 2784.585938
0.880000 3.040000 -9.040000 -27.245399 -74.874878 6348.559570
0.880000 3.040000 -9.000000 21.860100 -93.160309 9156.707031
0.880000 3.040000 -8.960000 69.627914 -68.755554 9575.373047
0.880000 3.040000 -8.920000 84.345863 -19.707380 7502.605469
0.880000 3.040000 -8.880000 62.424248 19.763397 4287.378418
0.880000 3.040000 -8.840000 27.393637 29.075241 1595.781006
0.880000 3.040000 -8.800000 5.657965 15.115501 260.490936
0.880000 3.080000 -9.200000 37.657696 1.697127 1420.982300
0.880000 3.080000 -9.160000 11.351757 14.654257 343.609619
0.880000 3.080000 -9.120000 -14.539619 -2.168071 216.101059
0.880000 3.080000 -9.080000 -13.713066 -36.121460 1492.808105
0.880000 3.080000 -9.040000 17.967308 -57.041519 3576.559082
0.880000 3.080000 -9.000000 57.279797 -44.134716 5228.848145
0.880000 3.080000 -8.960000 73.915878 -4.737749 5486.003418
0.880000 3.080000 -8.920000 56.875492 32.856277 4314.356445
0.880000 3.080000 -8.880000 22.121368 44.887573 2504.249268
0.880000 3.080000 -8.840000 -4.307178 31.119640 986.983765
0.880000 3.080000 -8.800000 -9.704102 10.452318 203.420532
0.880000 3.120000 -9.200000 22.023430 15.503523 725.390686
0.880000 3.120000 -9.160000 -0.085171 11.587429 134.275757
0.880000 3.120000 -9.120000 -7.390236 -9.567322 146.149231
0.880000 3.120000 -9.080000 8.787549 -27.383835 827.095398
0.880000 3.120000 -9.040000 35.509544 -22.734903 1777.803589
0.880000 3.120000 -9.000000 49.215115 4.147228 2439.326904
0.880000 3.120000 -8.960000 36.872238 33.544884 2484.821289
0.880000 3.120000 -8.920000 7.203667 44.003246 1988.178467
0.880000 3.120000 -8.880000 -18.274338 30.778313 1281.255859
0.880000 3.120000 -8.840000 -24.815033 7.750939 675.862915
0.880000 3.120000 -8.800000 -15.491745 -7.439754 295.344116
0.880000 3.160000 -9.200000 4.419268 9.903334 117.605942
0.880000 3.160000 -9.160000 -3.880921 -2.529442 21.459627
0.880000 3.160000 -9.120000 3.745312 -15.205927 245.247574
0.880000 3.160000 -9.080000 20.297604 -13.845673 603.695374
0.880000 3.160000 -9.040000 29.397955 3.551884 876.855652
0.880000 3.160000 -9.000000 19.970299 24.082954 978.801514
0.880000 3.160000 -8.960000 -3.543804 31.017036 974.615112
0.880000 3.160000 -8.920000 -24.968561 18.363186 960.635681
0.880000 3.160000 -8.880000 -30.456242 -4.532863 948.129517
0.880000 3.160000 -8.840000 -19.542992 -22.064289 868.761353
0.880000 3.160000 -8.800000 -3.427301 -25.817764 678.303345
0.880000 3.200000 -9.200000 1.588896 -6.042802 39.040043
0.880000 3.200000 -9.160000 6.874071 -15.116642 275.765717
0.880000 3.200000 -9.120000 18.602974 -14.103049 544.966675
0.880000 3.200000 -9.080000 24.984928 -1.395892 626.195129
0.880000 3.200000 -9.040000 17.577072 13.860233 501.059509
0.880000 3.200000 -9.000000 -1.078543 18.950800 360.296082
0.880000 3.200000 -8.960000 -18.973715 8.054856 424.882568
0.880000 3.200000 -8.920000 -24.027082 -12.921725 744.271729
0.880000 3.200000 -8.880000 -13.329803 -31.145191 1147.706543
0.880000 3.200000 -8.840000 5.470169 -36.792728 1383.627563
0.880000 3.200000 -8.800000 21.055872 -29.572947 1317.908936
0.920000 2.800000 -9.200000 51.338615 24.130793 3217.948486
0.920000 2.800000 -9.160000 44.960426 60.450081 5675.652344
0.920000 2.800000 -9.120000 9.744524 81.287247 6702.572266
0.920000 2.800000 -9.080000 -28.990776 69.375854 5653.474609
0.920000 2.800000 -9.040000 -44.079178 37.158558 3323.732422
0.920000 2.800000 -9.000000 -32.598885 12.678928 1223.442505
0.920000 2.800000 -8.960000 -15.738951 10.827354 364.946167
0.920000 2.800000 -8.920000 -14.239395 20.608307 627.462646
0.920000 2.800000 -8.880000 -26.865496 20.569735 1144.868896
0.920000 2.800000 -8.840000 -34.463215 3.782625 1202.021362
0.920000 2.800000 -8.800000 -23.258713 -15.155210 770.648132
0.920000 2.840000 -9.200000 20.790668 40.251472 2052.432861
0.920000 2.840000 -9.160000 10.304209 63.893616 4188.570801
0.920000 2.840000 -9.120000 -16.913305 75.953995 6055.069336
0.920000 2.840000 -9.080000 -46.364967 68.295486 6813.983398
0.920000 2.840000 -9.040000 -64.641968 47.096947 6396.706055
0.920000 2.840000 -9.000000 -69.367775 23.992661 5387.536133
0.920000 2.840000 -8.960000 -66.149078 4.900681 4399.717285
0.920000 2.840000 -8.920000 -58.825340 -11.306664 3588.261230
0.920000 2.840000 -8.880000 -45.772289 -25.178829 2729.075928
0.920000 2.840000 -8.840000 -26.028553 -31.608685 1676.594482
0.920000 2.840000 -8.800000 -6.077898 -24.832935 653.615540
0.920000 2.880000 -9.200000 -10.663467 25.782768 778.460693
0.920000 2.880000 -9.160000 -14.059591 44.382488 2167.477295
0.920000 2.880000 -9.120000 -35.993542 60.991173 5015.458008
0.920000 2.880000 -9.080000 -71.453735 59.992203 8704.701172
0.920000 2.880000 -9.040000 -104.162781 33.822456 11993.843750
0.920000 2.880000 -9.000000 -116.153488 -10.712147 13606.382812
0.920000 2.880000 -8.960000 -99.053429 -55.325417 12872.483398
0.920000 2.880000 -8.920000 -59.710953 -80.618729 10064.777344
0.920000 2.880000 -8.880000 -16.544815 -77.384697 6262.122070
0.920000 2.880000 -8.840000 11.219743 -51.767204 2805.726074
0.920000 2.880000 -8.800000 14.727219 -20.977098 656.929626
0.920000 2.920000 -9.200000 -16.749962 -7.422401 335.653259
0.920000 2.920000 -9.160000 -15.586061 19.095333 607.557068
0.920000 2.920000 -9.120000 -45.773594 42.541840 3905.030029
0.920000 2.920000 -9.080000 -95.849625 33.721420 10324.284180
0.920000 2.920000 -9.040000 -131.980682 -16.678413 17697.070312
0.920000 2.920000 -9.000000 -123.490372 -85.990494 22644.238281
0.920000 2.920000 -8.960000 -68.556854 -134.144318 22694.740234
0.920000 2.920000 -8.920000 2.667774 -133.763687 17899.841797
0.920000 2.920000 -8.880000 50.655430 -90.328728 10725.251953
0.920000 2.920000 -8.840000 55.482544 -35.868553 4364.865723
0.920000 2.920000 -8.800000 28.181202 -2.961451 802.950317
0.920000 2.960000 -9.200000 6.938127 -30.177429 958.814819
0.920000 2.960000 -9.160000 -1.102360 7.408604 56.102608
0.920000 2.960000 -9.120000 -48.143673 24.881332 2936.894043
0.920000 2.960000 -9.080000 -102.511024 -8.401218 10579.089844
0.920000 2.960000 -9.040000 -116.440468 -83.390671 20512.386719
0.920000 2.960000 -9.000000 -67.327347 -153.064819 27961.812500
0.920000 2.960000 -8.960000 20.104376 -169.092316 28996.396484
0.920000 2.960000 -8.920000 92.196892 -121.379532 23233.257812
0.920000 2.960000 -8.880000 109.197624 -44.985558 13947.821289
0.920000 2.960000 -8.840000 74.240631 10.592045 5623.862793
0.920000 2.960000 -8.800000 24.532719 20.543770 1023.900757
0.920000 3.000000 -9.200000 38.285027 -23.013969 1995.385986
0.920000 3.000000 -9.160000 10.577262 13.790825 302.065308
0.920000 3.000000 -9.120000 -45.653191 9.320049 2171.077148
0.920000 3.000000 -9.080000 -81.968285 -48.966949 9116.562500
0.920000 3.000000 -9.040000 -57.004074 -125.404282 18975.697266
0.920000 3.000000 -9.000000 24.110626 -162.136841 26869.677734
0.920000 3.000000 -8.960000 110.163162 -127.947189 28506.406250
0.920000 3.000000 -8.920000 145.470413 -45.069389 23192.890625
0.920000 3.000000 -8.880000 114.814590 30.637135 14121.024414
0.920000 3.000000 -8.840000 51.341831 56.660690 5846.417480
0.920000 3.000000 -8.800000 3.367792 34.420898 1196.140259
0.920000 3.040000 -9.200000 49.661915 6.058328 2503.009033
0.920000 3.040000 -9.160000 6.875349 25.339996 689.385864
0.920000 3.040000 -9.120000 -39.329193 -4.311192 1565.371826
0.920000 3.040000 -9.080000 -42.659794 -68.731796 6543.917969
0.920000 3.040000 -9.040000 12.728125 -117.902672 14063.044922
0.920000 3.040000 -9.000000 93.456131 -107.549225 20300.884766
0.920000 3.040000 -8.960000 142.553238 -38.659698 21815.998047
0.920000 3.040000 -8.920000 127.132782 42.498016 17968.826172
0.920000 3.040000 -8.880000 64.177231 83.955956 11167.319336
0.920000 3.040000 -8.840000 1.937562 69.844154 4881.959961
0.920000 3.040000 -8.800000 -22.886995 26.919167 1248.456055
0.920000 3.080000 -9.200000 33.549431 30.570606 2060.126221
0.920000 3.080000 -9.160000 -7.438004 25.862232 724.178955
0.920000 3.080000 -9.120000 -28.808676 -15.418997 1067.685303
0.920000 3.080000 -9.080000 -4.449032 -62.389900 3912.293701
0.920000 3.080000 -9.040000 54.298084 -72.898796 8262.516602
0.920000 3.080000 -9.000000 104.304428 -30.999073 11840.356445
0.920000 3.080000 -8.960000 106.397720 37.016113 12690.666992
0.920000 3.080000 -8.920000 58.690277 84.179787 10530.785156
0.920000 3.080000 -8.880000 -3.369625 82.226822 6772.604492
0.920000 3.080000 -8.840000 -39.091133 42.311111 3318.346680
0.920000 3.080000 -8.800000 -35.424210 -0.140536 1254.894409
0.920000 3.120000 -9.200000 7.454860 31.580215 1052.884888
0.920000 3.120000 -9.160000 -16.654224 11.982801 420.950714
0.920000 3.120000 -9.120000 -14.256309 -21.740265 675.881470
0.920000 3.120000 -9.080000 17.764559 -40.950695 1992.539062
0.920000 3.120000 -9.040000 56.067440 -25.077438 3772.435791
0.920000 3.120000 -9.000000 68.652420 18.455399 5053.756348
0.920000 3.120000 -8.960000 42.376221 58.427738 5209.544922
0.920000 3.120000 -8.920000 -5.256405 65.697975 4343.854004
0.920000 3.120000 -8.880000 -41.296207 37.173222 3087.225098
0.920000 3.120000 -8.840000 -45.041626 -3.900764 2043.963989
0.920000 3.120000 -8.800000 -22.519524 -30.029270 1408.885986
0.920000 3.160000 -9.200000 -5.431120 14.089756 228.018280
0.920000 3.160000 -9.160000 -10.636482 -4.556064 133.892471
0.920000 3.160000 -9.120000 1.833735 -20.634581 429.148499
0.920000 3.160000 -9.080000 23.675751 -19.600611 944.725098
0.920000 3.160000 -9.040000 36.681522 0.659206 1345.968628
0.920000 3.160000 -9.000000 27.455702 25.704731 1414.548828
0.920000 3.160000 -8.960000 -0.129089 35.157135 1236.040894
0.920000 3.160000 -8.920000 -26.846479 19.677139 1107.923340
0.920000 3.160000 -8.880000 -33.615143 -10.955845 1250.008301
0.920000 3.160000 -8.840000 -16.806465 -36.232029 1595.217163
0.920000 3.160000 -8.800000 10.365745 -41.857033 1859.459839
0.920000 3.200000 -9.200000 1.256495 -1.410978 3.569638
0.920000 3.200000 -9.160000 5.514417 -9.649073 123.513405
0.920000 3.200000 -9.120000 14.735000 -11.592163 351.498474
0.920000 3.200000 -9.080000 22.176010 -4.835894 515.161316
0.920000 3.200000 -9.040000 20.654131 6.435352 468.006897
0.920000 3.200000 -9.000000 8.772301 12.745920 239.411743
0.920000 3.200000 -8.960000 -5.975536 6.223315 74.436691
0.920000 3.200000 -8.920000 -11.543602 -11.948036 276.010315
0.920000 3.200000 -8.880000 -0.840953 -30.720648 944.465393
0.920000 3.200000 -8.840000 21.730160 -37.025764 1843.107056
0.920000 3.200000 -8.800000 43.080204 -25.999844 2531.895752
0.960000 2.800000 -9.200000 24.133558 60.357372 4225.440918
0.960000 2.800000 -9.160000 -11.122522 83.941864 7169.946777
0.960000 2.800000 -9.120000 -57.245289 71.259865 8354.991211
0.960000 2.800000 -9.080000 -78.789879 28.210255 7003.663574
0.960000 2.800000 -9.040000 -62.526932 -11.798655 4048.825439
0.960000 2.800000 -9.000000 -29.746284 -21.254745 1336.605591
0.960000 2.800000 -8.960000 -12.948371 -4.802246 190.721878
0.960000 2.800000 -8.920000 -22.482128 8.791485 582.736267
0.960000 2.800000 -8.880000 -38.496185 -1.020390 1482.997437
0.960000 2.800000 -8.840000 -35.227665 -25.426426 1887.491455
0.960000 2.800000 -8.800000 -9.793862 -38.054470 1544.062500
0.960000 2.840000 -9.200000 -17.653852 47.953331 2611.180420
0.960000 2.840000 -9.160000 -42.275578 54.940552 4805.688477
0.960000 2.840000 -9.120000 -69.370850 42.151432 6589.058105
0.960000 2.840000 -9.080000 -83.059738 14.954425 7122.554688
0.960000 2.840000 -9.040000 -79.515427 -12.000999 6466.727051
0.960000 2.840000 -9.000000 -67.214546 -29.689209 5399.244629
0.960000 2.840000 -8.960000 -54.649605 -40.582588 4633.525879
0.960000 2.840000 -8.920000 -41.189514 -50.261967 4222.841309
0.960000 2.840000 -8.880000 -21.678986 -56.752953 3690.876221
0.960000 2.840000 -8.840000 2.007643 -51.633541 2670.052979
0.960000 2.840000 -8.800000 18.101925 -32.047031 1354.691895
0.960000 2.880000 -9.200000 -33.004395 7.571472 1146.617188
0.960000 2.880000 -9.160000 -42.262066 18.183334 2116.715820
0.960000 2.880000 -9.120000 -66.118835 19.701538 4759.850586
0.960000 2.880000 -9.080000 -93.467896 0.196984 8736.286133
0.960000 2.880000 -9.040000 -106.098053 -39.888248 12847.869141
0.960000 2.880000 -9.000000 -90.583527 -85.685776 15547.427734
0.960000 2.880000 -8.960000 -48.151981 -115.650604 15693.675781
0.960000 2.880000 -8.920000 4.287350 -114.576317 13146.114258
0.960000 2.880000 -8.880000 43.339558 -83.611435 8869.189453
0.960000 2.880000 -8.840000 53.243568 -40.264824 4456.133789
0.960000 2.880000 -8.800000 35.640335 -7.649761 1328.752319
0.960000 2.920000 -9.200000 -9.788544 -27.294834 840.823608
0.960000 2.920000 -9.160000 -19.514771 -0.023144 380.826813
0.960000 2.920000 -9.120000 -59.870441 7.511160 3640.887207
0.960000 2.920000 -9.080000 -102.397491 -28.403633 11292.012695
0.960000 2.920000 -9.040000 -107.034996 -97.661049 20994.171875
0.960000 2.920000 -9.000000 -56.031605 -158.938339 28400.937500
0.960000 2.920000 -8.960000 28.063190 -170.412079 29827.820312
0.960000 2.920000 -8.920000 97.503769 -123.031212 24643.664062
0.960000 2.920000 -8.880000 115.451424 -47.601429 15594.927734
0.960000 2.920000 -8.840000 82.349068 10.033666 6882.043457
0.960000 2.920000 -8.800000 31.331213 23.555769 1536.519165
0.960000 2.960000 -9.200000 30.650616 -27.853893 1715.299561
0.960000 2.960000 -9.160000 0.940445 7.598478 58.621311
0.960000 2.960000 -9.120000 -57.443024 -1.597017 3302.251465
0.960000 2.960000 -9.080000 -92.448669 -67.838966 13148.882812
0.960000 2.960000 -9.040000 -59.961994 -151.962128 26687.929688
0.960000 2.960000 -9.000000 33.948925 -190.834167 37570.210938
0.960000 2.960000 -8.960000 132.799179 -149.899994 40105.628906
0.960000 2.960000 -8.920000 174.110550 -53.224911 33147.375000
0.960000 2.960000 -8.880000 139.158768 36.499592 20697.382812
0.960000 2.960000 -8.840000 64.033585 69.193703 8888.068359
0.960000 2.960000 -8.800000 4.927614 43.486252 1915.335449
0.960000 3.000000 -9.200000 53.198997 3.940448 2845.660400
0.960000 3.000000 -9.160000 0.957176 25.168304 634.359741
0.960000 3.000000 -9.120000 -55.126862 -14.700504 3255.075684
0.960000 3.000000 -9.080000 -56.454792 -98.430313 12875.669922
0.960000 3.000000 -9.040000 18.077816 -162.454315 26718.210938
0.960000 3.000000 -9.000000 126.461121 -148.819275 38139.589844
0.960000 3.000000 -8.960000 194.384079 -56.947548 41028.195312
0.960000 3.000000 -8.920000 176.575684 53.676342 34060.121094
0.960000 3.000000 -8.880000 92.775436 113.076302 21393.531250
0.960000 3.000000 -8.840000 6.690393 96.705872 9396.787109
0.960000 3.000000 -8.800000 -29.602432 37.862232 2309.852539
0.960000 3.040000 -9.200000 41.102249 38.834320 3197.499268
0.960000 3.040000 -9.160000 -15.611395 30.896389 1198.302490
0.960000 3.040000 -9.120000 -45.331711 -30.229124 2968.764160
0.960000 3.040000 -9.080000 -7.961535 -101.426689 10350.758789
0.960000 3.040000 -9.040000 82.806854 -119.677216 21179.611328
0.960000 3.040000 -9.000000 163.813019 -57.732841 30167.785156
0.960000 3.040000 -8.960000 173.620758 48.239967 32471.261719
0.960000 3.040000 -8.920000 104.671959 127.020409 27090.402344
0.960000 3.040000 -8.880000 8.099243 131.390167 17328.974609
0.960000 3.040000 -8.840000 -51.963959 73.557106 8110.900879
0.960000 3.040000 -8.800000 -50.366302 6.889651 2584.231689
0.960000 3.080000 -9.200000 9.061974 48.904778 2473.796631
0.960000 3.080000 -9.160000 -29.679955 17.835011 1198.987305
0.960000 3.080000 -9.120000 -26.368483 -39.836910 2282.276367
0.960000 3.080000 -9.080000 29.390053 -76.670334 6742.115723
0.960000 3.080000 -9.040000 101.492691 -53.334286 13145.312500
0.960000 3.080000 -9.000000 133.243195 23.339481 18298.478516
0.960000 3.080000 -8.960000 95.603943 101.595451 19461.750000
0.960000 3.080000 -8.920000 13.128620 126.875793 16269.827148
0.960000 3.080000 -8.880000 -57.165485 86.681946 10781.652344
0.960000 3.080000 -8.840000 -73.874237 17.190981 5752.932617
0.960000 3.080000 -8.800000 -41.412601 -31.948708 2735.723389
0.960000 3.120000 -9.200000 -14.123489 32.223839 1237.848633
0.960000 3.120000 -9.160000 -27.027651 -1.815546 733.790100
0.960000 3.120000 -9.120000 -5.050546 -37.284302 1415.627197
0.960000 3.120000 -9.080000 42.075996 -41.938965 3529.266357
0.960000 3.120000 -9.040000 78.834625 -3.739876 6228.884766
0.960000 3.120000 -9.000000 72.136375 53.829178 8101.237305
0.960000 3.120000 -8.960000 21.336658 88.115631 8219.617188
0.960000 3.120000 -8.920000 -38.969795 72.684235 6801.643066
0.960000 3.120000 -8.880000 -67.357872 19.363346 4912.021973
0.960000 3.120000 -8.840000 -49.233040 -33.345497 3535.814453
0.960000 3.120000 -8.800000 -5.069711 -53.592060 2897.810791
0.960000 3.160000 -9.200000 -13.951668 10.154575 297.764435
0.960000 3.160000 -9.160000 -11.103409 -11.106550 246.641144
0.960000 3.160000 -9.120000 9.454689 -24.477676 688.547729
0.960000 3.160000 -9.080000 35.546135 -15.869692 1515.374878
0.960000 3.160000 -9.040000 45.685020 12.825348 2251.610596
0.960000 3.160000 -9.000000 27.505180 40.898426 2429.216309
0.960000 3.160000 -8.960000 -8.682045 44.258934 2034.231201
0.960000 3.160000 -8.920000 -35.932293 16.666481 1568.901245
0.960000 3.160000 -8.880000 -32.669273 -23.487236 1618.931641
0.960000 3.160000 -8.840000 -0.685163 -48.114544 2315.478760
0.960000 3.160000 -8.800000 37.524826 -42.417236 3207.334473
0.960000 3.200000 -9.200000 -0.832376 2.859554 8.869902
0.960000 3.200000 -9.160000 2.939706 -5.275502 36.472790
0.960000 3.200000 -9.120000 13.229467 -9.280663 261.149506
0.960000 3.200000 -9.080000 24.355566 -3.293873 604.043213
0.960000 3.200000 -9.040000 26.147911 10.428942 792.476074
0.960000 3.200000 -9.000000 14.390625 20.084833 610.490601
0.960000 3.200000 -8.960000 -2.063713 14.145248 204.346970
0.960000 3.200000 -8.920000 -6.844767 -6.228844 85.649323
0.960000 3.200000 -8.880000 9.129419 -25.470909 732.113525
0.960000 3.200000 -8.840000 37.904770 -26.100687 2118.017578
0.960000 3.200000 -8.800000 60.129902 -4.100017 3632.415039
1.000000 2.800000 -9.200000 -19.995974 64.320175 4536.923828
1.000000 2.800000 -9.160000 -65.698380 57.699265 7645.481934
1.000000 2.800000 -9.120000 -94.421951 13.390820 9094.819336
1.000000 2.800000 -9.080000 -80.293434 -38.916275 7961.512207
1.000000 2.800000 -9.040000 -35.288239 -60.875835 4951.126953
1.000000 2.800000 -9.000000 2.148351 -42.865372 1842.055420
1.000000 2.800000 -8.960000 5.321472 -11.936554 170.799393
1.000000 2.800000 -8.920000 -15.813789 -2.451731 256.086914
1.000000 2.800000 -8.880000 -28.457577 -21.108566 1255.405273
1.000000 2.800000 -8.840000 -13.161266 -43.039639 2025.629395
1.000000 2.800000 -8.800000 16.817694 -41.127861 1974.335815
1.000000 2.840000 -9.200000 -47.238281 24.272835 2820.625977
1.000000 2.840000 -9.160000 -69.257858 10.428879 4905.412598
1.000000 2.840000 -9.120000 -78.366722 -19.143002 6507.797852
1.000000 2.840000 -9.080000 -66.614952 -48.470825 6786.972656
1.000000 2.840000 -9.040000 -42.882030 -63.073891 5817.184082
1.000000 2.840000 -9.000000 -22.128639 -63.144310 4476.880371
1.000000 2.840000 -8.960000 -9.677780 -59.616570 3647.794678
1.000000 2.840000 -8.920000 1.388329 -59.059574 3489.960693
1.000000 2.840000 -8.880000 17.721537 -55.904999 3439.421875
1.000000 2.840000 -8.840000 34.129913 -41.274597 2868.443359
1.000000 2.840000 -8.800000 37.755684 -17.342888 1726.267456
1.000000 2.880000 -9.200000 -31.650164 -20.773872 1433.286621
1.000000 2.880000 -9.160000 -40.184944 -18.101358 1942.488892
1.000000 2.880000 -9.120000 -55.846443 -28.351536 3922.634766
1.000000 2.880000 -9.080000 -64.346298 -55.664761 7239.011719
1.000000 2.880000 -9.040000 -51.905895 -90.915749 10959.895508
1.000000 2.880000 -9.000000 -15.595802 -116.124435 13728.114258
1.000000 2.880000 -8.960000 32.830914 -115.390167 14392.759766
1.000000 2.880000 -8.920000 72.542953 -85.560692 12583.111328
1.000000 2.880000 -8.880000 85.791824 -39.633991 8931.090820
1.000000 2.880000 -8.840000 69.259613 0.135193 4796.912109
1.000000 2.880000 -8.800000 36.727184 15.939443 1602.951904
1.000000 2.920000 -9.200000 12.535636 -33.669159 1290.754517
1.000000 2.920000 -9.160000 -7.989365 -12.502863 220.151520
1.000000 2.920000 -9.120000 -45.873024 -24.725239 2715.671631
1.000000 2.920000 -9.080000 -63.107609 -75.942558 9749.841797
1.000000 2.920000 -9.040000 -30.200714 -135.611938 19302.681641
1.000000 2.920000 -9.000000 45.578854 -158.318024 27142.027344
1.000000 2.920000 -8.960000 121.729538 -120.661873 29377.367188
1.000000 2.920000 -8.920000 152.373947 -41.664711 24953.767578
1.000000 2.920000 -8.880000 123.575005 31.460011 16260.514648
1.000000 2.920000 -8.840000 62.108212 59.829971 7437.055664
1.000000 2.920000 -8.800000 11.720499 40.274944 1759.441284
1.000000 2.960000 -9.200000 46.847260 -5.899681 2229.471924
1.000000 2.960000 -9.160000 0.268948 11.840631 140.272888
1.000000 2.960000 -9.120000 -47.784683 -26.985008 3011.566650
1.000000 2.960000 -9.080000 -43.432114 -104.258209 12756.123047
1.000000 2.960000 -9.040000 30.864536 -160.141190 26597.820312
1.000000 2.960000 -9.000000 134.191605 -141.777313 38108.195312
1.000000 2.960000 -8.960000 196.848984 -50.427849 41292.492188
1.000000 2.960000 -8.920000 177.207886 56.992329 34650.761719
1.000000 2.960000 -8.880000 94.729164 114.241684 22024.777344
1.000000 2.960000 -8.840000 10.447842 97.919189 9697.325195
1.000000 2.960000 -8.800000 -24.949493 39.801979 2206.674805
1.000000 3.000000 -9.200000 44.022556 35.951458 3230.492676
1.000000 3.000000 -9.160000 -16.446400 26.335724 964.054443
1.000000 3.000000 -9.120000 -45.970055 -41.286690 3817.836426
1.000000 3.000000 -9.080000 -1.073938 -118.203751 13973.280273
1.000000 3.000000 -9.040000 101.649979 -134.829544 28511.722656
1.000000 3.000000 -9.000000 191.462402 -62.211349 40528.101562
1.000000 3.000000 -8.960000 200.625137 58.258682 43644.519531
1.000000 3.000000 -8.920000 121.764771 146.959427 36423.730469
1.000000 3.000000 -8.880000 12.676207 151.582520 23137.945312
1.000000 3.000000 -8.840000 -54.585297 86.326134 10431.755859
1.000000 3.000000 -8.800000 -51.699341 11.696526 2809.630371
1.000000 3.040000 -9.200000 11.205524 56.687248 3339.007812
1.000000 3.040000 -9.160000 -36.154423 16.994167 1595.944092
1.000000 3.040000 -9.120000 -29.156757 -56.121204 3999.706055
1.000000 3.040000 -9.080000 44.967438 -101.201065 12263.725586
1.000000 3.040000 -9.040000 138.890350 -67.997131 23914.138672
1.000000 3.040000 -9.000000 179.420410 33.713074 33328.253906
1.000000 3.040000 -8.960000 129.798859 136.566208 35498.074219
1.000000 3.040000 -8.920000 22.487719 170.383011 29536.068359
1.000000 3.040000 -8.880000 -68.729515 119.689018 19049.207031
1.000000 3.040000 -8.840000 -90.786308 31.661362 9244.594727
1.000000 3.040000 -8.800000 -49.976494 -29.534910 3369.960938
1.000000 3.080000 -9.200000 -20.690647 44.673168 2423.794678
1.000000 3.080000 -9.160000 -38.043480 -5.008221 1472.388672
1.000000 3.080000 -9.120000 -2.955318 -56.286777 3176.935303
1.000000 3.080000 -9.080000 69.287819 -60.274376 8433.802734
1.000000 3.080000 -9.040000 124.580765 0.473045 15520.590820
1.000000 3.080000 -9.000000 113.554649 89.686432 20938.314453
1.000000 3.080000 -8.960000 36.244152 143.299149 21848.285156
1.000000 3.080000 -8.920000 -55.170174 122.640236 18084.375000
1.000000 3.080000 -8.880000 -99.688766 46.086391 12061.806641
1.000000 3.080000 -8.840000 -76.824059 -29.603436 6778.299316
1.000000 3.080000 -8.800000 -17.266890 -58.759327 3750.803955
1.000000 3.120000 -9.200000 -28.439487 18.319176 1144.396606
1.000000 3.120000 -9.160000 -22.035921 -18.272297 819.458618
1.000000 3.120000 -9.120000 16.496487 -39.401093 1824.580078
1.000000 3.120000 -9.080000 63.337738 -19.768433 4402.459961
1.000000 3.120000 -9.040000 79.415054 35.240707 7548.658203
1.000000 3.120000 -9.000000 44.377865 87.405609 9609.135742
1.000000 3.120000 -8.960000 -21.789124 95.237839 9545.011719
1.000000 3.120000 -8.920000 -72.453186 49.816048 7731.103027
1.000000 3.120000 -8.880000 -72.636330 -16.890068 5561.311035
1.000000 3.120000 -8.840000 -26.792982 -59.418697 4248.445312
1.000000 3.120000 -8.800000 28.798828 -55.853642 3949.001709
1.000000 3.160000 -9.200000 -16.190836 3.316949 273.145294
1.000000 3.160000 -9.160000 -5.277037 -13.740794 216.656540
1.000000 3.160000 -9.120000 19.143621 -17.743177 681.298584
1.000000 3.160000 -9.080000 40.865730 1.184656 1671.411377
1.000000 3.160000 -9.040000 39.266514 33.650124 2674.189941
1.000000 3.160000 -9.000000 9.733105 54.149773 3026.931396
1.000000 3.160000 -8.960000 -27.659189 42.299267 2554.258789
1.000000 3.160000 -8.920000 -42.671921 2.866798 1829.111328
1.000000 3.160000 -8.880000 -20.854244 -35.884315 1722.583618
1.000000 3.160000 -8.840000 23.598494 -45.430035 2620.776855
1.000000 3.160000 -8.800000 60.367744 -20.226086 4053.359131
1.000000 3.200000 -9.200000 -5.493155 6.497705 72.394928
1.000000 3.200000 -9.160000 -2.074266 -1.598031 6.856283
1.000000 3.200000 -9.120000 9.733898 -5.253578 122.348854
1.000000 3.200000 -9.080000 21.866385 3.216033 488.481628
1.000000 3.200000 -9.040000 21.813999 19.334879 849.688110
1.000000 3.200000 -9.000000 7.180750 27.913395 830.720764
1.000000 3.200000 -8.960000 -8.504007 18.007042 396.571716
1.000000 3.200000 -8.920000 -7.074800 -3.804302 64.525505
1.000000 3.200000 -8.880000 16.020176 -16.988871 545.267761
1.000000 3.200000 -8.840000 45.304314 -5.411394 2081.764160
1.000000 3.200000 -8.800000 58.015869 27.377014 4115.341797
1.040000 2.800000 -9.200000 -50.256577 37.256081 3913.738770
1.040000 2.800000 -9.160000 -81.587807 3.075155 6666.026855
1.040000 2.800000 -9.120000 -76.168861 -50.244362 8326.191406
1.040000 2.800000 -9.080000 -31.062668 -83.487549 7935.060059
1.040000 2.800000 -9.040000 21.071589 -72.303925 5671.869141
1.040000 2.800000 -9.000000 42.210846 -31.206841 2755.622314
1.040000 2.800000 -8.960000 24.934578 1.125832 623.000671
1.040000 2.800000 -8.920000 -2.910076 0.090555 8.476744
1.040000 2.800000 -8.880000 -8.745045 -22.815006 597.000366
1.040000 2.800000 -8.840000 11.953612 -35.906738 1432.182617
1.040000 2.800000 -8.800000 34.556305 -22.248524 1689.135010
1.040000 2.840000 -9.200000 -48.512260 -10.074566 2454.936279
1.040000 2.840000 -9.160000 -54.597416 -35.278000 4225.415039
1.040000 2.840000 -9.120000 -40.330124 -63.283623 5631.335938
1.040000 2.840000 -9.080000 -10.094704 -76.038109 5883.696777
1.040000 2.840000 -9.040000 18.447924 -67.569878 4906.014160
1.040000 2.840000 -9.000000 31.760117 -48.984192 3408.156250
1.040000 2.840000 -8.960000 32.427952 -35.499695 2311.800293
1.040000 2.840000 -8.920000 32.960983 -30.554825 2020.023682
1.040000 2.840000 -8.880000 39.455345 -24.923340 2177.896973
1.040000 2.840000 -8.840000 44.564117 -10.876457 2104.257812
1.040000 2.840000 -8.800000 37.826225 6.049708 1467.422363
1.040000 2.880000 -9.200000 -9.886331 -35.718170 1373.527222
1.040000 2.880000 -9.160000 -13.956728 -37.146923 1574.684204
1.040000 2.880000 -9.120000 -17.055458 -49.981220 2789.010986
1.040000 2.880000 -9.080000 -7.760413 -69.910728 4947.733887
1.040000 2.880000 -9.040000 18.054474 -84.376007 7445.274414
1.040000 2.880000 -9.000000 53.269310 -80.950134 9390.543945
1.040000 2.880000 -8.960000 82.994217 -55.777985 9999.223633
1.040000 2.880000 -8.920000 93.058090 -17.009777 8949.140625
1.040000 2.880000 -8.880000 78.719162 18.871815 6552.852051
1.040000 2.880000 -8.840000 48.426441 36.243187 3658.688721
1.040000 2.880000 -8.800000 19.608540 30.072826 1288.869629
1.040000 2.920000 -9.200000 31.592907 -19.267584 1369.351562
1.040000 2.920000 -9.160000 5.758007 -10.133295 135.838318
1.040000 2.920000 -9.120000 -17.700916 -35.474953 1571.794678
1.040000 2.920000 -9.080000 -6.912127 -80.557007 6537.208496
1.040000 2.920000 -9.040000 45.136139 -107.760864 13649.675781
1.040000 2.920000 -9.000000 110.492722 -87.000595 19777.746094
1.040000 2.920000 -8.960000 146.238129 -22.282799 21882.113281
1.040000 2.920000 -8.920000 128.432129 49.441765 18939.300781
1.040000 2.920000 -8.880000 70.861694 86.757599 12548.260742
1.040000 2.920000 -8.840000 12.902229 75.088783 5804.792480
1.040000 2.920000 -8.800000 -11.919706 34.771408 1351.130127
1.040000 2.960000 -9.200000 41.109829 22.198009 2182.769775
1.040000 2.960000 -9.160000 -6.363430 14.477573 250.093369
1.040000 2.960000 -9.120000 -26.678701 -39.308048 2256.875732
1.040000 2.960000 -9.080000 13.319601 -97.562279 9695.810547
1.040000 2.960000 -9.040000 97.235382 -104.772003 20431.892578
1.040000 2.960000 -9.000000 166.881775 -40.473255 29487.611328
1.040000 2.960000 -8.960000 169.206451 59.422371 32161.839844
1.040000 2.960000 -8.920000 100.926636 130.326569 27171.199219
1.040000 2.960000 -8.880000 10.452694 131.454132 17389.449219
1.040000 2.960000 -8.840000 -43.680519 76.093529 7698.212891
1.040000 2.960000 -8.800000 -39.135723 14.639166 1745.910034
1.040000 3.000000 -9.200000 14.472397 51.912285 2904.335449
1.040000 3.000000 -9.160000 -30.614594 13.420221 1117.355713
1.040000 3.000000 -9.120000 -21.451899 -56.106560 3608.129883
1.040000 3.000000 -9.080000 51.868195 -96.004822 11907.235352
1.040000 3.000000 -9.040000 141.331360 -59.426704 23506.085938
1.040000 3.000000 -9.000000 176.590729 41.253769 32886.160156
1.040000 3.000000 -8.960000 124.850113 139.686920 35099.984375
1.040000 3.000000 -8.920000 19.986666 169.580475 29157.003906
1.040000 3.000000 -8.880000 -66.466316 118.755814 18520.714844
1.040000 3.000000 -8.840000 -85.093071 34.556011 8434.948242
1.040000 3.000000 -8.800000 -44.251358 -21.170586 2406.376465
1.040000 3.040000 -9.200000 -21.418886 48.368935 2798.322754
1.040000 3.040000 -9.160000 -39.702503 -8.024890 1640.687622
1.040000 3.040000 -9.120000 2.343842 -64.009575 4102.719238
1.040000 3.040000 -9.080000 84.421692 -64.315063 11263.449219
1.040000 3.040000 -9.040000 144.024445 7.860670 20804.832031
1.040000 3.040000 -9.000000 127.461029 108.834846 28091.335938
1.040000 3.040000 -8.960000 38.288292 166.785675 29283.455078
1.040000 3.040000 -8.920000 -63.230667 141.460907 24009.304688
1.040000 3.040000 -8.880000 -110.489937 56.586151 15410.018555
1.040000 3.040000 -8.840000 -84.126984 -24.033875 7654.976562
1.040000 3.040000 -8.800000 -20.728582 -52.005211 3134.216064
1.040000 3.080000 -9.200000 -37.228386 22.339005 1884.983887
1.040000 3.080000 -9.160000 -26.197178 -25.720842 1347.853760
1.040000 3.080000 -9.120000 27.134457 -49.708950 3207.258545
1.040000 3.080000 -9.080000 87.477051 -18.113243 7980.323730
1.040000 3.080000 -9.040000 103.345978 57.388905 13973.877930
1.040000 3.080000 -9.000000 52.253380 124.316544 18185.017578
1.040000 3.080000 -8.960000 -35.484795 131.017899 18424.859375
1.040000 3.080000 -8.920000 -99.354004 70.861259 14892.535156
1.040000 3.080000 -8.880000 -98.487267 -12.384850 9853.125977
1.040000 3.080000 -8.840000 -43.015083 -62.751884 5788.096680
1.040000 3.080000 -8.800000 20.360630 -57.340302 3702.465332
1.040000 3.120000 -9.200000 -28.353756 1.138238 805.231079
1.040000 3.120000 -9.160000 -6.618942 -23.702816 605.633911
1.040000 3.120000 -9.120000 33.156479 -22.546402 1607.692261
1.040000 3.120000 -9.080000 61.475769 14.362484 3985.551270
1.040000 3.120000 -9.040000 49.531921 65.812492 6784.695312
1.040000 3.120000 -9.000000 -2.315006 92.113762 8490.304688
1.040000 3.120000 -8.960000 -59.495182 68.390106 8216.882812
1.040000 3.120000 -8.920000 -79.853729 8.084629 6441.979492
1.040000 3.120000 -8.880000 -48.819229 -46.795395 4573.125977
1.040000 3.120000 -8.840000 9.549053 -60.446522 3744.966309
1.040000 3.120000 -8.800000 55.055309 -30.729725 3975.403076
1.040000 3.160000 -9.200000 -14.102838 -0.679947 199.352356
1.040000 3.160000 -9.160000 -0.725447 -9.226147 85.648056
1.040000 3.160000 -9.120000 19.065168 -3.780231 377.770813
1.040000 3.160000 -9.080000 29.073408 18.776005 1197.801392
1.040000 3.160000 -9.040000 15.583046 43.750885 2156.971191
1.040000 3.160000 -9.000000 -15.939049 48.427464 2599.272461
1.040000 3.160000 -8.960000 -41.021553 23.539207 2236.862061
1.040000 3.160000 -8.920000 -36.234276 -14.940308 1536.135498
1.040000 3.160000 -8.880000 -0.871037 -37.252808 1388.530396
1.040000 3.160000 -8.840000 41.139069 -24.965590 2315.703613
1.040000 3.160000 -8.800000 61.361507 14.004379 3961.357178
1.040000 3.200000 -9.200000 -13.118783 6.776787 218.027298
1.040000 3.200000 -9.160000 -10.123329 -1.773601 105.627457
1.040000 3.200000 -9.120000 1.822687 -4.421256 22.869694
1.040000 3.200000 -9.080000 12.122711 5.307660 175.131378
1.040000 3.200000 -9.040000 9.303705 19.771320 477.464050
1.040000 3.200000 -9.000000 -4.723917 23.857571 591.499023
1.040000 3.200000 -8.960000 -14.249059 11.698074 339.880615
1.040000 3.200000 -8.920000 -5.287655 -4.775673 50.766346
1.040000 3.200000 -8.880000 18.770374 -5.882298 386.928406
1.040000 3.200000 -8.840000 38.253544 16.613178 1739.331299
1.040000 3.200000 -8.800000 34.624054 50.625492 3761.765625
1.080000 2.800000 -9.200000 -51.249901 2.733583 2634.024658
1.080000 2.800000 -9.160000 -54.830292 -39.422848 4560.521484
1.080000 2.800000 -9.120000 -21.388802 -75.558334 6166.542969
1.080000 2.800000 -9.080000 30.964520 -75.513100 6661.029297
1.080000 2.800000 -9.040000 65.379509 -37.585205 5687.127441
1.080000 2.800000 -9.000000 59.818703 8.238109 3646.143555
1.080000 2.800000 -8.960000 26.963337 28.065224 1514.678345
1.080000 2.800000 -8.920000 0.192690 15.019753 225.630096
1.080000 2.800000 -8.880000 0.579477 -7.746349 60.341721
1.080000 2.800000 -8.840000 18.927774 -13.419691 538.348755
1.080000 2.800000 -8.800000 29.822895 1.483035 891.604492
1.080000 2.840000 -9.200000 -27.368893 -29.785452 1636.229492
1.080000 2.840000 -9.160000 -16.194160 -51.347019 2898.767090
1.080000 2.840000 -9.120000 11.551346 -62.688824 4063.322266
1.080000 2.840000 -9.080000 42.141350 -52.381279 4519.691406
1.080000 2.840000 -9.040000 57.637775 -25.795769 3987.534668
1.080000 2.840000 -9.000000 52.629353 -0.544774 2770.145508
1.080000 2.840000 -8.960000 38.098251 10.335236 1558.293945
1.080000 2.840000 -8.920000 28.726048 9.334007 912.309509
1.080000 2.840000 -8.880000 28.078764 8.382725 858.687073
1.080000 2.840000 -8.840000 27.799030 13.706528 960.654968
1.080000 2.840000 -8.800000 20.470858 19.289993 791.159851
1.080000 2.880000 -9.200000 11.798305 -28.405964 946.098816
1.080000 2.880000 -9.160000 12.157875 -29.739834 1032.271606
1.080000 2.880000 -9.120000 18.096163 -36.472939 1657.746338
1.080000 2.880000 -9.080000 33.389584 -40.445618 2750.712402
1.080000 2.880000 -9.040000 53.446350 -33.464928 3976.413818
1.080000 2.880000 -9.000000 68.621147 -13.626724 4894.549316
1.080000 2.880000 -8.960000 70.527878 13.237892 5149.423340
1.080000 2.880000 -8.920000 57.009659 36.822540 4606.000977
1.080000 2.880000 -8.880000 33.526379 47.718391 3401.062988
1.080000 2.880000 -8.840000 10.834778 42.424931 1917.267212
1.080000 2.880000 -8.800000 -0.316808 25.933308 672.636780
1.080000 2.920000 -9.200000 31.499262 3.536392 1004.709534
1.080000 2.920000 -9.160000 9.195732 0.207130 84.604393
1.080000 2.920000 -9.120000 3.460537 -25.268848 650.490051
1.080000 2.920000 -9.080000 28.329020 -48.889458 3192.712402
1.080000 2.920000 -9.040000 71.503151 -43.586563 7012.489258
1.080000 2.920000 -9.000000 102.162560 -2.905441 10445.629883
1.080000 2.920000 -8.960000 95.537857 51.680840 11798.391602
1.080000 2.920000 -8.920000 53.349808 86.857254 10390.384766
1.080000 2.920000 -8.880000 2.544373 83.442963 6969.201660
1.080000 2.920000 -8.840000 -26.185364 50.261108 3211.852295
1.080000 2.920000 -8.800000 -21.423586 15.118008 687.524170
1.080000 2.960000 -9.200000 16.739357 35.882381 1567.751343
1.080000 2.960000 -9.160000 -14.577499 9.473446 302.249664
1.080000 2.960000 -9.120000 -6.469564 -36.819450 1397.527100
1.080000 2.960000 -9.080000 44.780685 -59.947132 5598.968750
1.080000 2.960000 -9.040000 103.641861 -29.914330 11636.502930
1.080000 2.960000 -9.000000 122.461586 41.465416 16716.220703
1.080000 2.960000 -8.960000 81.799858 107.379128 18221.494141
1.080000 2.960000 -8.920000 7.603237 123.943123 15419.707031
1.080000 2.960000 -8.880000 -50.592651 85.586502 9884.666016
1.080000 2.960000 -8.840000 -60.319820 26.764763 4354.833008
1.080000 2.960000 -8.800000 -29.329674 -9.535691 951.159119
1.080000 3.000000 -9.200000 -15.661984 41.681793 1982.669556
1.080000 3.000000 -9.160000 -30.914179 -6.548662 998.571411
1.080000 3.000000 -9.120000 5.624224 -52.172901 2753.643555
1.080000 3.000000 -9.080000 73.759850 -49.276936 7868.731934
1.080000 3.000000 -9.040000 120.234161 13.159281 14629.420898
1.080000 3.000000 -9.000000 102.498131 96.339928 19787.250000
1.080000 3.000000 -8.960000 26.726463 141.192505 20649.628906
1.080000 3.000000 -8.920000 -55.822304 117.328384 16882.080078
1.080000 3.000000 -8.880000 -91.633682 47.107162 10615.816406
1.080000 3.000000 -8.840000 -67.669601 -16.304014 4844.995605
1.080000 3.000000 -8.800000 -16.290903 -34.729713 1471.546509
1.080000 3.040000 -9.200000 -36.456116 21.466736 1789.869141
1.080000 3.040000 -9.160000 -23.882996 -26.867168 1292.242188
1.080000 3.040000 -9.120000 30.294525 -48.238762 3244.736572
1.080000 3.040000 -9.080000 88.191071 -13.756571 7966.908203
1.080000 3.040000 -9.040000 99.821877 61.321827 13724.773438
1.080000 3.040000 -9.000000 46.868946 124.328979 17654.392578
1.080000 3.040000 -8.960000 -38.064674 127.516571 17709.394531
1.080000 3.040000 -8.920000 -96.833076 68.465103 14064.115234
1.080000 3.040000 -8.880000 -93.644638 -8.772205 8846.269531
1.080000 3.040000 -8.840000 -41.805397 -52.309536 4483.978516
1.080000 3.040000 -8.800000 13.290963 -44.143028 2125.256592
1.080000 3.080000 -9.200000 -33.026237 -1.656127 1093.475220
1.080000 3.080000 -9.160000 -4.197698 -29.690666 899.156311
1.080000 3.080000 -9.120000 42.899506 -23.436275 2389.626465
1.080000 3.080000 -9.080000 71.515778 23.568478 5669.979492
1.080000 3.080000 -9.040000 51.632713 82.249924 9430.986328
1.080000 3.080000 -9.000000 -10.650719 107.704720 11713.744141
1.080000 3.080000 -8.960000 -73.638611 76.883110 11333.658203
1.080000 3.080000 -8.920000 -93.059776 9.676113 8753.749023
1.080000 3.080000 -8.880000 -58.343079 -47.248501 5636.335938
1.080000 3.080000 -8.840000 1.005275 -59.163994 3501.388672
1.080000 3.080000 -8.800000 43.294994 -28.834236 2705.869629
1.080000 3.120000 -9.200000 -18.247608 -8.295792 401.795349
1.080000 3.120000 -9.160000 5.566529 -15.310646 265.402130
1.080000 3.120000 -9.120000 30.917830 1.088020 957.095947
1.080000 3.120000 -9.080000 35.217697 36.344200 2561.187012
1.080000 3.120000 -9.040000 7.430355 65.842957 4390.504883
1.080000 3.120000 -9.000000 -37.353676 63.279480 5399.589844
1.080000 3.120000 -8.960000 -66.447334 24.916218 5036.065918
1.080000 3.120000 -8.920000 -56.210045 -24.114712 3741.088379
1.080000 3.120000 -8.880000 -12.572342 -49.338051 2592.306885
1.080000 3.120000 -8.840000 34.109795 -34.977276 2386.887939
1.080000 3.120000 -8.800000 54.770935 5.256802 3027.489258
1.080000 3.160000 -9.200000 -12.462663 -1.495874 157.555603
1.080000 3.160000 -9.160000 -3.238640 -3.268644 21.172827
1.080000 3.160000 -9.120000 7.031404 4.623066 70.813370
1.080000 3.160000 -9.080000 7.108356 20.680603 478.216064
1.080000 3.160000 -9.040000 -8.204365 31.757214 1075.832275
1.080000 3.160000 -9.000000 -28.799486 24.435768 1426.517090
1.080000 3.160000 -8.960000 -35.481770 0.089890 1258.963989
1.080000 3.160000 -8.920000 -17.625370 -22.810534 830.974121
1.080000 3.160000 -8.880000 15.139658 -23.597023 786.028748
1.080000 3.160000 -8.840000 39.685036 2.269670 1580.053467
1.080000 3.160000 -8.800000 38.618546 39.155487 3024.544434
1.080000 3.200000 -9.200000 -20.146694 0.588807 406.235962
1.080000 3.200000 -9.160000 -16.810287 -9.002916 363.638245
1.080000 3.200000 -9.120000 -5.123981 -11.535723 159.328094
1.080000 3.200000 -9.080000 3.935217 -2.992449 24.440681
1.080000 3.200000 -9.040000 1.907434 8.172070 70.421028
1.080000 3.200000 -9.000000 -6.961430 10.408638 156.801254
1.080000 3.200000 -8.960000 -9.827599 2.673990 103.731918
1.080000 3.200000 -8.920000 0.302822 -3.102757 9.718800
1.080000 3.200000 -8.880000 15.504786 5.887358 275.059357
1.080000 3.200000 -8.840000 19.448122 29.326664 1238.282715
1.080000 3.200000 -8.800000 2.955210 52.588215 2774.253418
1.120000 2.800000 -9.200000 -32.107952 -16.283442 1296.071045
1.120000 2.800000 -9.160000 -13.750154 -45.419617 2252.008301
1.120000 2.800000 -9.120000 25.617550 -53.187817 3485.202637
1.120000 2.800000 -9.080000 61.026012 -28.194584 4519.108398
1.120000 2.800000 -9.040000 67.286758 14.946015 4750.891113
1.120000 2.800000 -9.000000 41.641747 46.754166 3919.986816
1.120000 2.800000 -8.960000 6.087872 48.490112 2388.353271
1.120000 2.800000 -8.920000 -13.229189 27.318474 921.310425
1.120000 2.800000 -8.880000 -8.949039 6.622044 123.936768
1.120000 2.800000 -8.840000 4.563196 2.396312 26.565069
1.120000 2.800000 -8.800000 9.360868 10.033642 188.299820
1.120000 2.840000 -9.200000 -5.325131 -27.083578 761.877197
1.120000 2.840000 -9.160000 13.624817 -35.416859 1439.989502
1.120000 2.840000 -9.120000 38.462242 -28.185688 2273.777100
1.120000 2.840000 -9.080000 54.000767 -3.997446 2932.062256
1.120000 2.840000 -9.040000 49.469658 24.538551 3049.387695
1.120000 2.840000 -9.000000 28.863300 40.969524 2511.592041
1.120000 2.840000 -8.960000 7.245595 39.201710 1589.272705
1.120000 2.840000 -8.920000 -3.107679 27.270166 753.319641
1.120000 2.840000 -8.880000 -2.314470 17.587610 314.680817
1.120000 2.840000 -8.840000 0.973431 14.776042 219.278992
1.120000 2.840000 -8.800000 1.188939 13.972687 196.649551
1.120000 2.880000 -9.200000 16.913265 -10.875041 404.325043
1.120000 2.880000 -9.160000 19.460886 -9.810266 474.967407
1.120000 2.880000 -9.120000 26.513077 -7.720415 762.548035
1.120000 2.880000 -9.080000 34.896896 0.684138 1218.261353
1.120000 2.880000 -9.040000 38.094910 15.386721 1687.973389
1.120000 2.880000 -9.000000 32.101582 30.934341 1987.445068
1.120000 2.880000 -8.960000 18.367432 40.738331 1996.974121
1.120000 2.880000 -8.920000 2.334568 41.246258 1706.703979
1.120000 2.880000 -8.880000 -9.907581 33.229107 1202.333740
1.120000 2.880000 -8.840000 -14.063314 20.820686 631.277771
1.120000 2.880000 -8.800000 -8.992885 10.062647 182.128830
1.120000 2.920000 -9.200000 14.804544 15.053678 445.787720
1.120000 2.920000 -9.160000 2.585728 5.571119 37.723358
1.120000 2.920000 -9.120000 7.662220 -9.680481 152.421326
1.120000 2.920000 -9.080000 27.841814 -12.800038 939.007629
1.120000 2.920000 -9.040000 46.584164 5.089603 2195.988281
1.120000 2.920000 -9.000000 46.316887 35.520935 3406.990723
1.120000 2.920000 -8.960000 23.100536 58.793991 3990.368164
1.120000 2.920000 -8.920000 -9.714737 59.499195 3634.530518
1.120000 2.920000 -8.880000 -31.853561 38.546829 2500.507324
1.120000 2.920000 -8.840000 -31.651501 11.968506 1145.062622
1.120000 2.920000 -8.800000 -14.126779 -1.895366 203.158279
1.120000 2.960000 -9.200000 -6.921867 26.198357 734.266113
1.120000 2.960000 -9.160000 -15.944889 -1.923594 257.939697
1.120000 2.960000 -9.120000 5.160349 -26.384249 722.757812
1.120000 2.960000 -9.080000 42.091522 -22.113579 2260.706543
1.120000 2.960000 -9.040000 64.448746 14.212168 4355.626465
1.120000 2.960000 -9.000000 50.640785 59.104366 6057.815430
1.120000 2.960000 -8.960000 6.743052 80.469055 6520.737793
1.120000 2.960000 -8.920000 -37.881435 63.850830 5511.931641
1.120000 2.960000 -8.880000 -54.657486 23.698351 3549.052490
1.120000 2.960000 -8.840000 -38.284348 -9.866419 1563.037476
1.120000 2.960000 -8.800000 -8.442817 -16.170341 332.761108
1.120000 3.000000 -9.200000 -26.247282 15.056833 915.628052
1.120000 3.000000 -9.160000 -16.425516 -20.164392 676.400269
1.120000 3.000000 -9.120000 22.173405 -34.169838 1659.237793
1.120000 3.000000 -9.080000 61.285217 -8.918180 3835.411865
1.120000 3.000000 -9.040000 67.264023 42.648155 6343.313965
1.120000 3.000000 -9.000000 29.907328 84.038971 7956.997070
1.120000 3.000000 -8.960000 -27.095417 84.421066 7861.078125
1.120000 3.000000 -8.920000 -64.866600 44.222725 6163.325195
1.120000 3.000000 -8.880000 -61.071152 -6.007092 3765.770752
1.120000 3.000000 -8.840000 -26.395294 -32.071354 1725.283325
1.120000 3.000000 -8.800000 7.884550 -23.461369 612.601929
1.120000 3.040000 -9.200000 -27.470642 -4.016507 770.768494
1.120000 3.040000 -9.160000 -0.895709 -27.465099 755.133972
1.120000 3.040000 -9.120000 38.966488 -20.123287 1923.333862
1.120000 3.040000 -9.080000 60.982414 20.179886 4126.082520
1.120000 3.040000 -9.040000 42.799271 67.616882 6403.820312
1.120000 3.040000 -9.000000 -7.953682 86.623596 7566.908691
1.120000 3.040000 -8.960000 -57.154030 61.271896 7020.828125
1.120000 3.040000 -8.920000 -71.301300 9.255411 5169.538086
1.120000 3.040000 -8.880000 -44.479008 -32.903732 3061.037598
1.120000 3.040000 -8.840000 -1.066829 -40.040966 1604.417114
1.120000 3.040000 -8.800000 27.127848 -16.591770 1011.206909
1.120000 3.080000 -9.200000 -15.641217 -12.525763 401.542419
1.120000 3.080000 -9.160000 11.170519 -16.835514 408.215027
1.120000 3.080000 -9.120000 35.278885 3.614951 1257.667603
1.120000 3.080000 -9.080000 35.419617 39.717606 2832.037354
1.120000 3.080000 -9.040000 5.199689 66.150146 4402.878418
1.120000 3.080000 -9.000000 -37.643520 60.594902 5088.776855
1.120000 3.080000 -8.960000 -62.983337 23.609552 4524.312012
1.120000 3.080000 -8.920000 -52.498127 -19.958344 3154.388672
1.120000 3.080000 -8.880000 -14.719387 -40.682888 1871.757812
1.120000 3.080000 -8.840000 22.950460 -27.993073 1310.335693
1.120000 3.080000 -8.800000 37.503376 3.760396 1420.643799
1.120000 3.120000 -9.200000 -7.780272 -7.587326 118.100143
1.120000 3.120000 -9.160000 5.827323 -2.645823 40.958076
1.120000 3.120000 -9.120000 12.906412 13.289004 343.173096
1.120000 3.120000 -9.080000 4.424660 31.929771 1039.087891
1.120000 3.120000 -9.040000 -18.138752 38.400822 1803.637329
1.120000 3.120000 -9.000000 -39.935432 23.740734 2158.461182
1.120000 3.120000 -8.960000 -43.085442 -4.834553 1879.728149
1.120000 3.120000 -8.920000 -22.167143 -27.361092 1240.011597
1.120000 3.120000 -8.880000 9.824474 -26.843098 817.072144
1.120000 3.120000 -8.840000 31.592409 -3.163242 1008.086426
1.120000 3.120000 -8.800000 30.572538 27.718521 1702.996582
1.120000 3.160000 -9.200000 -12.348800 -2.696577 159.764389
1.120000 3.160000 -9.160000 -9.646446 -3.356823 104.322182
1.120000 3.160000 -9.120000 -6.061876 -0.520608 37.017380
1.120000 3.160000 -9.080000 -6.749638 5.154008 72.121407
1.120000 3.160000 -9.040000 -13.141245 7.305866 226.068008
1.120000 3.160000 -9.000000 -18.855457 0.976727 356.482239
1.120000 3.160000 -8.960000 -14.981936 -9.924379 322.951691
1.120000 3.160000 -8.920000 -0.018353 -14.142423 200.008453
1.120000 3.160000 -8.880000 16.424175 -3.264651 280.411499
1.120000 3.160000 -8.840000 20.925373 19.538036 819.606079
1.120000 3.160000 -8.800000 7.773332 41.304531 1766.489014
1.120000 3.200000 -9.200000 -20.113070 -10.290628 510.432587
1.120000 3.200000 -9.160000 -15.196774 -20.231577 640.258667
1.120000 3.200000 -9.120000 -2.893492 -22.761400 526.453674
1.120000 3.200000 -9.080000 7.243047 -15.223228 284.208405
1.120000 3.200000 -9.040000 8.706289 -4.349125 94.714363
1.120000 3.200000 -9.000000 4.308721 1.780897 21.736668
1.120000 3.200000 -8.960000 1.818014 2.608773 10.110870
1.120000 3.200000 -8.920000 4.275905 4.958785 42.872910
1.120000 3.200000 -8.880000 6.046867 14.361099 242.805771
1.120000 3.200000 -8.840000 -1.152721 27.738987 770.780212
1.120000 3.200000 -8.800000 -19.090265 35.452213 1621.297607
1.160000 2.800000 -9.200000 -13.067465 -15.182677 401.272339
1.160000 2.800000 -9.160000 9.583574 -23.413002 640.013550
1.160000 2.800000 -9.120000 34.827583 -11.652880 1348.750244
1.160000 2.800000 -9.080000 45.402733 16.998116 2350.344238
1.160000 2.800000 -9.040000 32.351421 45.940514 3157.145264
1.160000 2.800000 -9.000000 3.291156 57.352142 3300.100098
1.160000 2.800000 -8.960000 -23.382746 46.247883 2685.619629
1.160000 2.800000 -8.920000 -33.409447 23.416479 1664.522705
1.160000 2.800000 -8.880000 -26.909506 4.804123 747.201111
1.160000 2.800000 -8.840000 -14.990297 -2.016406 228.774902
1.160000 2.800000 -8.800000 -7.344450 -1.501134 56.194340
1.160000 2.840000 -9.200000 2.443909 -13.951759 200.624283
1.160000 2.840000 -9.160000 17.471338 -10.058362 406.418304
1.160000 2.840000 -9.120000 28.914917 5.573566 867.137085
1.160000 2.840000 -9.080000 27.209171 27.648548 1504.781250
1.160000 2.840000 -9.040000 10.411312 43.997662 2044.189575
1.160000 2.840000 -9.000000 -12.703155 44.989834 2185.455322
1.160000 2.840000 -8.960000 -29.187263 31.410271 1838.501465
1.160000 2.840000 -8.920000 -32.028809 13.188675 1199.785767
1.160000 2.840000 -8.880000 -24.248608 0.503290 588.248291
1.160000 2.840000 -8.840000 -13.812601 -3.666596 204.231873
1.160000 2.840000 -8.800000 -5.587160 -2.785788 38.976967
1.160000 2.880000 -9.200000 7.677686 -1.213751 60.420048
1.160000 2.880000 -9.160000 9.928251 2.413060 104.393036
1.160000 2.880000 -9.120000 11.865831 9.463797 230.361404
1.160000 2.880000 -9.080000 9.063562 19.159193 449.222839
1.160000 2.880000 -9.040000 -0.293081 26.537083 704.302612
1.160000 2.880000 -9.000000 -12.915273 26.795935 884.826355
1.160000 2.880000 -8.960000 -22.842503 19.437374 899.591431
1.160000 2.880000 -8.920000 -25.898308 8.382454 740.987915
1.160000 2.880000 -8.880000 -21.889458 -1.252132 480.716187
1.160000 2.880000 -8.840000 -13.428744 -6.034820 216.750229
1.160000 2.880000 -8.800000 -3.842297 -4.640733 36.299648
1.160000 2.920000 -9.200000 -0.783448 7.881164 62.726532
1.160000 2.920000 -9.160000 -3.370546 1.089237 12.547020
1.160000 2.920000 -9.120000 1.572029 -2.694595 9.732117
1.160000 2.920000 -9.080000 7.882101 1.367778 63.998333
1.160000 2.920000 -9.040000 8.169046 11.075687 189.404175
1.160000 2.920000 -9.000000 -0.173045 19.139626 366.355194
1.160000 2.920000 -8.960000 -12.862871 18.942398 524.267944
1.160000 2.920000 -8.920000 -21.875969 9.681179 572.283264
1.160000 2.920000 -8.880000 -21.312725 -2.834216 462.265015
1.160000 2.920000 -8.840000 -11.777892 -10.108586 240.902267
1.160000 2.920000 -8.800000 -0.270617 -6.885437 47.482479
1.160000 2.960000 -9.200000 -11.769618 4.253691 156.617798
1.160000 2.960000 -9.160000 -6.989336 -10.855919 166.701797
1.160000 2.960000 -9.120000 8.468902 -15.845226 322.793488
1.160000 2.960000 -9.080000 22.637396 -5.665273 544.547058
1.160000 2.960000 -9.040000 23.735569 13.284983 739.868042
1.160000 2.960000 -9.000000 9.384227 27.479225 843.171509
1.160000 2.960000 -8.960000 -11.128290 26.506058 826.409973
1.160000 2.960000 -8.920000 -23.790009 11.276792 693.130493
1.160000 2.960000 -8.880000 -20.809814 -6.620543 476.879944
1.160000 2.960000 -8.840000 -6.625835 -14.156044 244.295288
1.160000 2.960000 -8.800000 5.955509 -7.169049 86.863358
1.160000 3.000000 -9.200000 -13.265704 -6.375902 216.631042
1.160000 3.000000 -9.160000 2.568211 -18.384825 344.597473
1.160000 3.000000 -9.120000 23.489042 -13.851406 743.596558
1.160000 3.000000 -9.080000 34.654640 6.412180 1242.060181
1.160000 3.000000 -9.040000 26.560493 29.715717 1588.483643
1.160000 3.000000 -9.000000 3.145958 39.943466 1605.377563
1.160000 3.000000 -8.960000 -20.169577 29.824215 1296.295654
1.160000 3.000000 -8.920000 -28.004642 6.991542 833.141663
1.160000 3.000000 -8.880000 -17.031269 -11.930705 432.405823
1.160000 3.000000 -8.840000 1.811512 -14.682269 218.850601
1.160000 3.000000 -8.800000 12.955464 -2.813931 175.762268
1.160000 3.040000 -9.200000 -5.555435 -11.663923 166.909958
1.160000 3.040000 -9.160000 13.152855 -12.211874 322.127441
1.160000 3.040000 -9.120000 27.880623 2.122639 781.834717
1.160000 3.040000 -9.080000 27.728575 24.476868 1367.990967
1.160000 3.040000 -9.040000 10.420000 40.838577 1776.365845
1.160000 3.040000 -9.000000 -14.168734 39.547203 1764.734375
1.160000 3.040000 -8.960000 -30.002888 20.768017 1331.483765
1.160000 3.040000 -8.920000 -26.910843 -2.640834 731.167480
1.160000 3.040000 -8.880000 -8.687449 -14.790898 294.242432
1.160000 3.040000 -8.840000 10.179836 -9.250575 189.202209
1.160000 3.040000 -8.800000 16.674765 6.586401 321.428467
1.160000 3.080000 -9.200000 0.525170 -7.363496 54.496872
1.160000 3.080000 -9.160000 11.207181 0.303878 125.693245
1.160000 3.080000 -9.120000 14.292664 14.298120 408.716492
1.160000 3.080000 -9.080000 6.244781 27.679060 805.127686
1.160000 3.080000 -9.040000 -10.040074 31.769793 1110.122803
1.160000 3.080000 -9.000000 -25.018801 22.379692 1126.791016
1.160000 3.080000 -8.960000 -28.350300 4.475117 823.766174
1.160000 3.080000 -8.920000 -17.081985 -10.071856 393.236511
1.160000 3.080000 -8.880000 1.153764 -11.221160 127.245598
1.160000 3.080000 -8.840000 13.815567 1.238213 192.403061
1.160000 3.080000 -8.800000 13.415669 17.909924 500.745544
1.160000 3.120000 -9.200000 -2.745266 -1.776045 10.690821
1.160000 3.120000 -9.160000 -2.183947 3.346132 15.966226
1.160000 3.120000 -9.120000 -4.282652 7.692029 77.508415
1.160000 3.120000 -9.080000 -8.821198 10.061514 179.047577
1.160000 3.120000 -9.040000 -14.427924 8.432934 279.279358
1.160000 3.120000 -9.000000 -17.328785 2.150600 304.911865
1.160000 3.120000 -8.960000 -13.630785 -5.409806 215.064301
1.160000 3.120000 -8.920000 -3.649320 -7.929774 76.198860
1.160000 3.120000 -8.880000 6.664121 -1.225226 45.911682
1.160000 3.120000 -8.840000 9.754908 12.433660 249.754120
1.160000 3.120000 -8.800000 2.615911 25.593052 661.847351
1.160000 3.160000 -9.200000 -10.429416 -5.338868 137.276230
1.160000 3.160000 -9.160000 -11.638553 -9.231113 220.669357
1.160000 3.160000 -9.120000 -7.912089 -12.950077 230.305664
1.160000 3.160000 -9.080000 -1.969683 -12.471266 159.412125
1.160000 3.160000 -9.040000 1.987682 -8.320139 73.175591
1.160000 3.160000 -9.000000 2.910203 -3.796141 22.879967
1.160000 3.160000 -8.960000 3.009844 -0.475991 9.285730
1.160000 3.160000 -8.920000 3.894592 3.439487 26.997921
1.160000 3.160000 -8.880000 3.722738 10.175356 117.396645
1.160000 3.160000 -8.840000 -1.103517 18.676682 350.036163
1.160000 3.160000 -8.800000 -11.890274 24.607048 746.885437
1.160000 3.200000 -9.200000 -10.305283 -17.658705 418.028717
1.160000 3.200000 -9.160000 -4.045903 -25.986486 691.666809
1.160000 3.200000 -9.120000 8.883608 -27.304867 824.474243
1.160000 3.200000 -9.080000 20.382961 -18.496531 757.586792
1.160000 3.200000 -9.040000 23.511124 -4.214209 570.532532
1.160000 3.200000 -9.000000 17.960442 7.981971 386.289307
1.160000 3.200000 -8.960000 8.707968 14.155290 276.200928
1.160000 3.200000 -8.920000 0.373468 15.775126 248.994095
1.160000 3.200000 -8.880000 -6.466570 16.127777 301.921722
1.160000 3.200000 -8.840000 -13.936056 16.118713 454.026581
1.160000 3.200000 -8.800000 -23.156635 13.738539 724.977173
1.200000 2.800000 -9.200000 -6.093589 -5.424739 66.559624
1.200000 2.800000 -9.160000 6.119036 -0.372856 37.581619
1.200000 2.800000 -9.120000 12.570501 12.837681 322.823547
1.200000 2.800000 -9.080000 8.373368 28.668949 892.021912
1.200000 2.800000 -9.040000 -6.364747 39.009167 1562.225098
1.200000 2.800000 -9.000000 -25.597593 37.581810 2067.629150
1.200000 2.800000 -8.960000 -40.249374 24.074558 2199.596436
1.200000 2.800000 -8.920000 -43.644333 4.645358 1926.407104
1.200000 2.800000 -8.880000 -35.454693 -12.051895 1402.283447
1.200000 2.800000 -8.840000 -20.999266 -20.379734 856.302734
1.200000 2.800000 -8.800000 -6.656071 -20.226845 453.428528
1.200000 2.840000 -9.200000 -1.736754 -5.871441 37.490135
1.200000 2.840000 -9.160000 3.730578 2.033351 18.051731
1.200000 2.840000 -9.120000 3.066526 13.554644 193.131943
1.200000 2.840000 -9.080000 -5.963584 23.514957 588.517578
1.200000 2.840000 -9.040000 -20.871859 25.742090 1098.289673
1.200000 2.840000 -9.000000 -34.801868 17.446568 1515.552734
1.200000 2.840000 -8.960000 -40.604286 1.785055 1651.894409
1.200000 2.840000 -8.920000 -35.584389 -13.906821 1459.648438
1.200000 2.840000 -8.880000 -22.894255 -22.984322 1052.426025
1.200000 2.840000 -8.840000 -8.609827 -23.247574 614.578857
1.200000 2.840000 -8.800000 2.500810 -16.744221 286.622986
1.200000 2.880000 -9.200000 -0.921959 -4.911666 24.974470
1.200000 2.880000 -9.160000 -0.638508 0.025626 0.408350
1.200000 2.880000 -9.120000 -4.411561 5.707116 52.033051
1.200000 2.880000 -9.080000 -12.512284 8.204884 223.877365
1.200000 2.880000 -9.040000 -21.470474 4.438225 480.679108
1.200000 2.880000 -9.000000 -26.274563 -4.842435 713.801819
1.200000 2.880000 -8.960000 -24.107851 -15.309490 815.568970
1.200000 2.880000 -8.920000 -16.120420 -22.174673 751.584106
1.200000 2.880000 -8.880000 -5.980668 -23.101423 569.444153
1.200000 2.880000 -8.840000 2.797899 -18.517324 350.719543
1.200000 2.880000 -8.800000 8.083218 -10.032534 165.990143
1.200000 2.920000 -9.200000 -0.871742 -6.711715 45.807049
1.200000 2.920000 -9.160000 -0.555864 -6.037533 36.760784
1.200000 2.920000 -9.120000 -2.249308 -5.076245 30.827654
1.200000 2.920000 -9.080000 -5.053029 -6.267207 64.810982
1.200000 2.920000 -9.040000 -6.311263 -9.811445 136.096497
1.200000 2.920000 -9.000000 -4.605391 -13.508780 203.696747
1.200000 2.920000 -8.960000 -0.939202 -15.213812 232.342163
1.200000 2.920000 -8.920000 2.866071 -14.634470 222.382065
1.200000 2.920000 -8.880000 6.116485 -12.493267 193.493103
1.200000 2.920000 -8.840000 8.827747 -8.655510 152.846985
1.200000 2.920000 -8.800000 9.762838 -2.301884 100.611679
1.200000 2.960000 -9.200000 2.756362 -9.267707 93.487915
1.200000 2.960000 -9.160000 6.070997 -9.123281 120.091278
1.200000 2.960000 -9.120000 7.711761 -8.414481 130.274734
1.200000 2.960000 -9.080000 9.348910 -8.252108 155.499405
1.200000 2.960000 -9.040000 11.930119 -7.155139 193.523743
1.200000 2.960000 -9.000000 13.793963 -3.850186 205.097351
1.200000 2.960000 -8.960000 12.863763 0.189828 165.512436
1.200000 2.960000 -8.920000 9.802250 2.169630 100.791397
1.200000 2.960000 -8.880000 7.653572 1.657228 61.323570
1.200000 2.960000 -8.840000 7.908411 1.614979 65.151123
1.200000 2.960000 -8.800000 7.842068 4.737128 83.938416
1.200000 3.000000 -9.200000 8.824612 -7.365127 132.118866
1.200000 3.000000 -9.160000 12.837637 -3.885540 179.902344
1.200000 3.000000 -9.120000 14.581575 -0.993983 213.610352
1.200000 3.000000 -9.080000 16.554710 1.674073 276.860962
1.200000 3.000000 -9.040000 18.192167 6.377233 371.624054
1.200000 3.000000 -9.000000 16.433006 12.696515 431.245178
1.200000 3.000000 -8.960000 10.345953 16.741947 387.331543
1.200000 3.000000 -8.920000 3.524738 15.473248 251.845169
1.200000 3.000000 -8.880000 0.676146 10.830287 117.752289
1.200000 3.000000 -8.840000 2.144413 8.032344 69.117058
1.200000 3.000000 -8.800000 3.205977 9.543881 101.363960
1.200000 3.040000 -9.200000 11.114720 -0.243364 123.596237
1.200000 3.040000 -9.160000 11.228611 5.763803 159.303131
1.200000 3.040000 -9.120000 9.940392 8.470285 170.557129
1.200000 3.040000 -9.080000 10.336352 10.512857 217.360352
1.200000 3.040000 -9.040000 10.509319 14.938148 333.594086
1.200000 3.040000 -9.000000 6.811200 20.278942 457.627930
1.200000 3.040000 -8.960000 -0.520577 21.934034 481.372864
1.200000 3.040000 -8.920000 -6.665786 17.967373 367.259186
1.200000 3.040000 -8.880000 -7.473031 12.002395 199.903671
1.200000 3.040000 -8.840000 -4.299407 9.408454 107.003906
1.200000 3.040000 -8.800000 -2.423178 11.235827 132.115616
1.200000 3.080000 -9.200000 5.884111 5.855151 68.905548
1.200000 3.080000 -9.160000 0.810657 9.427633 89.537437
1.200000 3.080000 -9.120000 -2.057949 7.800351 65.080635
1.200000 3.080000 -9.080000 -0.408870 6.648156 44.365154
1.200000 3.080000 -9.040000 1.732488 9.757662 98.213478
1.200000 3.080000 -9.000000 -0.328849 14.788697 218.813705
1.200000 3.080000 -8.960000 -6.167387 16.600725 313.620728
1.200000 3.080000 -8.920000 -10.934719 13.513294 302.177185
1.200000 3.080000 -8.880000 -11.136841 9.128950 207.366943
1.200000 3.080000 -8.840000 -8.434134 7.932014 134.051468
1.200000 3.080000 -8.800000 -7.251458 10.336546 159.427826
1.200000 3.120000 -9.200000 -2.483902 3.972520 21.950682
1.200000 3.120000 -9.160000 -8.623411 1.276600 75.992928
1.200000 3.120000 -9.120000 -7.890335 -5.112679 88.396873
1.200000 3.120000 -9.080000 -0.934952 -7.108912 51.410770
1.200000 3.120000 -9.040000 5.179552 -1.584016 29.336866
1.200000 3.120000 -9.000000 4.625903 7.083617 71.576614
1.200000 3.120000 -8.960000 -1.761861 12.201703 151.985718
1.200000 3.120000 -8.920000 -8.379158 11.421663 200.664673
1.200000 3.120000 -8.880000 -11.036991 8.033827 186.357544
1.200000 3.120000 -8.840000 -10.549584 6.567694 154.428329
1.200000 3.120000 -8.800000 -10.734050 8.194890 182.376038
1.200000 3.160000 -9.200000 -4.942392 -5.310231 52.625793
1.200000 3.160000 -9.160000 -6.362751 -12.598287 199.201431
1.200000 3.160000 -9.120000 1.294457 -18.732677 352.588837
1.200000 3.160000 -9.080000 13.135829 -15.816146 422.700470
1.200000 3.160000 -9.040000 19.803036 -3.715220 405.963074
1.200000 3.160000 -9.000000 16.027800 10.048685 357.866425
1.200000 3.160000 -8.960000 4.742422 17.286299 321.306702
1.200000 3.160000 -8.920000 -6.445434 15.843242 292.551910
1.200000 3.160000 -8.880000 -12.173857 10.077488 249.758545
1.200000 3.160000 -8.840000 -13.019286 5.840053 203.608032
1.200000 3.160000 -8.800000 -13.497256 5.310187 210.374023
1.200000 3.200000 -9.200000 2.806327 -13.241197 183.204758
1.200000 3.200000 -9.160000 7.818333 -19.119850 426.695007
1.200000 3.200000 -9.120000 19.584850 -18.948353 742.606445
1.200000 3.200000 -9.080000 30.271187 -8.117694 982.241699
1.200000 3.200000 -9.040000 31.094238 9.405771 1055.320190
1.200000 3.200000 -9.000000 19.846312 24.003147 970.027100
1.200000 3.200000 -8.960000 2.573302 28.098097 796.124939
1.200000 3.200000 -8.920000 -11.582457 21.628447 601.942993
1.200000 3.200000 -8.880000 -17.432556 11.040436 425.785217
1.200000 3.200000 -8.840000 -16.752155 3.374097 292.019226
1.200000 3.200000 -8.800000 -15.469279 0.793332 239.927979
