#kx 	ky 	kz 	real 	imag 	intensity
7.800000 -2.200000 3.800000 -35.970253 24.315670 1885.110962
7.800000 -2.200000 3.840000 -40.022938 8.002431 1665.874512
7.800000 -2.200000 3.880000 -36.705368 -7.002023 1396.312378
7.800000 -2.200000 3.920000 -27.710152 -18.865725 1123.768066
7.800000 -2.200000 3.960000 -13.766626 -25.508955 840.226807
7.800000 -2.200000 4.000000 2.520673 -23.499466 558.578735
7.800000 -2.200000 4.040000 14.781838 -11.520611 351.227234
7.800000 -2.200000 4.080000 16.276752 5.698450 297.404999
7.800000 -2.200000 4.120000 6.055138 18.901907 393.946777
7.800000 -2.200000 4.160000 -9.067307 21.244648 533.551147
7.800000 -2.200000 4.200000 -19.869682 13.924211 588.687866
7.800000 -2.160000 3.800000 -42.541550 -3.508102 1822.090210
7.800000 -2.160000 3.840000 -35.940933 -15.163678 1521.687866
7.800000 -2.160000 3.880000 -26.583378 -22.729856 1223.322266
7.800000 -2.160000 3.920000 -15.359116 -25.736485 898.269043
7.800000 -2.160000 3.960000 -4.391781 -22.614960 530.724121
7.800000 -2.160000 4.000000 1.789588 -13.883280 195.948074
7.800000 -2.160000 4.040000 -0.121770 -4.628229 21.435333
7.800000 -2.160000 4.080000 -7.634907 -1.510611 60.573746
7.800000 -2.160000 4.120000 -13.218826 -6.295269 214.367783
7.800000 -2.160000 4.160000 -11.239407 -13.237761 301.562592
7.800000 -2.160000 4.200000 -4.037695 -14.406513 223.850601
7.800000 -2.120000 3.800000 -27.020163 -27.967987 1512.297485
7.800000 -2.120000 3.840000 -15.931013 -28.790794 1082.707031
7.800000 -2.120000 3.880000 -7.519893 -25.918564 728.320740
7.800000 -2.120000 3.920000 -2.413414 -20.127169 410.927460
7.800000 -2.120000 3.960000 -2.936621 -13.169260 182.053162
7.800000 -2.120000 4.000000 -9.668026 -10.386427 201.348587
7.800000 -2.120000 4.040000 -16.935829 -16.998539 575.772583
7.800000 -2.120000 4.080000 -15.061356 -30.776947 1174.064941
7.800000 -2.120000 4.120000 0.231476 -40.458649 1636.955811
7.800000 -2.120000 4.160000 20.799664 -34.630901 1631.925293
7.800000 -2.120000 4.200000 30.879013 -13.703999 1141.312988
7.800000 -2.080000 3.800000 -0.352571 -32.882408 1081.377075
7.800000 -2.080000 3.840000 6.212954 -23.186043 576.193359
7.800000 -2.080000 3.880000 5.949162 -13.651611 221.759003
7.800000 -2.080000 3.920000 -0.724108 -7.029459 49.937622
7.800000 -2.080000 3.960000 -12.307278 -8.216873 218.986084
7.800000 -2.080000 4.000000 -21.410023 -21.681416 928.472839
7.800000 -2.080000 4.040000 -16.305416 -43.488823 2157.144287
7.800000 -2.080000 4.080000 8.349394 -58.464264 3487.782471
7.800000 -2.080000 4.120000 41.751316 -50.259430 4269.182617
7.800000 -2.080000 4.160000 61.263294 -17.500389 4059.454834
7.800000 -2.080000 4.200000 50.627888 20.646290 2989.452393
7.800000 -2.040000 3.800000 17.910030 -17.935862 642.464355
7.800000 -2.040000 3.840000 14.098991 -4.696454 220.838226
7.800000 -2.040000 3.880000 3.015697 2.409901 14.902052
7.800000 -2.040000 3.920000 -11.888564 -0.461506 141.550934
7.800000 -2.040000 3.960000 -23.141542 -16.782087 817.169434
7.800000 -2.040000 4.000000 -18.676598 -42.913990 2190.425781
7.800000 -2.040000 4.040000 8.844080 -63.176941 4069.543701
7.800000 -2.040000 4.080000 50.035278 -57.692631 5831.968750
7.800000 -2.040000 4.120000 79.308640 -20.375820 6705.034180
7.800000 -2.040000 4.160000 73.226898 30.190418 6273.640137
7.800000 -2.040000 4.200000 32.072430 61.432949 4802.647949
7.800000 -2.000000 3.800000 16.811949 1.491352 284.865753
7.800000 -2.000000 3.840000 3.996470 9.364530 103.666183
7.800000 -2.000000 3.880000 -11.798029 6.337322 179.355133
7.800000 -2.000000 3.920000 -23.665367 -9.355968 647.583740
7.800000 -2.000000 3.960000 -21.414730 -34.862968 1674.017212
7.800000 -2.000000 4.000000 3.033889 -57.251358 3286.922607
7.800000 -2.000000 4.040000 44.250103 -56.938263 5200.037598
7.800000 -2.000000 4.080000 79.252754 -23.256622 6821.869629
7.800000 -2.000000 4.120000 81.132339 30.817877 7532.198242
7.800000 -2.000000 4.160000 42.296024 72.595840 7059.109863
7.800000 -2.000000 4.200000 -14.756877 73.820168 5667.182617
7.800000 -1.960000 3.800000 2.596926 8.870580 85.431213
7.800000 -1.960000 3.840000 -11.780004 6.733997 184.115204
7.800000 -1.960000 3.880000 -22.214706 -6.290945 533.069214
7.800000 -1.960000 3.920000 -21.378809 -27.222393 1198.112061
7.800000 -1.960000 3.960000 -2.912332 -46.995621 2217.070068
7.800000 -1.960000 4.000000 31.258095 -50.330227 3510.200195
7.800000 -1.960000 4.040000 64.786079 -25.380089 4841.385254
7.800000 -1.960000 4.080000 73.404686 22.217535 5881.866699
7.800000 -1.960000 4.120000 43.957680 66.425034 6344.562500
7.800000 -1.960000 4.160000 -10.309131 77.471527 6108.115723
7.800000 -1.960000 4.200000 -55.672234 46.537239 5265.112305
7.800000 -1.920000 3.800000 -8.997452 0.767157 81.542671
7.800000 -1.920000 3.840000 -16.981018 -8.826153 366.255951
7.800000 -1.920000 3.880000 -16.072620 -23.768301 823.261230
7.800000 -1.920000 3.920000 -3.113717 -37.489349 1415.146484
7.800000 -1.920000 3.960000 20.726267 -40.572655 2075.718262
7.800000 -1.920000 4.000000 45.972164 -24.369352 2707.305176
7.800000 -1.920000 4.040000 55.942245 10.239229 3234.376709
7.800000 -1.920000 4.080000 37.636082 47.211823 3645.430908
7.800000 -1.920000 4.120000 -4.568037 62.718655 3954.496582
7.800000 -1.920000 4.160000 -47.016006 43.521706 4104.643555
7.800000 -1.920000 4.200000 -62.807899 0.444248 3945.029541
7.800000 -1.880000 3.800000 -7.991042 -12.533474 220.944717
7.800000 -1.880000 3.840000 -6.649059 -22.419159 546.828674
7.800000 -1.880000 3.880000 2.854277 -29.968414 906.252747
7.800000 -1.880000 3.920000 17.667891 -29.853687 1203.396973
7.800000 -1.880000 3.960000 31.967110 -18.762135 1373.913818
7.800000 -1.880000 4.000000 37.368355 2.455008 1402.421021
7.800000 -1.880000 4.040000 26.436182 25.837069 1366.425781
7.800000 -1.880000 4.080000 -0.327997 37.787582 1428.008911
7.800000 -1.880000 4.120000 -30.540298 27.842579 1707.919067
7.800000 -1.880000 4.160000 -46.076378 -1.068642 2124.174805
7.800000 -1.880000 4.200000 -36.991318 -31.799610 2379.572754
7.800000 -1.840000 3.800000 2.339306 -19.021690 367.297058
7.800000 -1.840000 3.840000 9.735907 -23.128588 629.719482
7.800000 -1.840000 3.880000 19.391281 -20.186504 783.516724
7.800000 -1.840000 3.920000 25.403782 -10.534613 756.330200
7.800000 -1.840000 3.960000 24.065662 1.871754 582.659607
7.800000 -1.840000 4.000000 14.811166 11.906406 361.133148
7.800000 -1.840000 4.040000 0.108860 14.725957 216.865662
7.800000 -1.840000 4.080000 -14.448921 7.440534 264.132874
7.800000 -1.840000 4.120000 -21.578716 -8.245665 533.631958
7.800000 -1.840000 4.160000 -16.742704 -24.954340 903.037231
7.800000 -1.840000 4.200000 -2.765167 -33.543053 1132.782471
7.800000 -1.800000 3.800000 11.700357 -16.230835 400.338379
7.800000 -1.800000 3.840000 19.432751 -13.574465 561.897888
7.800000 -1.800000 3.880000 22.736767 -4.602718 538.145569
7.800000 -1.800000 3.920000 17.759893 4.550674 336.122467
7.800000 -1.800000 3.960000 7.267404 7.254796 105.447227
7.800000 -1.800000 4.000000 -2.064659 1.711394 7.191686
7.800000 -1.800000 4.040000 -4.978729 -8.366783 94.790802
7.800000 -1.800000 4.080000 -0.812685 -17.156466 295.004761
7.800000 -1.800000 4.120000 7.011852 -20.618694 474.296631
7.800000 -1.800000 4.160000 13.620985 -18.410053 524.461304
7.800000 -1.800000 4.200000 15.499054 -13.741124 429.039185
7.840000 -2.200000 3.800000 -55.494858 14.519007 3290.480713
7.840000 -2.200000 3.840000 -56.021271 -8.681810 3213.756592
7.840000 -2.200000 3.880000 -43.807014 -29.097252 2765.704590
7.840000 -2.200000 3.920000 -22.476822 -39.430195 2059.947754
7.840000 -2.200000 3.960000 0.226589 -35.753792 1278.385010
7.840000 -2.200000 4.000000 15.160446 -19.981712 629.107971
7.840000 -2.200000 4.040000 16.354174 -0.070309 267.463928
7.840000 -2.200000 4.080000 5.074322 13.749193 214.789062
7.840000 -2.200000 4.120000 -10.374527 15.330988 342.669983
7.840000 -2.200000 4.160000 -20.279621 6.829781 457.908936
7.840000 -2.200000 4.200000 -20.649637 -3.442591 438.258972
7.840000 -2.160000 3.800000 -48.120575 -22.411142 2817.849121
7.840000 -2.160000 3.840000 -34.156597 -35.689735 2440.430176
7.840000 -2.160000 3.880000 -15.100822 -39.439041 1783.472778
7.840000 -2.160000 3.920000 1.739536 -31.574968 1000.004639
7.840000 -2.160000 3.960000 8.664993 -16.246449 339.029175
7.840000 -2.160000 4.000000 3.205900 -2.773735 17.971401
7.840000 -2.160000 4.040000 -8.873407 0.388054 78.887947
7.840000 -2.160000 4.080000 -17.060280 -7.575317 348.438599
7.840000 -2.160000 4.120000 -14.354935 -18.635668 553.352295
7.840000 -2.160000 4.160000 -3.349466 -22.462374 515.777161
7.840000 -2.160000 4.200000 5.909270 -15.534191 276.230560
7.840000 -2.120000 3.800000 -15.477266 -41.326660 1947.438599
7.840000 -2.120000 3.840000 1.662560 -35.442047 1258.902832
7.840000 -2.120000 3.880000 11.320742 -20.254822 538.416992
7.840000 -2.120000 3.920000 7.339542 -2.990311 62.810837
7.840000 -2.120000 3.960000 -8.915840 4.714333 101.717133
7.840000 -2.120000 4.000000 -25.993607 -4.801571 698.722656
7.840000 -2.120000 4.040000 -28.990627 -26.893106 1563.695679
7.840000 -2.120000 4.080000 -11.853970 -45.480255 2208.970215
7.840000 -2.120000 4.120000 15.627064 -44.915867 2261.640137
7.840000 -2.120000 4.160000 34.112228 -23.528507 1717.234863
7.840000 -2.120000 4.200000 30.333344 3.736923 934.076355
7.840000 -2.080000 3.800000 17.834503 -29.199778 1170.696533
7.840000 -2.080000 3.840000 22.325327 -6.967881 546.971558
7.840000 -2.080000 3.880000 9.139662 14.063364 281.311646
7.840000 -2.080000 3.920000 -18.367176 19.368473 712.490906
7.840000 -2.080000 3.960000 -44.071568 -0.266766 1942.374268
7.840000 -2.080000 4.000000 -47.139450 -37.518791 3629.787354
7.840000 -2.080000 4.040000 -18.736664 -68.727974 5074.596680
7.840000 -2.080000 4.080000 27.029881 -69.789413 5601.176270
7.840000 -2.080000 4.120000 60.552635 -36.344383 4987.535645
7.840000 -2.080000 4.160000 59.166790 10.262667 3606.031250
7.840000 -2.080000 4.200000 25.789078 38.704891 2163.145020
7.840000 -2.040000 3.800000 27.331102 0.959141 747.909058
7.840000 -2.040000 3.840000 10.672325 24.780445 727.968933
7.840000 -2.040000 3.880000 -23.068487 31.300903 1511.901611
7.840000 -2.040000 3.920000 -56.785820 8.229675 3292.356934
7.840000 -2.040000 3.960000 -65.137497 -39.003838 5764.192871
7.840000 -2.040000 4.000000 -33.385292 -83.632019 8108.892090
7.840000 -2.040000 4.040000 26.041412 -93.275604 9378.493164
7.840000 -2.040000 4.080000 77.108093 -55.804607 9059.812500
7.840000 -2.040000 4.120000 85.722183 7.266129 7401.088867
7.840000 -2.040000 4.160000 47.207829 54.793652 5230.923340
7.840000 -2.040000 4.200000 -9.135134 57.731430 3416.368652
7.840000 -2.000000 3.800000 10.306687 22.479719 611.565552
7.840000 -2.000000 3.840000 -21.386831 31.580875 1454.748291
7.840000 -2.000000 3.880000 -57.344345 12.423807 3442.725098
7.840000 -2.000000 3.920000 -72.306595 -34.694168 6431.928711
7.840000 -2.000000 3.960000 -46.126892 -86.572823 9622.543945
7.840000 -2.000000 4.000000 16.038023 -107.643257 11844.289062
7.840000 -2.000000 4.040000 79.799408 -76.494370 12219.333984
7.840000 -2.000000 4.080000 103.320465 -7.032546 10724.575195
7.840000 -2.000000 4.120000 70.062630 57.376678 8200.855469
7.840000 -2.000000 4.160000 3.909845 75.897186 5775.669922
7.840000 -2.000000 4.200000 -48.849731 42.058296 4155.196289
7.840000 -1.960000 3.800000 -13.638274 19.435366 563.735962
7.840000 -1.960000 3.840000 -44.017265 8.378319 2007.715820
7.840000 -1.960000 3.880000 -61.998497 -28.650331 4664.655273
7.840000 -1.960000 3.920000 -46.481342 -76.811981 8060.595703
7.840000 -1.960000 3.960000 5.890568 -105.140411 11089.205078
7.840000 -1.960000 4.000000 70.313217 -87.194992 12546.916016
7.840000 -1.960000 4.040000 106.116463 -25.119291 11891.682617
7.840000 -1.960000 4.080000 86.879486 45.658230 9632.718750
7.840000 -1.960000 4.120000 23.828047 80.126595 6988.046875
7.840000 -1.960000 4.160000 -40.245964 58.525093 5044.924316
7.840000 -1.960000 4.200000 -63.999588 1.931900 4099.679688
7.840000 -1.920000 3.800000 -22.417343 -0.905421 503.357056
7.840000 -1.920000 3.840000 -37.705460 -23.081373 1954.451416
7.840000 -1.920000 3.880000 -31.920923 -57.802692 4360.096680
7.840000 -1.920000 3.920000 2.902344 -84.373764 7127.355957
7.840000 -1.920000 3.960000 54.389328 -79.159103 9224.362305
7.840000 -1.920000 4.000000 92.277466 -35.121613 9748.658203
7.840000 -1.920000 4.040000 88.505272 26.855156 8554.382812
7.840000 -1.920000 4.080000 40.999851 68.788696 6412.872559
7.840000 -1.920000 4.120000 -20.727259 63.663635 4482.677734
7.840000 -1.920000 4.160000 -56.425282 17.692844 3496.849121
7.840000 -1.920000 4.200000 -46.445942 -34.123512 3321.639648
7.840000 -1.880000 3.800000 -11.035505 -18.230261 454.124786
7.840000 -1.880000 3.840000 -10.105297 -36.361767 1424.295166
7.840000 -1.880000 3.880000 7.529711 -53.263908 2893.740479
7.840000 -1.880000 3.920000 38.388504 -54.190125 4410.247070
7.840000 -1.880000 3.960000 66.400696 -30.334621 5329.241699
7.840000 -1.880000 4.000000 71.318054 10.909134 5205.273926
7.840000 -1.880000 4.040000 44.514679 46.563412 4149.708008
7.840000 -1.880000 4.080000 -0.759350 53.106140 2820.838867
7.840000 -1.880000 4.120000 -36.262478 25.531296 1966.814331
7.840000 -1.880000 4.160000 -39.858948 -16.762701 1869.723877
7.840000 -1.880000 4.200000 -13.237270 -44.628960 2166.969238
7.840000 -1.840000 3.800000 7.540729 -19.550758 439.094727
7.840000 -1.840000 3.840000 14.420278 -24.862377 826.082214
7.840000 -1.840000 3.880000 26.472691 -24.617878 1306.843262
7.840000 -1.840000 3.920000 38.438828 -14.822081 1697.237549
7.840000 -1.840000 3.960000 42.170330 3.485752 1790.487305
7.840000 -1.840000 4.000000 31.691219 22.177654 1496.181763
7.840000 -1.840000 4.040000 9.434639 29.507946 959.731262
7.840000 -1.840000 4.080000 -12.631607 18.818417 513.690308
7.840000 -1.840000 4.120000 -20.519485 -4.458683 440.929138
7.840000 -1.840000 4.160000 -9.525669 -25.285128 730.076050
7.840000 -1.840000 4.200000 11.170874 -30.698454 1067.183472
7.840000 -1.800000 3.800000 18.165119 -8.881227 408.847748
7.840000 -1.800000 3.840000 19.879980 -4.389548 414.481750
7.840000 -1.800000 3.880000 18.656364 0.269044 348.132324
7.840000 -1.800000 3.920000 15.413945 3.178799 247.694473
7.840000 -1.800000 3.960000 11.658340 4.005821 151.963501
7.840000 -1.800000 4.000000 8.086082 3.107641 75.042160
7.840000 -1.800000 4.040000 5.164658 0.382069 26.819666
7.840000 -1.800000 4.080000 4.155687 -4.080029 33.916370
7.840000 -1.800000 4.120000 6.323775 -8.671204 115.179909
7.840000 -1.800000 4.160000 10.958445 -10.873130 238.312469
7.840000 -1.800000 4.200000 15.254226 -9.902687 330.754608
7.880000 -2.200000 3.800000 -64.418388 -12.940404 4317.182617
7.880000 -2.200000 3.840000 -54.645668 -39.211254 4523.671387
7.880000 -2.200000 3.880000 -29.837257 -55.623955 3984.286377
7.880000 -2.200000 3.920000 -0.259418 -53.667309 2880.247314
7.880000 -2.200000 3.960000 20.278925 -34.755959 1619.211426
7.880000 -2.200000 4.000000 23.033066 -9.950176 629.528076
7.880000 -2.200000 4.040000 10.004768 6.928986 148.106232
7.880000 -2.200000 4.080000 -7.595955 8.313240 126.808495
7.880000 -2.200000 4.120000 -17.388897 -2.417528 308.218201
7.880000 -2.200000 4.160000 -14.598289 -14.285029 417.172119
7.880000 -2.200000 4.200000 -4.740306 -17.692276 335.487122
7.880000 -2.160000 3.800000 -36.037254 -45.222412 3343.750244
7.880000 -2.160000 3.840000 -13.917416 -52.174805 2915.904785
7.880000 -2.160000 3.880000 8.531475 -43.500381 1965.069214
7.880000 -2.160000 3.920000 18.973530 -22.887356 883.825928
7.880000 -2.160000 3.960000 12.014748 -3.172451 154.418610
7.880000 -2.160000 4.000000 -5.473348 2.809284 37.849613
7.880000 -2.160000 4.040000 -18.907791 -7.555222 414.585938
7.880000 -2.160000 4.080000 -17.353790 -24.326523 892.933716
7.880000 -2.160000 4.120000 -2.203802 -32.986870 1092.990234
7.880000 -2.160000 4.160000 14.261422 -26.274986 893.763062
7.880000 -2.160000 4.200000 19.303776 -9.783767 468.357849
7.880000 -2.120000 3.800000 6.496439 -43.519897 1936.185181
7.880000 -2.120000 3.840000 21.377487 -25.193310 1091.699829
7.880000 -2.120000 3.880000 18.624374 0.287666 346.950073
7.880000 -2.120000 3.920000 -3.817738 15.801147 264.251373
7.880000 -2.120000 3.960000 -31.877848 7.397377 1070.918335
7.880000 -2.120000 4.000000 -43.823681 -22.140289 2410.707520
7.880000 -2.120000 4.040000 -27.717312 -52.604755 3535.509766
7.880000 -2.120000 4.080000 7.412971 -61.254395 3807.052979
7.880000 -2.120000 4.120000 37.679035 -41.213696 3118.278320
7.880000 -2.120000 4.160000 43.205818 -7.121165 1917.453613
7.880000 -2.120000 4.200000 23.569099 17.092587 847.658936
7.880000 -2.080000 3.800000 29.639406 -10.678078 992.515747
7.880000 -2.080000 3.840000 18.366735 20.103228 741.476746
7.880000 -2.080000 3.880000 -17.680681 35.753357 1590.908936
7.880000 -2.080000 3.920000 -59.740105 17.161549 3863.398926
7.880000 -2.080000 3.960000 -76.760979 -32.372688 6940.239258
7.880000 -2.080000 4.000000 -49.970482 -83.386612 9450.375977
7.880000 -2.080000 4.040000 8.403099 -100.234192 10117.505859
7.880000 -2.080000 4.080000 61.324642 -69.757080 8626.761719
7.880000 -2.080000 4.120000 75.135872 -13.079578 5816.474609
7.880000 -2.080000 4.160000 45.838440 31.030773 3064.071533
7.880000 -2.080000 4.200000 0.377392 37.023422 1370.876221
7.880000 -2.040000 3.800000 17.378555 23.918283 874.098511
7.880000 -2.040000 3.840000 -22.064056 42.773117 2316.362061
7.880000 -2.040000 3.880000 -73.609871 23.850628 5987.265625
7.880000 -2.040000 3.920000 -100.654366 -36.155529 11438.524414
7.880000 -2.040000 3.960000 -73.674744 -106.323822 16732.722656
7.880000 -2.040000 4.000000 1.017677 -139.349197 19419.234375
7.880000 -2.040000 4.040000 79.517426 -108.691528 18136.869141
7.880000 -2.040000 4.080000 111.848114 -32.735481 13581.612305
7.880000 -2.040000 4.120000 81.323227 37.728394 8036.898926
7.880000 -2.040000 4.160000 16.901287 59.514538 3827.633789
7.880000 -2.040000 4.200000 -32.470257 29.606173 1930.843018
7.880000 -2.000000 3.800000 -14.930900 31.685484 1226.901611
7.880000 -2.000000 3.840000 -64.262512 21.308441 4583.720215
7.880000 -2.000000 3.880000 -99.387886 -33.284592 10985.816406
7.880000 -2.000000 3.920000 -83.015572 -110.141602 19022.757812
7.880000 -2.000000 3.960000 -8.254316 -159.610886 25543.767578
7.880000 -2.000000 4.000000 86.569153 -141.187347 27428.085938
7.880000 -2.000000 4.040000 141.870209 -59.730522 23694.890625
7.880000 -2.000000 4.080000 123.102676 33.462265 16273.992188
7.880000 -2.000000 4.120000 49.093201 79.464836 8724.802734
7.880000 -2.000000 4.160000 -23.905111 57.679466 3898.375244
7.880000 -2.000000 4.200000 -48.580379 -1.479449 2362.241943
7.880000 -1.960000 3.800000 -36.620243 10.198099 1445.043457
7.880000 -1.960000 3.840000 -71.202690 -25.887737 5739.998047
7.880000 -1.960000 3.880000 -69.418808 -91.497147 13190.698242
7.880000 -1.960000 3.920000 -11.824841 -147.202850 21808.505859
7.880000 -1.960000 3.960000 79.707222 -147.189774 28018.070312
7.880000 -1.960000 4.000000 150.216583 -78.696709 28758.193359
7.880000 -1.960000 4.040000 152.255127 20.872845 23617.298828
7.880000 -1.960000 4.080000 85.460999 89.064880 15236.134766
7.880000 -1.960000 4.120000 -1.376225 86.957367 7563.477539
7.880000 -1.960000 4.160000 -49.578152 28.847366 3290.163574
7.880000 -1.960000 4.200000 -36.751984 -33.219059 2454.214111
7.880000 -1.920000 3.800000 -30.558971 -17.712761 1247.592651
7.880000 -1.920000 3.840000 -38.671402 -58.978767 4973.972656
7.880000 -1.920000 3.880000 -6.792776 -105.597549 11196.984375
7.880000 -1.920000 3.920000 61.589333 -119.491501 18071.464844
7.880000 -1.920000 3.960000 129.371964 -76.718483 22622.832031
7.880000 -1.920000 4.000000 149.997818 6.988941 22548.191406
7.880000 -1.920000 4.040000 105.469101 82.056717 17857.035156
7.880000 -1.920000 4.080000 24.351837 101.897018 10976.013672
7.880000 -1.920000 4.120000 -38.990944 60.156353 5139.080566
7.880000 -1.920000 4.160000 -47.487976 -5.197140 2282.118164
7.880000 -1.920000 4.200000 -8.806565 -44.873180 2091.157959
7.880000 -1.880000 3.800000 -6.124745 -27.898291 815.827148
7.880000 -1.880000 3.840000 3.708694 -54.585453 2993.326172
7.880000 -1.880000 3.880000 39.918663 -70.763214 6600.932129
7.880000 -1.880000 3.920000 87.083115 -53.818405 10479.889648
7.880000 -1.880000 3.960000 113.466240 -1.770752 12877.723633
7.880000 -1.880000 4.000000 95.257423 58.855743 12537.974609
7.880000 -1.880000 4.040000 38.863735 90.050110 9619.412109
7.880000 -1.880000 4.080000 -20.489117 72.400406 5661.622559
7.880000 -1.880000 4.120000 -45.496841 21.763626 2543.618164
7.880000 -1.880000 4.160000 -26.267878 -23.599131 1246.920410
7.880000 -1.880000 4.200000 13.810252 -34.618816 1389.185425
7.880000 -1.840000 3.800000 14.119741 -16.360001 467.016724
7.880000 -1.840000 3.840000 23.548414 -24.544216 1156.946289
7.880000 -1.840000 3.880000 42.929153 -22.824543 2363.872070
7.880000 -1.840000 3.920000 60.382469 -3.316196 3657.039551
7.880000 -1.840000 3.960000 59.926197 28.361294 4395.512207
7.880000 -1.840000 4.000000 35.466438 53.762581 4148.283203
7.880000 -1.840000 4.040000 -1.083286 55.064621 3033.286133
7.880000 -1.840000 4.080000 -27.024628 30.590094 1666.084351
7.880000 -1.840000 4.120000 -26.818821 -2.345940 724.752563
7.880000 -1.840000 4.160000 -4.824200 -21.271034 475.729797
7.880000 -1.840000 4.200000 19.301636 -16.922413 658.921204
7.880000 -1.800000 3.800000 17.446365 1.911170 308.028259
7.880000 -1.800000 3.840000 15.353765 1.137296 237.031555
7.880000 -1.800000 3.880000 17.066477 0.340218 291.380371
7.880000 -1.800000 3.920000 20.476107 3.696404 432.934326
7.880000 -1.800000 3.960000 20.168411 11.352806 535.651001
7.880000 -1.800000 4.000000 12.893272 18.002966 490.343262
7.880000 -1.800000 4.040000 1.782753 17.406723 306.172241
7.880000 -1.800000 4.080000 -5.668867 8.685585 107.575439
7.880000 -1.800000 4.120000 -4.361790 -2.291246 24.275021
7.880000 -1.800000 4.160000 3.790285 -8.165304 81.038460
7.880000 -1.800000 4.200000 12.217258 -6.640171 193.353271
7.920000 -2.200000 3.800000 -48.543339 -43.064636 4211.018555
7.920000 -2.200000 3.840000 -27.441040 -62.722172 4687.081543
7.920000 -2.200000 3.880000 3.370438 -65.271690 4271.753418
7.920000 -2.200000 3.920000 28.693739 -47.852856 3113.226318
7.920000 -2.200000 3.960000 35.869217 -20.232454 1695.952881
7.920000 -2.200000 4.000000 23.790428 1.508865 568.261169
7.920000 -2.200000 4.040000 3.714945 6.159161 51.736076
7.920000 -2.200000 4.080000 -9.020794 -4.901611 105.400520
7.920000 -2.200000 4.120000 -6.264111 -19.375845 414.662445
7.920000 -2.200000 4.160000 7.368849 -23.961729 628.464355
7.920000 -2.200000 4.200000 18.975155 -14.759469 577.898438
7.920000 -2.160000 3.800000 -7.171661 -53.821255 2948.160156
7.920000 -2.160000 3.840000 15.652576 -48.179955 2566.311279
7.920000 -2.160000 3.880000 29.244598 -27.661190 1620.387939
7.920000 -2.160000 3.920000 24.207405 -4.345413 604.881104
7.920000 -2.160000 3.960000 4.667694 6.032478 58.178165
7.920000 -2.160000 4.000000 -13.855381 -3.101303 201.589676
7.920000 -2.160000 4.040000 -16.464439 -23.359528 816.745300
7.920000 -2.160000 4.080000 -0.726006 -37.819107 1430.812012
7.920000 -2.160000 4.120000 21.566757 -34.403282 1648.710815
7.920000 -2.160000 4.160000 34.024956 -15.067433 1384.725220
7.920000 -2.160000 4.200000 28.474131 6.468388 852.616150
7.920000 -2.120000 3.800000 25.615396 -27.478170 1411.198486
7.920000 -2.120000 3.840000 26.927628 -1.241640 726.638794
7.920000 -2.120000 3.880000 5.152435 19.917995 423.274109
7.920000 -2.120000 3.920000 -28.782429 16.425865 1098.237305
7.920000 -2.120000 3.960000 -49.926468 -14.880661 2714.086182
7.920000 -2.120000 4.000000 -39.222271 -54.546753 4513.734863
7.920000 -2.120000 4.040000 -0.620403 -74.279205 5517.785156
7.920000 -2.120000 4.080000 40.703972 -59.553970 5203.488770
7.920000 -2.120000 4.120000 58.094421 -21.094116 3819.923584
7.920000 -2.120000 4.160000 43.879009 14.582628 2138.020508
7.920000 -2.120000 4.200000 13.177423 26.619957 882.266602
7.920000 -2.080000 3.800000 23.030277 12.621277 689.690308
7.920000 -2.080000 3.840000 -9.086571 35.600483 1349.960205
7.920000 -2.080000 3.880000 -57.795345 25.257938 3978.265381
7.920000 -2.080000 3.920000 -88.393326 -25.703438 8474.046875
7.920000 -2.080000 3.960000 -70.542847 -90.683594 13199.808594
7.920000 -2.080000 4.000000 -7.048454 -125.703888 15851.148438
7.920000 -2.080000 4.040000 63.820560 -104.621948 15018.816406
7.920000 -2.080000 4.080000 97.212311 -41.646622 11184.674805
7.920000 -2.080000 4.120000 77.063629 19.990921 6338.439453
7.920000 -2.080000 4.160000 26.561798 43.198265 2571.619141
7.920000 -2.080000 4.200000 -14.310220 24.487965 804.442810
7.920000 -2.040000 3.800000 -9.825851 31.462685 1086.447876
7.920000 -2.040000 3.840000 -63.163521 25.183437 4623.835938
7.920000 -2.040000 3.880000 -105.016602 -30.670845 11969.187500
7.920000 -2.040000 3.920000 -92.294853 -113.992981 21512.738281
7.920000 -2.040000 3.960000 -15.563828 -170.475708 29304.199219
7.920000 -2.040000 4.000000 84.536835 -155.734421 31399.685547
7.920000 -2.040000 4.040000 145.019073 -74.722473 26613.978516
7.920000 -2.040000 4.080000 130.616318 19.238203 17430.732422
7.920000 -2.040000 4.120000 61.473305 67.073387 8277.806641
7.920000 -2.040000 4.160000 -6.511165 50.274933 2569.964111
7.920000 -2.040000 4.200000 -29.490143 -0.030552 869.669434
7.920000 -2.000000 3.800000 -41.489975 14.871662 1942.584351
7.920000 -2.000000 3.840000 -87.187767 -27.481461 8356.937500
7.920000 -2.000000 3.880000 -88.768402 -109.803482 19936.632812
7.920000 -2.000000 3.920000 -19.518131 -181.943451 33484.375000
7.920000 -2.000000 3.960000 93.261673 -185.428253 43081.375000
7.920000 -2.000000 4.000000 180.889618 -104.934212 43732.242188
7.920000 -2.000000 4.040000 186.466309 12.548904 34927.160156
7.920000 -2.000000 4.080000 112.241142 92.515091 21157.117188
7.920000 -2.000000 4.120000 17.174114 92.522720 8855.404297
7.920000 -2.000000 4.160000 -33.435528 33.070118 2211.567383
7.920000 -2.000000 4.200000 -19.814438 -26.611477 1100.782715
7.920000 -1.960000 3.800000 -44.453259 -18.938944 2334.775879
7.920000 -1.960000 3.840000 -59.540379 -79.187454 9815.708984
7.920000 -1.960000 3.880000 -15.225589 -149.785065 22667.384766
7.920000 -1.960000 3.920000 84.054161 -173.004105 36995.523438
7.920000 -1.960000 3.960000 182.833969 -113.689156 46353.484375
7.920000 -1.960000 4.000000 213.952087 3.477226 45787.585938
7.920000 -1.960000 4.040000 154.761902 106.977318 35395.390625
7.920000 -1.960000 4.080000 48.443687 134.561951 20453.708984
7.920000 -1.960000 4.120000 -31.238621 82.928970 7853.065918
7.920000 -1.960000 4.160000 -40.332527 5.997858 1662.687012
7.920000 -1.960000 4.200000 4.529159 -34.914112 1239.508545
7.920000 -1.920000 3.800000 -19.553562 -39.078121 1909.441406
7.920000 -1.920000 3.840000 -4.248484 -89.578659 8042.385742
7.920000 -1.920000 3.880000 60.462830 -121.803474 18491.839844
7.920000 -1.920000 3.920000 145.425232 -93.768623 29941.052734
7.920000 -1.920000 3.960000 192.731247 -3.726833 37159.222656
7.920000 -1.920000 4.000000 162.645538 99.211555 36296.503906
7.920000 -1.920000 4.040000 70.577423 150.563690 27650.597656
7.920000 -1.920000 4.080000 -22.286917 122.949234 15613.220703
7.920000 -1.920000 4.120000 -58.580116 47.792931 5715.794434
7.920000 -1.920000 4.160000 -29.958752 -13.773527 1087.236816
7.920000 -1.920000 4.200000 22.491966 -23.101553 1039.570312
7.920000 -1.880000 3.800000 8.700603 -31.385115 1060.725952
7.920000 -1.880000 3.840000 34.427719 -57.360725 4475.520508
7.920000 -1.880000 3.880000 86.289139 -55.008640 10471.765625
7.920000 -1.880000 3.920000 130.588531 -6.484222 17095.410156
7.920000 -1.880000 3.960000 128.479752 69.216583 21297.982422
7.920000 -1.880000 4.000000 71.079163 125.667831 20844.652344
7.920000 -1.880000 4.040000 -8.415909 125.819595 15901.397461
7.920000 -1.880000 4.080000 -59.730236 73.635971 8989.957031
7.920000 -1.880000 4.120000 -56.355568 10.697142 3290.378906
7.920000 -1.880000 4.160000 -15.076420 -19.554346 609.670898
7.920000 -1.880000 4.200000 22.822063 -6.645136 565.004395
7.920000 -1.840000 3.800000 18.236242 -8.116112 398.431824
7.920000 -1.840000 3.840000 34.217281 -16.196169 1433.138306
7.920000 -1.840000 3.880000 59.168564 -4.325489 3519.628906
7.920000 -1.840000 3.920000 70.715012 30.737911 5945.432129
7.920000 -1.840000 3.960000 51.346474 70.263458 7573.414062
7.920000 -1.840000 4.000000 6.424698 86.663986 7551.923340
7.920000 -1.840000 4.040000 -37.275013 67.099686 5891.794434
7.920000 -1.840000 4.080000 -52.972115 25.529343 3457.792236
7.920000 -1.840000 4.120000 -35.968201 -8.868090 1372.354492
7.920000 -1.840000 4.160000 -5.863638 -16.311226 300.438354
7.920000 -1.840000 4.200000 12.396273 -1.014502 154.696793
7.920000 -1.800000 3.800000 8.737449 8.903418 155.613861
7.920000 -1.800000 3.840000 10.711247 1.967918 118.603523
7.920000 -1.800000 3.880000 19.493626 2.681225 387.190399
7.920000 -1.800000 3.920000 24.643341 14.246712 810.263062
7.920000 -1.800000 3.960000 17.290531 28.990356 1139.403320
7.920000 -1.800000 4.000000 -0.927860 34.630363 1200.123047
7.920000 -1.800000 4.040000 -18.635401 25.390137 991.937256
7.920000 -1.800000 4.080000 -24.564886 7.172440 654.877563
7.920000 -1.800000 4.120000 -16.950357 -7.998173 351.285370
7.920000 -1.800000 4.160000 -3.667633 -12.351543 166.012161
7.920000 -1.800000 4.200000 5.887136 -7.413815 89.623016
7.960000 -2.200000 3.800000 -13.090107 -52.660645 2944.494385
7.960000 -2.200000 3.840000 10.879915 -58.075066 3491.085693
7.960000 -2.200000 3.880000 34.512764 -46.466034 3350.223145
7.960000 -2.200000 3.920000 45.174278 -22.622501 2552.492920
7.960000 -2.200000 3.960000 37.901134 0.387924 1436.646484
7.960000 -2.200000 4.000000 19.359713 9.989063 474.579834
7.960000 -2.200000 4.040000 3.512863 3.047441 21.627106
7.960000 -2.200000 4.080000 1.645012 -11.649687 138.421280
7.960000 -2.200000 4.120000 13.830715 -19.851749 585.380615
7.960000 -2.200000 4.160000 28.775799 -12.881447 993.978271
7.960000 -2.200000 4.200000 32.726231 5.297390 1099.068604
7.960000 -2.160000 3.800000 20.548649 -37.468765 1826.155273
7.960000 -2.160000 3.840000 33.194992 -22.016352 1586.627197
7.960000 -2.160000 3.880000 30.799660 -1.205685 950.072693
7.960000 -2.160000 3.920000 13.864719 10.605942 304.716431
7.960000 -2.160000 3.960000 -5.237486 4.756004 50.050835
7.960000 -2.160000 4.000000 -11.592445 -14.145615 334.483215
7.960000 -2.160000 4.040000 0.573471 -31.266212 977.904907
7.960000 -2.160000 4.080000 23.287224 -32.685562 1610.640747
7.960000 -2.160000 4.120000 40.775719 -15.719696 1909.768066
7.960000 -2.160000 4.160000 41.027180 9.384570 1771.299683
7.960000 -2.160000 4.200000 24.108385 27.232759 1322.837402
7.960000 -2.120000 3.800000 26.546412 -1.394203 706.655762
7.960000 -2.120000 3.840000 11.012283 19.242035 491.526306
7.960000 -2.120000 3.880000 -20.543377 20.736118 852.016968
7.960000 -2.120000 3.920000 -45.809624 -6.218567 2137.192383
7.960000 -2.120000 3.960000 -41.958561 -47.656685 4031.680664
7.960000 -2.120000 4.000000 -6.177551 -75.097992 5677.870605
7.960000 -2.120000 4.040000 40.085228 -68.132858 6248.912109
7.960000 -2.120000 4.080000 67.458405 -30.857361 5502.812988
7.960000 -2.120000 4.120000 61.217564 12.055864 3892.934082
7.960000 -2.120000 4.160000 30.693604 35.352798 2191.917480
7.960000 -2.120000 4.200000 -1.000919 31.293480 980.283691
7.960000 -2.080000 3.800000 -0.185314 22.756401 517.888123
7.960000 -2.080000 3.840000 -41.402611 22.519600 2221.308594
7.960000 -2.080000 3.880000 -77.366608 -17.787182 6301.975586
7.960000 -2.080000 3.920000 -71.923897 -83.003357 12062.603516
7.960000 -2.080000 3.960000 -14.886871 -130.282745 17195.212891
7.960000 -2.080000 4.000000 63.516460 -122.941452 19148.941406
7.960000 -2.080000 4.040000 113.981216 -62.523941 16900.960938
7.960000 -2.080000 4.080000 107.463394 11.155254 11672.820312
7.960000 -2.080000 4.120000 57.124874 52.528572 6022.501953
7.960000 -2.080000 4.160000 3.976923 45.675869 2102.100830
7.960000 -2.080000 4.200000 -18.709955 11.600333 484.630188
7.960000 -2.040000 3.800000 -34.435246 13.192680 1359.833008
7.960000 -2.040000 3.840000 -77.385101 -23.243814 6528.729004
7.960000 -2.040000 3.880000 -81.217796 -98.550079 16308.449219
7.960000 -2.040000 3.920000 -19.161652 -166.413147 28060.503906
7.960000 -2.040000 3.960000 84.395226 -171.698853 36603.050781
7.960000 -2.040000 4.000000 165.991013 -99.548981 37463.015625
7.960000 -2.040000 4.040000 173.295258 7.095627 30081.593750
7.960000 -2.040000 4.080000 108.526802 80.676804 18286.812500
7.960000 -2.040000 4.120000 24.757290 83.649689 7610.193848
7.960000 -2.040000 4.160000 -20.757776 34.922089 1650.437500
7.960000 -2.040000 4.200000 -12.152819 -13.828817 338.927185
7.960000 -2.000000 3.800000 -44.821064 -20.319195 2421.797363
7.960000 -2.000000 3.840000 -61.597446 -83.394699 10748.920898
7.960000 -2.000000 3.880000 -15.132082 -158.791504 25443.722656
7.960000 -2.000000 3.920000 90.457787 -183.920532 42009.375000
7.960000 -2.000000 3.960000 195.346588 -121.109299 52827.750000
7.960000 -2.000000 4.000000 228.140411 2.305840 52053.363281
7.960000 -2.000000 4.040000 166.592102 110.101479 39875.265625
7.960000 -2.000000 4.080000 57.920696 138.577347 22558.488281
7.960000 -2.000000 4.120000 -21.583012 87.456787 8114.515625
7.960000 -2.000000 4.160000 -30.133459 13.969925 1103.184082
7.960000 -2.000000 4.200000 11.350784 -21.664829 598.205139
7.960000 -1.960000 3.800000 -23.384001 -46.929668 2749.205322
7.960000 -1.960000 3.840000 -4.194124 -109.192635 11940.622070
7.960000 -1.960000 3.880000 76.413925 -148.508179 27893.767578
7.960000 -1.960000 3.920000 181.110931 -112.554871 45469.765625
7.960000 -1.960000 3.960000 237.538895 -1.055249 56425.839844
7.960000 -1.960000 4.000000 198.819183 123.380386 54751.785156
7.960000 -1.960000 4.040000 87.589607 182.750031 41069.515625
7.960000 -1.960000 4.080000 -20.283966 148.323883 22411.414062
7.960000 -1.960000 4.120000 -59.176300 62.397484 7395.280273
7.960000 -1.960000 4.160000 -25.549187 -2.527002 659.146667
7.960000 -1.960000 4.200000 28.396688 -6.946470 854.625366
7.960000 -1.920000 3.800000 8.840637 -44.868698 2091.356934
7.960000 -1.920000 3.840000 49.462254 -83.161041 9362.273438
7.960000 -1.920000 3.880000 127.568390 -77.030960 22207.462891
7.960000 -1.920000 3.920000 190.814880 -2.384094 36416.003906
7.960000 -1.920000 3.960000 183.120010 108.466019 45297.812500
7.960000 -1.920000 4.000000 96.741302 186.060684 43977.457031
7.960000 -1.920000 4.040000 -15.313057 180.865662 32946.875000
7.960000 -1.920000 4.080000 -81.784912 105.783676 17878.958984
7.960000 -1.920000 4.120000 -72.189247 23.457836 5761.557617
7.960000 -1.920000 4.160000 -17.632954 -9.321791 397.816833
7.960000 -1.920000 4.200000 23.747831 12.884193 729.961914
7.960000 -1.880000 3.800000 24.459600 -20.381840 1013.691406
7.960000 -1.880000 3.840000 62.347931 -32.490467 4942.895020
7.960000 -1.880000 3.880000 111.013168 -1.830399 12327.274414
7.960000 -1.880000 3.920000 125.980469 69.918655 20759.695312
7.960000 -1.880000 3.960000 80.455322 140.838226 26308.464844
7.960000 -1.880000 4.000000 -5.823532 161.116348 25992.392578
7.960000 -1.880000 4.040000 -79.190865 116.668411 19882.710938
7.960000 -1.880000 4.080000 -96.649429 42.228035 11124.319336
7.960000 -1.880000 4.120000 -60.956367 -9.269321 3801.599121
7.960000 -1.880000 4.160000 -13.674150 -11.733655 324.661072
7.960000 -1.880000 4.200000 5.001646 16.878181 309.889465
7.960000 -1.840000 3.800000 15.792317 2.314050 254.752121
7.960000 -1.840000 3.840000 37.686909 1.063194 1421.433472
7.960000 -1.840000 3.880000 57.575188 27.346716 4062.745117
7.960000 -1.840000 3.920000 49.064545 70.116890 7323.708008
7.960000 -1.840000 3.960000 6.155701 98.444397 9729.191406
7.960000 -1.840000 4.000000 -47.790039 88.227089 10067.907227
7.960000 -1.840000 4.040000 -78.689941 44.524956 8174.578613
7.960000 -1.840000 4.080000 -70.872887 -2.495464 5029.193359
7.960000 -1.840000 4.120000 -38.912861 -24.121038 2096.035156
7.960000 -1.840000 4.160000 -11.852989 -16.282578 405.615692
7.960000 -1.840000 4.200000 -6.737045 1.763506 48.497734
7.960000 -1.800000 3.800000 -1.862102 6.983787 52.240704
7.960000 -1.800000 3.840000 8.581233 1.363771 75.497429
7.960000 -1.800000 3.880000 18.977425 10.898970 478.930176
7.960000 -1.800000 3.920000 15.348656 29.005926 1076.925049
7.960000 -1.800000 3.960000 -4.445278 39.835804 1606.651733
7.960000 -1.800000 4.000000 -28.346058 32.612278 1867.059692
7.960000 -1.800000 4.040000 -40.902061 10.882866 1791.415405
7.960000 -1.800000 4.080000 -36.223248 -11.616455 1447.065674
7.960000 -1.800000 4.120000 -21.018015 -23.285826 983.986633
7.960000 -1.800000 4.160000 -6.540825 -22.723326 559.131958
7.960000 -1.800000 4.200000 0.978107 -16.299480 266.629761
8.000000 -2.200000 3.800000 17.545547 -32.006874 1332.286133
8.000000 -2.200000 3.840000 32.032173 -25.826040 1693.044434
8.000000 -2.200000 3.880000 40.234955 -11.457748 1750.131592
8.000000 -2.200000 3.920000 37.964058 4.720116 1463.549194
8.000000 -2.200000 3.960000 26.690916 14.903496 934.519226
8.000000 -2.200000 4.000000 13.362434 14.337090 384.106812
8.000000 -2.200000 4.040000 6.846828 4.979150 71.670990
8.000000 -2.200000 4.080000 11.824221 -4.492191 159.991974
8.000000 -2.200000 4.120000 24.138920 -4.167900 600.058838
8.000000 -2.200000 4.160000 32.464390 8.929361 1133.670166
8.000000 -2.200000 4.200000 26.883577 26.889645 1445.779785
8.000000 -2.160000 3.800000 26.228245 -5.811428 721.693542
8.000000 -2.160000 3.840000 24.118719 8.014765 645.949036
8.000000 -2.160000 3.880000 11.517747 15.795971 382.171204
8.000000 -2.160000 3.920000 -2.801222 10.861610 125.821426
8.000000 -2.160000 3.960000 -7.961067 -3.839577 78.120941
8.000000 -2.160000 4.000000 0.736641 -17.935360 322.219757
8.000000 -2.160000 4.040000 18.592075 -20.988071 786.164429
8.000000 -2.160000 4.080000 34.743866 -9.319267 1293.984985
8.000000 -2.160000 4.120000 38.952042 11.840031 1657.447876
8.000000 -2.160000 4.160000 27.644833 31.494171 1756.119629
8.000000 -2.160000 4.200000 6.060897 39.267368 1578.660767
8.000000 -2.120000 3.800000 7.265710 15.709873 299.590637
8.000000 -2.120000 3.840000 -15.470747 19.251301 609.956604
8.000000 -2.120000 3.880000 -37.721672 -0.459175 1423.135376
8.000000 -2.120000 3.920000 -37.935120 -36.150341 2745.920410
8.000000 -2.120000 3.960000 -8.812363 -64.076149 4183.410645
8.000000 -2.120000 4.000000 34.395782 -62.929146 5143.147461
8.000000 -2.120000 4.040000 65.022255 -31.377831 5212.461914
8.000000 -2.120000 4.080000 65.501984 11.122322 4414.215820
8.000000 -2.120000 4.120000 39.354225 40.015617 3150.004639
8.000000 -2.120000 4.160000 5.737541 43.384747 1915.155640
8.000000 -2.120000 4.200000 -16.612469 27.297132 1021.107544
8.000000 -2.080000 3.800000 -22.497967 10.309340 612.440979
8.000000 -2.080000 3.840000 -52.141441 -12.745396 2881.175049
8.000000 -2.080000 3.880000 -56.023399 -63.728512 7199.944336
8.000000 -2.080000 3.920000 -14.402786 -110.790695 12482.018555
8.000000 -2.080000 3.960000 56.611042 -115.354767 16511.533203
8.000000 -2.080000 4.000000 113.548843 -66.453934 17309.464844
8.000000 -2.080000 4.040000 120.190201 7.296146 14498.917969
8.000000 -2.080000 4.080000 76.931412 60.233391 9546.502930
8.000000 -2.080000 4.120000 18.354467 66.143616 4711.864258
8.000000 -2.080000 4.160000 -17.409512 35.752457 1581.329224
8.000000 -2.080000 4.200000 -18.263235 1.631831 336.208618
8.000000 -2.040000 3.800000 -34.648140 -19.086441 1564.785889
8.000000 -2.040000 3.840000 -47.718315 -67.983818 6898.836914
8.000000 -2.040000 3.880000 -10.582237 -127.636856 16403.150391
8.000000 -2.040000 3.920000 74.216736 -147.224701 27183.238281
8.000000 -2.040000 3.960000 158.393677 -96.011810 34306.824219
8.000000 -2.040000 4.000000 184.328979 3.835556 33991.882812
8.000000 -2.040000 4.040000 134.426025 90.895248 26332.300781
8.000000 -2.040000 4.080000 46.829697 114.407288 15282.047852
8.000000 -2.040000 4.120000 -17.793993 74.623901 5885.352539
8.000000 -2.040000 4.160000 -26.945286 16.930487 1012.689819
8.000000 -2.040000 4.200000 2.462783 -12.002477 150.124756
8.000000 -2.000000 3.800000 -16.773020 -46.474686 2441.230713
8.000000 -2.000000 3.840000 1.523481 -101.578537 10320.520508
8.000000 -2.000000 3.880000 75.802368 -135.821884 24193.582031
8.000000 -2.000000 3.920000 171.536835 -100.617294 39548.726562
8.000000 -2.000000 3.960000 221.544678 3.652859 49095.386719
8.000000 -2.000000 4.000000 183.300812 118.110596 47549.300781
8.000000 -2.000000 4.040000 79.492561 170.934860 35537.792969
8.000000 -2.000000 4.080000 -18.984680 137.616867 19298.820312
8.000000 -2.000000 4.120000 -53.124016 59.218399 6328.979980
8.000000 -2.000000 4.160000 -22.589907 2.224014 515.250122
8.000000 -2.000000 4.200000 23.138092 -0.061403 535.375061
8.000000 -1.960000 3.800000 15.563274 -47.878750 2534.590332
8.000000 -1.960000 3.840000 59.377575 -85.555496 10845.439453
8.000000 -1.960000 3.880000 141.455292 -75.675438 25736.371094
8.000000 -1.960000 3.920000 205.469269 6.267264 42256.898438
8.000000 -1.960000 3.960000 192.604187 123.857208 52436.980469
8.000000 -1.960000 4.000000 97.606262 202.529205 50545.062500
8.000000 -1.960000 4.040000 -20.416094 192.151627 37339.062500
8.000000 -1.960000 4.080000 -86.385841 110.744812 19726.925781
8.000000 -1.960000 4.120000 -72.387123 26.894861 5963.229004
8.000000 -1.960000 4.160000 -16.024797 -2.008415 260.827850
8.000000 -1.960000 4.200000 20.887356 23.908297 1007.888306
8.000000 -1.920000 3.800000 34.606644 -24.076290 1777.287476
8.000000 -1.920000 3.840000 83.343498 -34.705711 8150.625000
8.000000 -1.920000 3.880000 141.594803 8.802391 20126.570312
8.000000 -1.920000 3.920000 153.730133 100.530701 33739.375000
8.000000 -1.920000 3.960000 90.141380 185.198883 42424.093750
8.000000 -1.920000 4.000000 -19.069202 202.337738 41304.191406
8.000000 -1.920000 4.040000 -104.971298 140.540451 30770.593750
8.000000 -1.920000 4.080000 -118.314514 48.730919 16373.026367
8.000000 -1.920000 4.120000 -70.143654 -7.602762 4977.934082
8.000000 -1.920000 4.160000 -16.307875 -2.888797 274.291931
8.000000 -1.920000 4.200000 -3.284716 32.948986 1096.425049
8.000000 -1.880000 3.800000 27.430361 1.991061 756.388977
8.000000 -1.880000 3.840000 63.342079 9.453671 4101.590820
8.000000 -1.880000 3.880000 87.339828 58.480972 11048.269531
8.000000 -1.880000 3.920000 62.202255 124.491425 19367.236328
8.000000 -1.880000 3.960000 -12.198532 158.029770 25122.212891
8.000000 -1.880000 4.000000 -92.540710 128.857635 25168.074219
8.000000 -1.880000 4.040000 -127.791954 55.297077 19388.550781
8.000000 -1.880000 4.080000 -103.579407 -11.162193 10853.288086
8.000000 -1.880000 4.120000 -52.255726 -31.468231 3720.910400
8.000000 -1.880000 4.160000 -20.011206 -10.459282 509.844940
8.000000 -1.880000 4.200000 -25.021708 14.701530 842.220825
8.000000 -1.840000 3.800000 6.384162 9.320909 127.636856
8.000000 -1.840000 3.840000 26.716675 19.001236 1074.827637
8.000000 -1.840000 3.880000 29.806828 52.205048 3613.813965
8.000000 -1.840000 3.920000 -1.085922 83.590721 6988.587891
8.000000 -1.840000 3.960000 -52.719231 83.156586 9694.334961
8.000000 -1.840000 4.000000 -91.373787 44.863918 10361.940430
8.000000 -1.840000 4.040000 -92.792000 -6.871971 8657.579102
8.000000 -1.840000 4.080000 -62.968945 -39.432976 5520.047363
8.000000 -1.840000 4.120000 -29.921995 -40.460087 2532.344482
8.000000 -1.840000 4.160000 -16.343342 -24.817650 883.020630
8.000000 -1.840000 4.200000 -21.328539 -15.697487 701.317688
8.000000 -1.800000 3.800000 -6.512144 -1.380291 44.313221
8.000000 -1.800000 3.840000 6.914658 2.330816 53.245193
8.000000 -1.800000 3.880000 8.564690 18.554543 417.624969
8.000000 -1.800000 3.920000 -7.649075 31.235167 1034.143921
8.000000 -1.800000 3.960000 -31.489407 26.524033 1695.106934
8.000000 -1.800000 4.000000 -46.207176 5.166672 2161.797607
8.000000 -1.800000 4.040000 -43.435322 -19.632778 2272.073242
8.000000 -1.800000 4.080000 -28.344086 -35.089733 2034.676636
8.000000 -1.800000 4.120000 -11.925283 -38.494186 1624.014771
8.000000 -1.800000 4.160000 -0.548254 -35.330837 1248.568604
8.000000 -1.800000 4.200000 6.405546 -30.875853 994.349304
8.040000 -2.200000 3.800000 20.095564 3.349591 415.051453
8.040000 -2.200000 3.840000 19.804718 8.786599 469.431183
8.040000 -2.200000 3.880000 17.592060 12.249987 459.542786
8.040000 -2.200000 3.920000 15.257338 14.522030 443.675720
8.040000 -2.200000 3.960000 12.175270 16.313644 414.372192
8.040000 -2.200000 4.000000 8.061211 16.016968 321.526367
8.040000 -2.200000 4.040000 5.763538 12.381147 186.511200
8.040000 -2.200000 4.080000 8.810953 8.551323 150.758026
8.040000 -2.200000 4.120000 15.686488 10.787670 362.439758
8.040000 -2.200000 4.160000 18.500536 21.406187 800.494690
8.040000 -2.200000 4.200000 9.845505 33.707237 1233.111816
8.040000 -2.160000 3.800000 5.758084 17.131947 326.659149
8.040000 -2.160000 3.840000 -4.251554 18.362070 355.241333
8.040000 -2.160000 3.880000 -12.321291 10.110538 254.037201
8.040000 -2.160000 3.920000 -11.177151 -2.254314 130.010635
8.040000 -2.160000 3.960000 -1.030952 -10.101295 103.099014
8.040000 -2.160000 4.000000 11.864880 -8.728754 216.966522
8.040000 -2.160000 4.040000 20.933666 0.657509 438.650696
8.040000 -2.160000 4.080000 22.805363 13.885191 712.883118
8.040000 -2.160000 4.120000 16.776482 26.691278 993.874634
8.040000 -2.160000 4.160000 3.645754 34.887501 1230.429199
8.040000 -2.160000 4.200000 -13.351526 34.235451 1350.329346
8.040000 -2.120000 3.800000 -16.801712 10.813016 399.218811
8.040000 -2.120000 3.840000 -31.405573 -1.800104 989.550354
8.040000 -2.120000 3.880000 -31.590935 -27.880436 1775.305908
8.040000 -2.120000 3.920000 -9.032578 -49.892471 2570.846191
8.040000 -2.120000 3.960000 26.066078 -49.671421 3146.690430
8.040000 -2.120000 4.000000 52.374409 -24.253448 3331.308350
8.040000 -2.120000 4.040000 54.388550 11.675873 3094.440186
8.040000 -2.120000 4.080000 33.457607 37.883842 2554.597168
8.040000 -2.120000 4.120000 4.315015 43.423286 1904.201172
8.040000 -2.120000 4.160000 -17.614960 31.669651 1313.253662
8.040000 -2.120000 4.200000 -26.087269 13.808438 871.218567
8.040000 -2.080000 3.800000 -25.230017 -14.762384 854.481750
8.040000 -2.080000 3.840000 -31.354504 -43.518074 2876.927734
8.040000 -2.080000 3.880000 -7.247555 -77.921135 6124.229980
8.040000 -2.080000 3.920000 44.488808 -87.061600 9558.976562
8.040000 -2.080000 3.960000 93.925652 -53.627243 11697.909180
8.040000 -2.080000 4.000000 107.135925 7.598625 11535.845703
8.040000 -2.080000 4.040000 75.089203 59.727219 9205.728516
8.040000 -2.080000 4.080000 21.104012 73.577194 5858.982910
8.040000 -2.080000 4.120000 -19.637032 49.858593 2871.492432
8.040000 -2.080000 4.160000 -28.625803 14.381231 1026.256348
8.040000 -2.080000 4.200000 -14.758580 -6.868242 264.988434
8.040000 -2.040000 3.800000 -7.950222 -38.826260 1570.684448
8.040000 -2.040000 3.840000 5.842541 -73.859093 5489.300781
8.040000 -2.040000 3.880000 57.353561 -94.531433 12225.622070
8.040000 -2.040000 3.920000 122.531158 -67.145164 19522.357422
8.040000 -2.040000 3.960000 154.550659 7.381031 23940.386719
8.040000 -2.040000 4.000000 124.474350 87.260170 23108.201172
8.040000 -2.040000 4.040000 49.312248 122.463951 17429.117188
8.040000 -2.040000 4.080000 -20.791590 96.832428 9808.809570
8.040000 -2.040000 4.120000 -45.006245 39.954971 3621.961914
8.040000 -2.040000 4.160000 -23.884089 -1.702765 573.349121
8.040000 -2.040000 4.200000 7.830258 -5.594673 92.613312
8.040000 -2.000000 3.800000 23.014971 -39.635971 2100.699219
8.040000 -2.000000 3.840000 56.520226 -64.867882 7402.377930
8.040000 -2.000000 3.880000 118.856644 -53.770119 17018.126953
8.040000 -2.000000 3.920000 165.914581 13.083868 27698.835938
8.040000 -2.000000 3.960000 151.350571 106.396301 34227.167969
8.040000 -2.000000 4.000000 72.018517 166.458405 32895.066406
8.040000 -2.000000 4.040000 -23.500437 153.984909 24263.621094
8.040000 -2.000000 4.080000 -74.747055 85.254181 12855.397461
8.040000 -2.000000 4.120000 -60.723015 16.841984 3970.936768
8.040000 -2.000000 4.160000 -13.859911 -5.425104 221.528900
8.040000 -2.000000 4.200000 15.092163 16.195606 490.071045
8.040000 -1.960000 3.800000 42.296432 -15.749615 2037.038574
8.040000 -1.960000 3.840000 83.188385 -20.943027 7358.917969
8.040000 -1.960000 3.880000 131.111038 20.823616 17623.726562
8.040000 -1.960000 3.920000 136.502594 103.741982 29395.357422
8.040000 -1.960000 3.960000 73.831924 177.190125 36847.492188
8.040000 -1.960000 4.000000 -27.479551 186.812225 35653.933594
8.040000 -1.960000 4.040000 -103.347580 124.736938 26240.027344
8.040000 -1.960000 4.080000 -110.116379 38.754570 13627.534180
8.040000 -1.960000 4.120000 -61.599468 -10.226347 3899.072510
8.040000 -1.960000 4.160000 -12.258812 -1.429313 152.321411
8.040000 -1.960000 4.200000 -4.432882 33.132690 1117.425537
8.040000 -1.920000 3.800000 35.213936 12.163221 1387.965210
8.040000 -1.920000 3.840000 68.846268 24.478735 5339.017090
8.040000 -1.920000 3.880000 87.362900 77.624733 13657.875000
8.040000 -1.920000 3.920000 53.700760 144.055588 23635.783203
8.040000 -1.920000 3.960000 -28.760769 171.816833 30348.205078
8.040000 -1.920000 4.000000 -111.448044 132.242828 29908.832031
8.040000 -1.920000 4.040000 -141.047928 49.709522 22365.554688
8.040000 -1.920000 4.080000 -107.140694 -18.265419 11812.753906
8.040000 -1.920000 4.120000 -49.800255 -32.347519 3526.427246
8.040000 -1.920000 4.160000 -19.998474 -3.912514 415.246735
8.040000 -1.920000 4.200000 -32.956261 22.024307 1571.185181
8.040000 -1.880000 3.800000 11.392298 21.376295 586.730469
8.040000 -1.880000 3.840000 31.335804 40.227501 2600.184570
8.040000 -1.880000 3.880000 25.013445 83.171341 7543.144531
8.040000 -1.880000 3.920000 -23.194637 115.590546 13899.165039
8.040000 -1.880000 3.960000 -90.109062 102.373558 18599.988281
8.040000 -1.880000 4.000000 -130.823975 43.385208 18997.187500
8.040000 -1.880000 4.040000 -119.334869 -23.416166 14789.127930
8.040000 -1.880000 4.080000 -72.171196 -55.896576 8333.109375
8.040000 -1.880000 4.120000 -31.235329 -45.167656 3015.762939
8.040000 -1.880000 4.160000 -23.804649 -19.481470 946.188965
8.040000 -1.880000 4.200000 -40.184181 -12.783794 1778.193848
8.040000 -1.840000 3.800000 -5.888392 8.710356 110.543465
8.040000 -1.840000 3.840000 3.770704 24.904345 634.444580
8.040000 -1.840000 3.880000 -11.070034 49.088112 2532.188477
8.040000 -1.840000 3.920000 -48.760845 54.114120 5305.958008
8.040000 -1.840000 3.960000 -83.714096 26.277786 7698.571777
8.040000 -1.840000 4.000000 -89.730728 -19.903339 8447.746094
8.040000 -1.840000 4.040000 -64.545471 -54.850941 7174.743164
8.040000 -1.840000 4.080000 -30.447590 -61.433640 4701.147949
8.040000 -1.840000 4.120000 -11.365248 -48.539833 2485.284424
8.040000 -1.840000 4.160000 -11.045644 -38.210468 1582.046143
8.040000 -1.840000 4.200000 -14.071224 -41.957985 1958.471924
8.040000 -1.800000 3.800000 -3.374915 -8.276051 79.883064
8.040000 -1.800000 3.840000 2.166014 3.340436 15.850128
8.040000 -1.800000 3.880000 -8.399857 14.431339 278.821136
8.040000 -1.800000 3.920000 -27.301123 10.919178 864.579773
8.040000 -1.800000 3.960000 -38.809525 -7.896038 1568.526611
8.040000 -1.800000 4.000000 -34.485523 -29.867630 2081.326660
8.040000 -1.800000 4.040000 -19.438454 -42.918129 2219.819336
8.040000 -1.800000 4.080000 -4.312317 -45.497150 2088.586914
8.040000 -1.800000 4.120000 6.222004 -44.084610 1982.166260
8.040000 -1.800000 4.160000 15.400097 -42.954231 2082.229004
8.040000 -1.800000 4.200000 26.335972 -39.465019 2251.071289
8.080000 -2.200000 3.800000 -5.756468 24.549482 635.813965
8.080000 -2.200000 3.840000 -13.473254 17.527246 488.732971
8.080000 -2.200000 3.880000 -11.715141 6.728070 182.511475
8.080000 -2.200000 3.920000 -2.047371 2.694201 11.450444
8.080000 -2.200000 3.960000 5.355675 8.559921 101.955505
8.080000 -2.200000 4.000000 3.487608 16.627556 288.639038
8.080000 -2.200000 4.040000 -3.598852 17.688545 325.836365
8.080000 -2.200000 4.080000 -6.124366 12.014583 181.858047
8.080000 -2.200000 4.120000 -0.853392 8.856988 79.174515
8.080000 -2.200000 4.160000 4.369338 14.864925 240.057114
8.080000 -2.200000 4.200000 -0.404231 24.994919 624.909363
8.080000 -2.160000 3.800000 -22.956942 14.049974 724.422974
8.080000 -2.160000 3.840000 -27.835625 1.792788 778.036133
8.080000 -2.160000 3.880000 -20.402216 -12.091025 562.443359
8.080000 -2.160000 3.920000 -4.246935 -15.959123 272.730072
8.080000 -2.160000 3.960000 8.868176 -7.026904 128.021912
8.080000 -2.160000 4.000000 10.979027 6.621517 164.383514
8.080000 -2.160000 4.040000 4.618024 15.330555 256.352051
8.080000 -2.160000 4.080000 -2.318892 17.213963 301.697754
8.080000 -2.160000 4.120000 -6.312748 17.294369 338.945984
8.080000 -2.160000 4.160000 -10.826913 18.869377 473.275452
8.080000 -2.160000 4.200000 -19.469414 18.413803 718.126221
8.080000 -2.120000 3.800000 -25.920929 -10.371298 779.458374
8.080000 -2.120000 3.840000 -24.364273 -26.505554 1296.162231
8.080000 -2.120000 3.880000 -6.889795 -40.352966 1675.831177
8.080000 -2.120000 3.920000 19.409706 -37.525600 1784.907349
8.080000 -2.120000 3.960000 37.655460 -15.793888 1667.380615
8.080000 -2.120000 4.000000 36.021095 12.263817 1447.920532
8.080000 -2.120000 4.040000 17.342869 30.274397 1217.314209
8.080000 -2.120000 4.080000 -5.019320 31.211985 999.381531
8.080000 -2.120000 4.120000 -19.386765 20.429859 793.225830
8.080000 -2.120000 4.160000 -23.619829 7.771779 618.296875
8.080000 -2.120000 4.200000 -22.563126 -1.574450 511.573517
8.080000 -2.080000 3.800000 -6.445233 -30.669230 982.142639
8.080000 -2.080000 3.840000 4.069424 -46.284225 2158.789795
8.080000 -2.080000 3.880000 32.641937 -51.991962 3768.660156
8.080000 -2.080000 3.920000 64.338531 -31.988504 5162.710938
8.080000 -2.080000 3.960000 75.061714 9.567432 5725.796387
8.080000 -2.080000 4.000000 53.343849 48.934441 5240.145508
8.080000 -2.080000 4.040000 11.748777 62.013935 3983.761719
8.080000 -2.080000 4.080000 -23.327953 44.363380 2512.302979
8.080000 -2.080000 4.120000 -33.648071 13.358152 1310.632935
8.080000 -2.080000 4.160000 -22.233805 -8.530491 567.111328
8.080000 -2.080000 4.200000 -6.594161 -12.564824 201.357758
8.080000 -2.040000 3.800000 23.910110 -28.383556 1377.319580
8.080000 -2.040000 3.840000 42.079735 -37.606487 3184.952148
8.080000 -2.040000 3.880000 75.005356 -26.969620 6353.163574
8.080000 -2.040000 3.920000 97.453857 14.225891 9699.629883
8.080000 -2.040000 3.960000 83.297836 68.068878 11571.901367
8.080000 -2.040000 4.000000 32.408089 99.459312 10942.439453
8.080000 -2.040000 4.040000 -25.089397 86.578552 8125.323730
8.080000 -2.040000 4.080000 -53.345703 41.167309 4540.511719
8.080000 -2.040000 4.120000 -41.367516 -1.783102 1714.450806
8.080000 -2.040000 4.160000 -10.299478 -15.202118 337.183624
8.080000 -2.040000 4.200000 8.779960 -1.877253 80.611771
8.080000 -2.000000 3.800000 41.896568 -2.702941 1762.628296
8.080000 -2.000000 3.840000 62.322395 -1.907852 3887.720947
8.080000 -2.000000 3.880000 87.207184 25.914238 8276.640625
8.080000 -2.000000 3.920000 85.355026 78.328613 13420.851562
8.080000 -2.000000 3.960000 40.040573 122.864288 16698.880859
8.080000 -2.000000 4.000000 -28.959080 123.751198 16152.987305
8.080000 -2.000000 4.040000 -78.124069 76.481697 11952.820312
8.080000 -2.000000 4.080000 -78.055435 14.887812 6314.297852
8.080000 -2.000000 4.120000 -39.706345 -18.301914 1911.553833
8.080000 -2.000000 4.160000 -2.698147 -9.304222 93.848549
8.080000 -2.000000 4.200000 2.678126 17.463537 312.147491
8.080000 -1.960000 3.800000 33.237022 26.865692 1826.465088
8.080000 -1.960000 3.840000 49.609840 36.545273 3796.693359
8.080000 -1.960000 3.880000 56.661446 72.512794 8468.625000
8.080000 -1.960000 3.920000 27.636292 116.572159 14352.833008
8.080000 -1.960000 3.960000 -35.377182 131.063354 18429.148438
8.080000 -1.960000 4.000000 -95.831779 94.927094 18194.882812
8.080000 -1.960000 4.040000 -113.107353 27.861210 13569.520508
8.080000 -1.960000 4.080000 -80.383896 -24.366676 7055.305664
8.080000 -1.960000 4.120000 -31.392912 -31.044403 1949.269775
8.080000 -1.960000 4.160000 -8.233116 -3.445557 79.656067
8.080000 -1.960000 4.200000 -22.214771 19.259560 864.426697
8.080000 -1.920000 3.800000 6.265734 37.320168 1432.054321
8.080000 -1.920000 3.840000 15.230179 51.258255 2859.366943
8.080000 -1.920000 3.880000 4.238214 82.148277 6766.301758
8.080000 -1.920000 3.920000 -39.152195 102.271568 11992.368164
8.080000 -1.920000 3.960000 -94.762085 83.060699 15878.931641
8.080000 -1.920000 4.000000 -123.896042 26.294949 16041.654297
8.080000 -1.920000 4.040000 -105.448883 -32.770271 12193.357422
8.080000 -1.920000 4.080000 -57.361595 -56.425049 6474.138672
8.080000 -1.920000 4.120000 -20.164616 -39.281853 1949.675659
8.080000 -1.920000 4.160000 -18.493599 -11.443804 472.973877
8.080000 -1.920000 4.200000 -39.508614 -6.994628 1609.855347
8.080000 -1.880000 3.800000 -15.500175 23.084717 773.159607
8.080000 -1.880000 3.840000 -13.462090 36.840942 1538.482910
8.080000 -1.880000 3.880000 -33.875515 54.079571 4072.150391
8.080000 -1.880000 3.920000 -72.460487 49.284515 7679.485840
8.080000 -1.880000 3.960000 -102.062881 12.136589 10564.128906
8.080000 -1.880000 4.000000 -97.595734 -38.405151 10999.882812
8.080000 -1.880000 4.040000 -61.479446 -69.789093 8650.240234
8.080000 -1.880000 4.080000 -22.252283 -66.515808 4919.516602
8.080000 -1.880000 4.120000 -7.007312 -44.017403 1986.634155
8.080000 -1.880000 4.160000 -16.019449 -31.497318 1248.703857
8.080000 -1.880000 4.200000 -25.497250 -42.061714 2419.297363
8.080000 -1.840000 3.800000 -15.328803 0.528561 235.251572
8.080000 -1.840000 3.840000 -18.299517 11.953147 477.750031
8.080000 -1.840000 3.880000 -37.865314 15.655758 1678.884766
8.080000 -1.840000 3.920000 -59.527103 -2.074280 3547.778809
8.080000 -1.840000 3.960000 -62.761272 -35.189644 5177.288086
8.080000 -1.840000 4.000000 -41.868103 -62.298908 5634.092285
8.080000 -1.840000 4.040000 -11.941759 -67.481026 4696.294434
8.080000 -1.840000 4.080000 6.656284 -55.286423 3100.894775
8.080000 -1.840000 4.120000 8.506419 -44.115200 2018.510010
8.080000 -1.840000 4.160000 6.395176 -45.803665 2138.874023
8.080000 -1.840000 4.200000 15.156158 -53.967113 3142.158447
8.080000 -1.800000 3.800000 1.621705 -8.574022 76.143784
8.080000 -1.800000 3.840000 -5.202999 -0.565350 27.390816
8.080000 -1.800000 3.880000 -18.333902 -4.902798 360.169403
8.080000 -1.800000 3.920000 -23.636286 -21.577711 1024.271606
8.080000 -1.800000 3.960000 -14.317955 -38.371815 1677.399902
8.080000 -1.800000 4.000000 2.555901 -44.048309 1946.786133
8.080000 -1.800000 4.040000 14.994539 -39.678108 1799.188477
8.080000 -1.800000 4.080000 19.653393 -35.329586 1634.435547
8.080000 -1.800000 4.120000 24.203890 -36.715931 1933.887939
8.080000 -1.800000 4.160000 36.130920 -37.982315 2748.099609
8.080000 -1.800000 4.200000 51.870937 -29.333763 3551.063965
8.120000 -2.200000 3.800000 -36.217110 15.134488 1540.731812
8.120000 -2.200000 3.840000 -37.451180 -4.817184 1425.796143
8.120000 -2.200000 3.880000 -21.079544 -19.611645 828.963745
8.120000 -2.200000 3.920000 0.450163 -15.763031 248.675797
8.120000 -2.200000 3.960000 8.793488 2.300088 82.615829
8.120000 -2.200000 4.000000 -1.101602 16.351681 268.591003
8.120000 -2.200000 4.040000 -15.846687 13.497103 433.289276
8.120000 -2.200000 4.080000 -18.299665 -0.506497 335.134277
8.120000 -2.200000 4.120000 -5.995639 -8.224756 103.594299
8.120000 -2.200000 4.160000 6.763620 0.070262 45.751492
8.120000 -2.200000 4.200000 5.020386 15.930497 278.985016
8.120000 -2.160000 3.800000 -35.797199 -9.923845 1379.922119
8.120000 -2.160000 3.840000 -27.486794 -25.823750 1422.389893
8.120000 -2.160000 3.880000 -6.749761 -30.756714 991.534729
8.120000 -2.160000 3.920000 11.338505 -17.670208 440.797913
8.120000 -2.160000 3.960000 12.557695 3.494459 169.906952
8.120000 -2.160000 4.000000 -1.723126 15.384789 239.660904
8.120000 -2.160000 4.040000 -16.291485 10.732096 380.590363
8.120000 -2.160000 4.080000 -18.252882 -1.212836 334.638672
8.120000 -2.160000 4.120000 -9.816350 -5.886208 131.008179
8.120000 -2.160000 4.160000 -4.180458 0.606822 17.844458
8.120000 -2.160000 4.200000 -9.872936 8.198479 164.689911
8.120000 -2.120000 3.800000 -14.222092 -28.457813 1012.114990
8.120000 -2.120000 3.840000 -1.890142 -35.261616 1246.954224
8.120000 -2.120000 3.880000 16.681456 -30.205105 1190.619263
8.120000 -2.120000 3.920000 27.820942 -10.887640 892.545532
8.120000 -2.120000 3.960000 21.559200 11.373143 594.147461
8.120000 -2.120000 4.000000 2.091679 21.526991 467.786469
8.120000 -2.120000 4.040000 -15.951830 14.806330 473.688293
8.120000 -2.120000 4.080000 -21.306469 0.245737 454.026001
8.120000 -2.120000 4.120000 -15.526008 -9.301839 327.581116
8.120000 -2.120000 4.160000 -8.980020 -9.536256 171.580933
8.120000 -2.120000 4.200000 -8.889400 -6.860417 126.086746
8.120000 -2.080000 3.800000 16.345507 -23.930168 839.828552
8.120000 -2.080000 3.840000 25.498253 -22.206123 1143.272827
8.120000 -2.080000 3.880000 37.169712 -10.720664 1496.520142
8.120000 -2.080000 3.920000 39.333702 11.304985 1674.942871
8.120000 -2.080000 3.960000 23.986837 32.153717 1609.229980
8.120000 -2.080000 4.000000 -2.947035 37.048973 1381.311523
8.120000 -2.080000 4.040000 -24.998991 22.045763 1110.965210
8.120000 -2.080000 4.080000 -29.167450 -1.691339 853.600769
8.120000 -2.080000 4.120000 -16.956181 -17.666122 599.603943
8.120000 -2.080000 4.160000 -1.785943 -18.395235 341.574280
8.120000 -2.080000 4.200000 4.177114 -10.467112 127.008705
8.120000 -2.040000 3.800000 33.497566 3.546111 1134.661865
8.120000 -2.040000 3.840000 35.454197 8.501022 1329.267456
8.120000 -2.040000 3.880000 38.722275 21.472908 1960.500366
8.120000 -2.040000 3.920000 30.930664 41.892372 2711.676758
8.120000 -2.040000 3.960000 5.875319 55.777046 3145.598145
8.120000 -2.040000 4.000000 -26.067692 48.187546 3001.563965
8.120000 -2.040000 4.040000 -44.372448 19.516691 2349.815430
8.120000 -2.040000 4.080000 -36.885403 -11.910470 1502.392212
8.120000 -2.040000 4.120000 -11.972310 -25.216589 779.212524
8.120000 -2.040000 4.160000 8.717201 -15.815739 326.127197
8.120000 -2.040000 4.200000 10.384863 1.148839 109.165207
8.120000 -2.000000 3.800000 23.332142 34.753899 1752.222412
8.120000 -2.000000 3.840000 19.425200 37.299576 1768.596680
8.120000 -2.000000 3.880000 15.537221 47.576653 2504.943115
8.120000 -2.000000 3.920000 -1.019055 61.068924 3730.452148
8.120000 -2.000000 3.960000 -31.327866 61.151421 4720.931641
8.120000 -2.000000 4.000000 -58.387089 36.981243 4776.664551
8.120000 -2.000000 4.040000 -61.247719 -1.379583 3753.186279
8.120000 -2.000000 4.080000 -36.587799 -28.743761 2164.870850
8.120000 -2.000000 4.120000 -4.487750 -27.756599 790.568726
8.120000 -2.000000 4.160000 9.449967 -6.009277 125.413300
8.120000 -2.000000 4.200000 -1.526890 11.168468 127.066055
8.120000 -1.960000 3.800000 -6.552512 46.476997 2203.046631
8.120000 -1.960000 3.840000 -11.921164 44.795605 2148.760254
8.120000 -1.960000 3.880000 -20.359047 49.935360 2908.031006
8.120000 -1.960000 3.920000 -40.984379 51.902664 4373.605957
8.120000 -1.960000 3.960000 -66.567612 35.662922 5703.090820
8.120000 -1.960000 4.000000 -76.890862 0.528792 5912.484375
8.120000 -1.960000 4.040000 -59.269005 -33.857761 4659.163086
8.120000 -1.960000 4.080000 -24.512785 -44.221161 2556.387695
8.120000 -1.960000 4.120000 0.695186 -27.058926 732.668762
8.120000 -1.960000 4.160000 -0.869083 -3.517958 13.131332
8.120000 -1.960000 4.200000 -19.811968 1.000095 393.514252
8.120000 -1.920000 3.800000 -32.725452 31.370209 2055.045166
8.120000 -1.920000 3.840000 -36.659149 27.827774 2118.278320
8.120000 -1.920000 3.880000 -46.931973 26.895744 2925.991211
8.120000 -1.920000 3.920000 -64.226768 16.384516 4393.529785
8.120000 -1.920000 3.960000 -74.900970 -10.324139 5716.743164
8.120000 -1.920000 4.000000 -64.151947 -42.444920 5917.043457
8.120000 -1.920000 4.040000 -33.888535 -59.098740 4641.093750
8.120000 -1.920000 4.080000 -4.466703 -50.062565 2526.211914
8.120000 -1.920000 4.120000 3.932467 -27.771235 786.705750
8.120000 -1.920000 4.160000 -8.328201 -16.174768 330.982086
8.120000 -1.920000 4.200000 -20.281933 -26.772280 1128.111816
8.120000 -1.880000 3.800000 -36.085442 4.215375 1319.928467
8.120000 -1.880000 3.840000 -39.801842 1.684709 1587.024902
8.120000 -1.880000 3.880000 -49.419449 -5.443425 2471.912842
8.120000 -1.880000 3.920000 -56.629051 -24.269798 3795.872559
8.120000 -1.880000 3.960000 -49.056908 -49.488468 4855.688477
8.120000 -1.880000 4.000000 -24.862968 -65.453018 4902.264648
8.120000 -1.880000 4.040000 2.253643 -61.377659 3772.295898
8.120000 -1.880000 4.080000 15.041563 -43.610210 2128.099121
8.120000 -1.880000 4.120000 10.095698 -30.520714 1033.437134
8.120000 -1.880000 4.160000 1.737511 -34.091015 1165.216187
8.120000 -1.880000 4.200000 7.331388 -47.390114 2299.572266
8.120000 -1.840000 3.800000 -18.173908 -11.680764 466.731201
8.120000 -1.840000 3.840000 -25.009586 -13.910853 818.991272
8.120000 -1.840000 3.880000 -31.361107 -26.758162 1699.518311
8.120000 -1.840000 3.920000 -25.911411 -46.343685 2819.138184
8.120000 -1.840000 3.960000 -6.105361 -59.335609 3557.989990
8.120000 -1.840000 4.000000 17.077351 -55.958984 3423.043945
8.120000 -1.840000 4.040000 29.111000 -40.814896 2513.306152
8.120000 -1.840000 4.080000 26.784489 -28.855883 1550.070801
8.120000 -1.840000 4.120000 21.652767 -29.849937 1359.861084
8.120000 -1.840000 4.160000 27.618589 -37.903610 2199.470215
8.120000 -1.840000 4.200000 45.681297 -37.696751 3507.826172
8.120000 -1.800000 3.800000 1.525163 -5.466604 32.209885
8.120000 -1.800000 3.840000 -9.128612 -11.858486 223.955231
8.120000 -1.800000 3.880000 -9.357000 -28.681671 910.191711
8.120000 -1.800000 3.920000 6.056063 -41.858208 1788.785400
8.120000 -1.800000 3.960000 27.020205 -39.475353 2288.395020
8.120000 -1.800000 4.000000 38.075817 -24.635048 2056.653320
8.120000 -1.800000 4.040000 34.856224 -12.297686 1366.189331
8.120000 -1.800000 4.080000 28.701368 -12.781857 987.144409
8.120000 -1.800000 4.120000 33.757195 -20.111584 1544.024048
8.120000 -1.800000 4.160000 50.555069 -18.506275 2898.297119
8.120000 -1.800000 4.200000 64.564072 -0.196509 4168.558105
8.160000 -2.200000 3.800000 -45.080929 -14.430967 2240.542969
8.160000 -2.200000 3.840000 -31.840366 -36.141354 2320.006348
8.160000 -2.200000 3.880000 -3.647422 -40.605465 1662.107544
8.160000 -2.200000 3.920000 17.772301 -21.541025 779.870483
8.160000 -2.200000 3.960000 15.254063 4.687587 254.659912
8.160000 -2.200000 4.000000 -5.585283 14.480417 240.877869
8.160000 -2.200000 4.040000 -21.369963 0.923153 457.527496
8.160000 -2.200000 4.080000 -14.709278 -19.082634 580.509766
8.160000 -2.200000 4.120000 8.079441 -22.336571 564.199768
8.160000 -2.200000 4.160000 23.865395 -3.206552 579.839050
8.160000 -2.200000 4.200000 16.653004 21.091320 722.166321
8.160000 -2.160000 3.800000 -24.151993 -32.727386 1654.400635
8.160000 -2.160000 3.840000 -5.946246 -40.759224 1696.672119
8.160000 -2.160000 3.880000 15.598585 -30.612251 1180.425781
8.160000 -2.160000 3.920000 21.980282 -6.215273 521.762390
8.160000 -2.160000 3.960000 6.868062 13.042688 217.281998
8.160000 -2.160000 4.000000 -15.666569 11.142781 369.602966
8.160000 -2.160000 4.040000 -24.286488 -7.904550 652.315430
8.160000 -2.160000 4.080000 -11.715840 -23.685299 698.254333
8.160000 -2.160000 4.120000 8.150621 -20.001568 466.495361
8.160000 -2.160000 4.160000 14.865746 -0.940725 221.875381
8.160000 -2.160000 4.200000 2.230366 14.200687 206.634048
8.160000 -2.120000 3.800000 5.527510 -28.819204 861.099854
8.160000 -2.120000 3.840000 16.397282 -24.103737 849.860962
8.160000 -2.120000 3.880000 22.860552 -9.077319 605.002563
8.160000 -2.120000 3.920000 15.333482 8.575009 308.646454
8.160000 -2.120000 3.960000 -4.058244 14.848042 236.933716
8.160000 -2.120000 4.000000 -20.986279 3.594678 453.345612
8.160000 -2.120000 4.040000 -21.848274 -15.937366 731.346741
8.160000 -2.120000 4.080000 -7.133578 -27.015015 780.698975
8.160000 -2.120000 4.120000 8.881545 -21.262730 530.985535
8.160000 -2.120000 4.160000 12.083998 -6.263864 185.258987
8.160000 -2.120000 4.200000 1.852276 2.686863 10.650162
8.160000 -2.080000 3.800000 22.665113 -2.291692 518.959229
8.160000 -2.080000 3.840000 19.019485 4.786062 384.647217
8.160000 -2.080000 3.880000 12.306804 12.120790 298.370972
8.160000 -2.080000 3.920000 0.093122 16.115191 259.708038
8.160000 -2.080000 3.960000 -14.417789 10.933171 327.406860
8.160000 -2.080000 4.000000 -22.466459 -4.170001 522.130676
8.160000 -2.080000 4.040000 -17.231663 -21.213718 746.952026
8.160000 -2.080000 4.080000 -1.415941 -28.839642 833.729797
8.160000 -2.080000 4.120000 13.605734 -22.349745 684.627075
8.160000 -2.080000 4.160000 17.304914 -8.431247 370.545959
8.160000 -2.080000 4.200000 9.330502 0.609050 87.429199
8.160000 -2.040000 3.800000 13.072591 28.997972 1011.775024
8.160000 -2.040000 3.840000 -1.394835 26.522110 705.367859
8.160000 -2.040000 3.880000 -11.018923 19.939178 518.987488
8.160000 -2.040000 3.920000 -17.753365 12.245399 465.131714
8.160000 -2.040000 3.960000 -22.735037 1.924960 520.587341
8.160000 -2.040000 4.000000 -22.425468 -12.153073 650.598816
8.160000 -2.040000 4.040000 -12.452747 -25.254589 792.865173
8.160000 -2.040000 4.080000 4.990797 -28.706308 848.960205
8.160000 -2.040000 4.120000 19.651680 -18.682964 735.241699
8.160000 -2.040000 4.160000 21.360189 -2.252003 461.329193
8.160000 -2.040000 4.200000 10.316792 7.240883 158.866577
8.160000 -2.000000 3.800000 -17.384521 42.061550 2071.395508
8.160000 -2.000000 3.840000 -31.501007 25.966984 1666.597656
8.160000 -2.000000 3.880000 -33.877205 9.110878 1230.673096
8.160000 -2.000000 3.920000 -30.655941 -2.837197 947.836426
8.160000 -2.000000 3.960000 -26.705509 -12.314297 864.826111
8.160000 -2.000000 4.000000 -19.892143 -22.477959 900.955994
8.160000 -2.000000 4.040000 -6.201450 -29.710791 921.189087
8.160000 -2.000000 4.080000 11.177699 -26.368589 820.243469
8.160000 -2.000000 4.120000 21.301125 -11.263991 580.615417
8.160000 -2.000000 4.160000 16.101604 5.095228 285.223022
8.160000 -2.000000 4.200000 0.894701 8.744333 77.263855
8.160000 -1.960000 3.800000 -46.486336 27.637146 2924.791260
8.160000 -1.960000 3.840000 -51.240883 4.062295 2642.130371
8.160000 -1.960000 3.880000 -43.594097 -14.378012 2107.172607
8.160000 -1.960000 3.920000 -32.374687 -24.314720 1639.325928
8.160000 -1.960000 3.960000 -22.153275 -30.016434 1391.753906
8.160000 -1.960000 4.000000 -10.582868 -34.173031 1279.793091
8.160000 -1.960000 4.040000 4.106171 -33.017185 1106.995117
8.160000 -1.960000 4.080000 16.324881 -22.298599 763.729248
8.160000 -1.960000 4.120000 17.170153 -6.354923 335.199188
8.160000 -1.960000 4.160000 5.730813 2.503648 39.110470
8.160000 -1.960000 4.200000 -6.272758 -3.956536 55.001663
8.160000 -1.920000 3.800000 -53.763367 -2.018867 2894.575439
8.160000 -1.920000 3.840000 -49.313705 -23.442791 2981.406006
8.160000 -1.920000 3.880000 -36.052132 -37.843643 2731.897461
8.160000 -1.920000 3.920000 -20.652403 -44.197739 2379.961914
8.160000 -1.920000 3.960000 -5.946821 -45.008308 2061.112549
8.160000 -1.920000 4.000000 7.859369 -40.840950 1729.752808
8.160000 -1.920000 4.040000 18.276295 -30.655186 1273.763428
8.160000 -1.920000 4.080000 20.351742 -17.077394 705.830811
8.160000 -1.920000 4.120000 12.949769 -8.144147 234.023651
8.160000 -1.920000 4.160000 3.618572 -10.726139 128.144119
8.160000 -1.920000 4.200000 3.960302 -21.787809 490.392639
8.160000 -1.880000 3.800000 -37.199768 -23.831873 1951.781006
8.160000 -1.880000 3.840000 -30.878172 -39.148388 2486.057861
8.160000 -1.880000 3.880000 -17.062954 -50.560238 2847.481934
8.160000 -1.880000 3.920000 1.293126 -54.327976 2953.201172
8.160000 -1.880000 3.960000 19.264408 -48.510468 2724.382812
8.160000 -1.880000 4.000000 30.678574 -34.669418 2143.143555
8.160000 -1.880000 4.040000 31.337379 -19.151022 1348.792969
8.160000 -1.880000 4.080000 23.320553 -10.486818 653.821533
8.160000 -1.880000 4.120000 15.461680 -12.917639 405.928955
8.160000 -1.880000 4.160000 17.260838 -21.496004 760.014709
8.160000 -1.880000 4.200000 30.314365 -24.763174 1532.175537
8.160000 -1.840000 3.800000 -13.703396 -23.554726 742.608154
8.160000 -1.840000 3.840000 -11.360349 -37.285412 1519.259399
8.160000 -1.840000 3.880000 3.046173 -49.633186 2472.732178
8.160000 -1.840000 3.920000 25.477909 -50.082165 3157.346924
8.160000 -1.840000 3.960000 43.663689 -35.275490 3150.877930
8.160000 -1.840000 4.000000 46.859924 -13.877515 2388.437988
8.160000 -1.840000 4.040000 36.054283 -0.343631 1300.029419
8.160000 -1.840000 4.080000 24.116041 -2.075367 585.890564
8.160000 -1.840000 4.120000 24.387163 -12.166319 742.753052
8.160000 -1.840000 4.160000 38.088581 -15.512697 1691.383789
8.160000 -1.840000 4.200000 52.983959 -3.015693 2816.394531
8.160000 -1.800000 3.800000 -3.320312 -6.813293 57.445431
8.160000 -1.800000 3.840000 -2.863720 -25.900528 679.038208
8.160000 -1.800000 3.880000 16.450098 -39.534958 1833.618652
8.160000 -1.800000 3.920000 42.410316 -33.060471 2891.629639
8.160000 -1.800000 3.960000 55.205917 -9.183681 3132.033447
8.160000 -1.800000 4.000000 46.597847 13.426284 2351.624512
8.160000 -1.800000 4.040000 28.412014 18.134581 1136.105591
8.160000 -1.800000 4.080000 20.733299 6.935854 477.975769
8.160000 -1.800000 4.120000 31.422913 -1.867925 990.888550
8.160000 -1.800000 4.160000 48.267044 7.264042 2382.473877
8.160000 -1.800000 4.200000 51.892632 31.170961 3664.474121
8.200000 -2.200000 3.800000 -27.124302 -37.801533 2164.683594
8.200000 -2.200000 3.840000 -4.169678 -48.898315 2408.431396
8.200000 -2.200000 3.880000 22.769112 -37.700851 1939.786621
8.200000 -2.200000 3.920000 31.784878 -9.355120 1097.796753
8.200000 -2.200000 3.960000 15.616544 13.109961 415.747498
8.200000 -2.200000 4.000000 -8.873563 10.828912 196.005447
8.200000 -2.200000 4.040000 -16.121107 -11.078932 382.632843
8.200000 -2.200000 4.080000 2.468691 -27.435238 758.786682
8.200000 -2.200000 4.120000 29.168638 -17.852428 1169.518677
8.200000 -2.200000 4.160000 37.163460 12.635746 1540.784912
8.200000 -2.200000 4.200000 17.015268 38.425217 1766.016602
8.200000 -2.160000 3.800000 -1.066044 -36.517799 1334.686157
8.200000 -2.160000 3.840000 16.688265 -33.355412 1391.081665
8.200000 -2.160000 3.880000 28.057625 -14.390068 994.304321
8.200000 -2.160000 3.920000 19.947512 8.153071 464.375793
8.200000 -2.160000 3.960000 -3.097425 14.815544 229.094391
8.200000 -2.160000 4.000000 -20.399857 -0.926539 417.012634
8.200000 -2.160000 4.040000 -14.747482 -23.832729 785.487183
8.200000 -2.160000 4.080000 9.514154 -30.380329 1013.483521
8.200000 -2.160000 4.120000 29.473701 -11.907431 1010.486023
8.200000 -2.160000 4.160000 25.639915 16.365051 925.220215
8.200000 -2.160000 4.200000 0.812395 30.043034 903.243835
8.200000 -2.120000 3.800000 15.464966 -14.742786 456.514893
8.200000 -2.120000 3.840000 17.935936 -6.686035 366.400848
8.200000 -2.120000 3.880000 12.850132 4.681623 187.043488
8.200000 -2.120000 3.920000 -1.957535 9.726698 98.440590
8.200000 -2.120000 3.960000 -17.300236 0.216985 299.345245
8.200000 -2.120000 4.000000 -19.181606 -19.701485 756.082520
8.200000 -2.120000 4.040000 -2.950631 -34.184235 1177.268066
8.200000 -2.120000 4.080000 19.788342 -29.532219 1263.730469
8.200000 -2.120000 4.120000 30.270803 -7.931746 979.234131
8.200000 -2.120000 4.160000 19.755711 13.410946 570.141602
8.200000 -2.120000 4.200000 -2.273308 17.806644 322.244537
8.200000 -2.080000 3.800000 8.768175 13.190334 250.865814
8.200000 -2.080000 3.840000 -2.872094 11.648787 143.943161
8.200000 -2.080000 3.880000 -12.535743 4.767288 179.871887
8.200000 -2.080000 3.920000 -18.053520 -6.937607 374.059998
8.200000 -2.080000 3.960000 -15.971839 -21.538593 719.010620
8.200000 -2.080000 4.000000 -3.977996 -33.284859 1123.706299
8.200000 -2.080000 4.040000 14.552527 -34.513767 1402.976074
8.200000 -2.080000 4.080000 29.856300 -22.090157 1379.373657
8.200000 -2.080000 4.120000 32.019775 -2.268157 1030.410522
8.200000 -2.080000 4.160000 19.583046 12.341990 535.820435
8.200000 -2.080000 4.200000 1.966095 12.484328 159.723984
8.200000 -2.040000 3.800000 -18.166084 26.552628 1035.048706
8.200000 -2.040000 3.840000 -31.507263 7.259724 1045.411255
8.200000 -2.040000 3.880000 -30.049744 -15.163944 1132.932373
8.200000 -2.040000 3.920000 -16.993683 -30.986364 1248.940063
8.200000 -2.040000 3.960000 0.347782 -36.630028 1341.879883
8.200000 -2.040000 4.000000 16.469280 -33.506569 1393.927368
8.200000 -2.040000 4.040000 28.663570 -23.777105 1386.950928
8.200000 -2.040000 4.080000 34.393913 -9.227965 1268.096680
8.200000 -2.040000 4.120000 30.769955 6.221557 985.497864
8.200000 -2.040000 4.160000 18.195137 15.590520 574.127319
8.200000 -2.040000 4.200000 3.494294 13.241940 187.559082
8.200000 -2.000000 3.800000 -46.608345 14.707983 2388.662598
8.200000 -2.000000 3.840000 -47.864647 -17.536591 2598.556396
8.200000 -2.000000 3.880000 -28.065556 -42.096241 2559.769043
8.200000 -2.000000 3.920000 -0.186665 -47.901474 2294.586182
8.200000 -2.000000 3.960000 21.350113 -37.883163 1890.961426
8.200000 -2.000000 4.000000 31.372629 -22.351843 1483.846802
8.200000 -2.000000 4.040000 33.255733 -8.329107 1175.317871
8.200000 -2.000000 4.080000 30.754227 3.495974 958.044312
8.200000 -2.000000 4.120000 23.642530 13.271273 735.095947
8.200000 -2.000000 4.160000 11.766741 17.328953 438.748779
8.200000 -2.000000 4.200000 0.560888 11.665174 136.390869
8.200000 -1.960000 3.800000 -56.659767 -13.917770 3404.033447
8.200000 -1.960000 3.840000 -41.697845 -46.040966 3858.480957
8.200000 -1.960000 3.880000 -9.253535 -60.139156 3702.345947
8.200000 -1.960000 3.920000 21.690155 -50.852165 3056.405518
8.200000 -1.960000 3.960000 37.105064 -28.761898 2204.032471
8.200000 -1.960000 4.000000 36.948627 -8.332331 1434.628784
8.200000 -1.960000 4.040000 29.799917 4.026246 904.245728
8.200000 -1.960000 4.080000 21.974627 10.425368 591.572510
8.200000 -1.960000 4.120000 13.844873 13.512881 374.278503
8.200000 -1.960000 4.160000 5.340200 11.863623 169.263290
8.200000 -1.960000 4.200000 0.914830 4.290294 19.243534
8.200000 -1.920000 3.800000 -43.164009 -38.795380 3368.213135
8.200000 -1.920000 3.840000 -19.428862 -61.068016 4106.783203
8.200000 -1.920000 3.880000 14.108062 -62.396530 4092.364258
8.200000 -1.920000 3.920000 39.185448 -43.209911 3402.595703
8.200000 -1.920000 3.960000 45.806988 -16.863565 2382.659912
8.200000 -1.920000 4.000000 37.507214 2.805736 1414.663208
8.200000 -1.920000 4.040000 24.527073 10.977871 722.091003
8.200000 -1.920000 4.080000 14.265229 10.926022 322.874695
8.200000 -1.920000 4.120000 8.518991 7.243728 125.044785
8.200000 -1.920000 4.160000 7.184134 2.319401 56.991394
8.200000 -1.920000 4.200000 10.859595 -1.522682 120.249367
8.200000 -1.880000 3.800000 -19.002850 -44.260513 2320.101318
8.200000 -1.880000 3.840000 3.112252 -57.722031 3341.518799
8.200000 -1.880000 3.880000 31.372965 -53.125252 3806.555420
8.200000 -1.880000 3.920000 50.379520 -31.493172 3529.916016
8.200000 -1.880000 3.960000 51.434280 -4.981138 2670.296875
8.200000 -1.880000 4.000000 37.921432 12.896928 1604.365723
8.200000 -1.880000 4.040000 21.030378 16.445869 712.743408
8.200000 -1.880000 4.080000 10.993489 9.665401 214.276764
8.200000 -1.880000 4.120000 11.206972 1.360991 127.448517
8.200000 -1.880000 4.160000 18.226860 -1.149772 333.540375
8.200000 -1.880000 4.200000 25.426521 4.569237 667.385925
8.200000 -1.840000 3.800000 -3.167908 -31.526007 1003.924744
8.200000 -1.840000 3.840000 14.262662 -44.395317 2174.367676
8.200000 -1.840000 3.880000 40.084995 -40.391270 3238.261719
8.200000 -1.840000 3.920000 57.598709 -17.985161 3641.077393
8.200000 -1.840000 3.960000 55.238121 9.976063 3150.771729
8.200000 -1.840000 4.000000 36.390736 26.458937 2024.360962
8.200000 -1.840000 4.040000 16.424551 24.232510 856.980408
8.200000 -1.840000 4.080000 9.579344 11.185308 216.874939
8.200000 -1.840000 4.120000 17.466553 2.621333 311.951874
8.200000 -1.840000 4.160000 29.088514 7.872541 908.118591
8.200000 -1.840000 4.200000 31.476664 23.315098 1534.374146
8.200000 -1.800000 3.800000 -4.781212 -15.602764 266.306244
8.200000 -1.800000 3.840000 13.938118 -33.023788 1284.841675
8.200000 -1.800000 3.880000 43.255661 -28.462845 2681.185791
8.200000 -1.800000 3.920000 60.444481 -1.318128 3655.272705
8.200000 -1.800000 3.960000 52.008709 29.411247 3569.927246
8.200000 -1.800000 4.000000 26.319073 42.001640 2456.831543
8.200000 -1.800000 4.040000 5.638470 31.799717 1043.014282
8.200000 -1.800000 4.080000 5.069795 14.587273 238.491348
8.200000 -1.800000 4.120000 19.125074 10.413939 474.218567
8.200000 -1.800000 4.160000 28.735100 24.328365 1417.575317
8.200000 -1.800000 4.200000 20.745604 43.016876 2280.831787
