#kx 	ky 	kz 	real 	imag 	intensity
1.800000 5.800000 5.983333 -78.993095 -116.967194 19921.234375
1.800000 5.800000 5.991667 66.371643 -48.056274 6714.600586
1.800000 5.800000 6.000000 -81.393005 13.803017 6815.344727
1.800000 5.800000 6.008333 -26.956728 -181.894714 33812.351562
1.800000 5.800000 6.016667 140.579163 -29.819359 20651.693359
1.800000 5.900000 5.983333 4.641486 -86.899239 7573.020996
1.800000 5.900000 5.991667 80.509155 25.034252 7108.437988
1.800000 5.900000 6.000000 -37.898369 -41.834118 3186.379883
1.800000 5.900000 6.008333 102.652710 -73.762924 15978.547852
1.800000 5.900000 6.016667 108.426552 28.735180 12582.028320
1.800000 6.000000 5.983333 34.911728 -71.088249 6272.367676
1.800000 6.000000 5.991667 95.444847 29.352242 9971.272461
1.800000 6.000000 6.000000 22.980026 46.663692 2705.581787
1.800000 6.000000 6.008333 76.093781 -12.335625 5942.431152
1.800000 6.000000 6.016667 104.964447 186.617188 45843.511719
1.800000 6.100000 5.983333 18.266064 -16.774391 615.029297
1.800000 6.100000 5.991667 68.673203 136.326660 23300.968750
1.800000 6.100000 6.000000 -146.070129 47.916309 23632.455078
1.800000 6.100000 6.008333 52.578072 15.274912 2997.776611
1.800000 6.100000 6.016667 -190.340851 104.015862 47048.941406
1.800000 6.200000 5.983333 37.765400 -62.397560 5319.681152
1.800000 6.200000 5.991667 -47.993031 115.171494 15567.803711
1.800000 6.200000 6.000000 -56.959660 -146.136139 24600.173828
1.800000 6.200000 6.008333 61.158760 23.681114 4301.189453
1.800000 6.200000 6.016667 9.864225 -116.273712 13616.878906
1.900000 5.800000 5.983333 -18.041151 -45.605156 2405.313477
1.900000 5.800000 5.991667 25.732483 -119.055466 14836.365234
1.900000 5.800000 6.000000 36.811028 3.294167 1365.903320
1.900000 5.800000 6.008333 42.785976 -125.598221 17605.552734
1.900000 5.800000 6.016667 147.383270 90.912842 29986.972656
1.900000 5.900000 5.983333 403.338959 -477.800110 390975.250000
1.900000 5.900000 5.991667 -115.628387 463.455322 228160.750000
1.900000 5.900000 6.000000 -428.530670 -353.598663 308670.562500
1.900000 5.900000 6.008333 -64.054520 -350.561859 126996.601562
1.900000 5.900000 6.016667 199.894348 -534.380432 325520.187500
1.900000 6.000000 5.983333 812.439819 440.827423 854387.250000
1.900000 6.000000 5.991667 -678.359375 -128.844055 476772.218750
1.900000 6.000000 6.000000 441.876526 -670.963440 645446.812500
1.900000 6.000000 6.008333 495.710999 -300.015381 335738.625000
1.900000 6.000000 6.016667 1009.960327 241.732513 1078454.500000
1.900000 6.100000 5.983333 -104.716820 545.020386 308012.843750
1.900000 6.100000 5.991667 -16.516182 -319.440216 102314.835938
1.900000 6.100000 6.000000 368.518341 179.538223 168039.734375
1.900000 6.100000 6.008333 250.557602 256.859039 128755.671875
1.900000 6.100000 6.016667 -79.426041 664.827637 448304.281250
1.900000 6.200000 5.983333 33.869850 167.250076 29119.753906
1.900000 6.200000 5.991667 -194.027039 -26.921698 38371.269531
1.900000 6.200000 6.000000 37.732975 -100.993591 11623.482422
1.900000 6.200000 6.008333 -17.125345 -2.555794 299.809509
1.900000 6.200000 6.016667 27.269592 -28.623135 1562.914551
2.000000 5.800000 5.983333 -29.376450 -115.985435 14315.596680
2.000000 5.800000 5.991667 192.427521 -61.605507 40823.589844
2.000000 5.800000 6.000000 -18.543549 55.096062 3379.439209
2.000000 5.800000 6.008333 122.683350 -122.031853 29942.976562
2.000000 5.800000 6.016667 104.755035 155.830002 35256.609375
2.000000 5.900000 5.983333 856.422058 435.187195 922846.625000
2.000000 5.900000 5.991667 -659.846252 -74.626663 440966.187500
2.000000 5.900000 6.000000 436.422424 -764.735474 775284.875000
2.000000 5.900000 6.008333 619.334351 -262.471008 452466.062500
2.000000 5.900000 6.016667 1001.310730 229.068390 1055095.500000
2.000000 6.000000 5.983333 -483.016418 1321.222778 1978934.500000
2.000000 6.000000 5.991667 102.534454 -1074.040894 1164077.250000
2.000000 6.000000 6.000000 1196.645630 546.773560 1730922.000000
2.000000 6.000000 6.008333 621.365906 691.398682 864127.750000
2.000000 6.000000 6.016667 17.088104 1710.763672 2927004.250000
2.000000 6.100000 5.983333 -867.860840 -93.347198 761896.125000
2.000000 6.100000 5.991667 602.602478 -27.674805 363895.656250
2.000000 6.100000 6.000000 -274.639862 715.298828 587079.437500
2.000000 6.100000 6.008333 -316.979858 421.787689 278381.093750
2.000000 6.100000 6.016667 -1101.438843 166.349182 1240839.500000
2.000000 6.200000 5.983333 -157.208237 1.912560 24718.087891
2.000000 6.200000 5.991667 7.698933 -141.088943 19965.363281
2.000000 6.200000 6.000000 67.753349 -71.941086 9766.036133
2.000000 6.200000 6.008333 79.160423 -40.489555 7905.776367
2.000000 6.200000 6.016667 88.946358 -33.415821 9028.071289
2.100000 5.800000 5.983333 92.268494 -24.055298 9092.131836
2.100000 5.800000 5.991667 52.916695 81.652206 9467.259766
2.100000 5.800000 6.000000 -20.757221 29.000269 1271.877930
2.100000 5.800000 6.008333 101.019531 1.081772 10206.115234
2.100000 5.800000 6.016667 0.216667 192.741867 37149.472656
2.100000 5.900000 5.983333 -219.396515 643.424561 462130.000000
2.100000 5.900000 5.991667 -13.070969 -441.941406 195483.046875
2.100000 5.900000 6.000000 529.459290 219.110992 328336.750000
2.100000 5.900000 6.008333 262.779694 390.061890 221201.437500
2.100000 5.900000 6.016667 -108.130722 728.650757 542624.187500
2.100000 6.000000 5.983333 -925.498291 -225.902908 907579.187500
2.100000 6.000000 5.991667 693.563660 -60.423599 484681.562500
2.100000 6.000000 6.000000 -222.053909 827.369141 733847.625000
2.100000 6.000000 6.008333 -411.166779 448.595032 370295.625000
2.100000 6.000000 6.016667 -1064.679077 166.408112 1161233.125000
2.100000 6.100000 5.983333 51.956757 -589.593018 350319.437500
2.100000 6.100000 5.991667 96.987938 386.443726 158745.406250
2.100000 6.100000 6.000000 -483.883301 -100.396973 244222.593750
2.100000 6.100000 6.008333 -261.584717 -208.880966 112057.820312
2.100000 6.100000 6.016667 -162.509079 -625.782043 418012.343750
2.100000 6.200000 5.983333 57.283833 -6.658295 3325.770508
2.100000 6.200000 5.991667 43.678261 33.819355 3051.539307
2.100000 6.200000 6.000000 67.248642 40.230858 6140.901855
2.100000 6.200000 6.008333 67.217712 75.213074 10175.226562
2.100000 6.200000 6.016667 25.153706 150.427979 23261.285156
2.200000 5.800000 5.983333 -51.585251 38.956306 4178.631836
2.200000 5.800000 5.991667 22.871073 -61.313286 4282.405273
2.200000 5.800000 6.000000 -32.229591 -5.528798 1069.314209
2.200000 5.800000 6.008333 102.790184 -34.104004 11728.905273
2.200000 5.800000 6.016667 -68.219131 131.941788 22062.484375
2.200000 5.900000 5.983333 -105.076424 -89.345779 19023.722656
2.200000 5.900000 5.991667 91.839012 -17.913265 8755.289062
2.200000 5.900000 6.000000 1.903269 23.994473 579.357178
2.200000 5.900000 6.008333 3.298640 64.154938 4126.736816
2.200000 5.900000 6.016667 -88.684097 -47.120228 10085.185547
2.200000 6.000000 5.983333 100.534607 -99.683006 20043.910156
2.200000 6.000000 5.991667 57.423012 19.406574 3674.017578
2.200000 6.000000 6.000000 2.165535 17.555443 312.883118
2.200000 6.000000 6.008333 8.254478 -44.484623 2047.018066
2.200000 6.000000 6.016667 78.966347 14.267792 6439.253906
2.200000 6.100000 5.983333 74.960510 108.062248 17296.527344
2.200000 6.100000 5.991667 46.030586 43.219025 3986.698975
2.200000 6.100000 6.000000 2.691391 63.552872 4046.211182
2.200000 6.100000 6.008333 79.703186 33.736961 7490.780273
2.200000 6.100000 6.016667 -31.389587 162.661423 27444.044922
2.200000 6.200000 5.983333 -96.866219 115.782654 22788.687500
2.200000 6.200000 5.991667 -57.242496 11.221081 3402.615967
2.200000 6.200000 6.000000 -65.148239 16.726984 4524.084961
2.200000 6.200000 6.008333 -13.282532 50.072411 2683.671875
2.200000 6.200000 6.016667 -171.057587 20.451942 29678.978516
