#kx 	ky 	kz 	real 	imag 	intensity
1.800000 5.800000 5.800000 0.585655 -14.103362 199.247803
1.800000 5.800000 5.840000 -0.629283 -4.766760 23.118002
1.800000 5.800000 5.880000 -9.469936 -3.888309 104.798645
1.800000 5.800000 5.920000 -13.925795 -14.277719 397.781006
1.800000 5.800000 5.960000 -5.106876 -26.476913 727.107117
1.800000 5.800000 6.000000 13.263910 -27.360329 924.518921
1.800000 5.800000 6.040000 27.606424 -12.963154 930.158020
1.800000 5.800000 6.080000 27.127701 7.387545 790.487976
1.800000 5.800000 6.120000 13.665087 19.986324 586.187744
1.800000 5.800000 6.160000 -1.195820 19.417341 378.463135
1.800000 5.800000 6.200000 -8.155337 11.933041 208.906982
1.800000 5.840000 5.800000 3.985995 -12.904707 182.419617
1.800000 5.840000 5.840000 -1.841940 -4.857096 26.984121
1.800000 5.840000 5.880000 -11.094130 -8.743562 199.529587
1.800000 5.840000 5.920000 -10.557770 -21.424381 570.470642
1.800000 5.840000 5.960000 3.539576 -29.196295 864.952271
1.800000 5.840000 6.000000 20.679676 -21.575569 893.154175
1.800000 5.840000 6.040000 26.029831 -2.433129 683.472229
1.800000 5.840000 6.080000 15.246428 13.409894 412.278809
1.800000 5.840000 6.120000 -1.425520 14.872478 223.222717
1.800000 5.840000 6.160000 -10.090963 5.102653 127.864609
1.800000 5.840000 6.200000 -7.271341 -3.293062 63.716656
1.800000 5.880000 5.800000 7.741258 -13.696970 247.534058
1.800000 5.880000 5.840000 0.239980 -9.305998 86.659180
1.800000 5.880000 5.880000 -5.498531 -16.265444 294.798523
1.800000 5.880000 5.920000 0.263193 -26.526352 703.716614
1.800000 5.880000 5.960000 14.836657 -27.434383 972.771729
1.800000 5.880000 6.000000 25.502359 -15.301271 884.499268
1.800000 5.880000 6.040000 22.784010 0.377552 519.253601
1.800000 5.880000 6.080000 10.423006 6.828383 155.265869
1.800000 5.880000 6.120000 1.061637 1.425211 3.158299
1.800000 5.880000 6.160000 2.334767 -6.147676 43.245052
1.800000 5.880000 6.200000 8.824348 -5.393723 106.961365
1.800000 5.920000 5.800000 15.616674 -12.835619 408.633636
1.800000 5.920000 5.840000 9.172160 -10.832554 201.472748
1.800000 5.920000 5.880000 7.204872 -16.883678 336.968781
1.800000 5.920000 5.920000 14.295347 -22.129551 694.073975
1.800000 5.920000 5.960000 24.767605 -18.718384 963.812134
1.800000 5.920000 6.000000 29.365643 -8.155212 928.848450
1.800000 5.920000 6.040000 25.462521 1.006965 649.353943
1.800000 5.920000 6.080000 19.310593 3.190952 383.081177
1.800000 5.920000 6.120000 17.914886 1.887583 324.506104
1.800000 5.920000 6.160000 20.191944 4.682778 429.643005
1.800000 5.920000 6.200000 18.055565 12.913657 492.765961
1.800000 5.960000 5.800000 24.615181 -4.440908 625.628784
1.800000 5.960000 5.840000 18.856287 -2.442020 361.523041
1.800000 5.960000 5.880000 17.323643 -5.849208 334.321838
1.800000 5.960000 5.920000 21.691837 -8.157986 537.088501
1.800000 5.960000 5.960000 27.855988 -5.383435 804.937439
1.800000 5.960000 6.000000 31.396217 1.157398 987.062012
1.800000 5.960000 6.040000 31.721865 8.243381 1074.229980
1.800000 5.960000 6.080000 30.461418 15.155388 1157.583740
1.800000 5.960000 6.120000 27.112989 23.259201 1276.104614
1.800000 5.960000 6.160000 18.470392 31.484753 1332.445068
1.800000 5.960000 6.200000 3.502894 34.141277 1177.897095
1.800000 6.000000 5.800000 26.504471 11.486639 834.429871
1.800000 6.000000 5.840000 19.003027 13.465061 542.422913
1.800000 6.000000 5.880000 15.022264 10.228203 330.284546
1.800000 6.000000 5.920000 16.697124 6.340015 318.989777
1.800000 6.000000 5.960000 22.658285 6.080532 550.370728
1.800000 6.000000 6.000000 29.336145 11.890678 1001.997681
1.800000 6.000000 6.040000 32.085846 23.677221 1590.112305
1.800000 6.000000 6.080000 26.572918 38.082649 2156.408203
1.800000 6.000000 6.120000 11.346521 48.543365 2485.201904
1.800000 6.000000 6.160000 -9.505112 48.007271 2395.045166
1.800000 6.000000 6.200000 -26.736973 33.925381 1865.797119
1.800000 6.040000 5.800000 16.147963 26.881994 983.398315
1.800000 6.040000 5.840000 5.954704 25.922523 707.435730
1.800000 6.040000 5.880000 0.729938 18.855743 356.071869
1.800000 6.040000 5.920000 3.946614 11.339712 144.164825
1.800000 6.040000 5.960000 13.727873 10.759093 304.212585
1.800000 6.040000 6.000000 22.255035 21.281000 948.167603
1.800000 6.040000 6.040000 19.909107 39.278145 1939.145264
1.800000 6.040000 6.080000 2.633871 53.696739 2890.277100
1.800000 6.040000 6.120000 -23.151278 53.052170 3350.514404
1.800000 6.040000 6.160000 -43.423874 34.473152 3074.031006
1.800000 6.040000 6.200000 -46.242699 7.167858 2189.765381
1.800000 6.080000 5.800000 -2.555366 32.245960 1046.331909
1.800000 6.080000 5.840000 -12.913125 25.477526 815.853088
1.800000 6.080000 5.880000 -14.765569 13.540300 401.361755
1.800000 6.080000 5.920000 -5.855417 5.386612 63.301498
1.800000 6.080000 5.960000 7.135756 9.743784 145.860336
1.800000 6.080000 6.000000 11.406459 26.616014 838.519531
1.800000 6.080000 6.040000 -1.887338 44.344193 1969.969360
1.800000 6.080000 6.080000 -28.350586 47.191574 3030.800293
1.800000 6.080000 6.120000 -51.474930 28.545662 3464.523193
1.800000 6.080000 6.160000 -55.058868 -2.048157 3035.674072
1.800000 6.080000 6.200000 -36.644154 -25.462521 1991.133911
1.800000 6.120000 5.800000 -19.719662 25.110134 1019.383911
1.800000 6.120000 5.840000 -25.936829 12.794478 836.417725
1.800000 6.120000 5.880000 -20.614046 -0.485397 425.174500
1.800000 6.120000 5.920000 -6.359561 -3.730852 54.363270
1.800000 6.120000 5.960000 4.483785 8.020606 84.434456
1.800000 6.120000 6.000000 -0.856190 26.412422 698.349060
1.800000 6.120000 6.040000 -22.901541 34.323769 1702.601685
1.800000 6.120000 6.080000 -46.611954 20.481747 2592.176270
1.800000 6.120000 6.120000 -52.802399 -8.986336 2868.847412
1.800000 6.120000 6.160000 -34.995857 -34.045082 2383.777832
1.800000 6.120000 6.200000 -5.895420 -37.433083 1435.991699
1.800000 6.160000 5.800000 -28.162449 11.413759 923.397461
1.800000 6.160000 5.840000 -27.559189 -3.053193 768.830872
1.800000 6.160000 5.880000 -15.517090 -12.421023 395.061890
1.800000 6.160000 5.920000 -0.829904 -7.722420 60.324505
1.800000 6.160000 5.960000 2.376964 8.152169 72.107819
1.800000 6.160000 6.000000 -11.782678 20.145954 544.690979
1.800000 6.160000 6.040000 -32.948898 13.791476 1275.834717
1.800000 6.160000 6.080000 -41.910034 -10.142725 1859.325806
1.800000 6.160000 6.120000 -28.049492 -34.224274 1958.074951
1.800000 6.160000 6.160000 -0.272322 -39.175922 1534.827148
1.800000 6.160000 6.200000 20.051296 -21.529572 865.576904
1.800000 6.200000 5.800000 -28.555117 -1.123324 816.656555
1.800000 6.200000 5.840000 -21.560772 -13.991018 660.615479
1.800000 6.200000 5.880000 -6.762754 -16.642565 322.709808
1.800000 6.200000 5.920000 3.136907 -6.047903 46.417316
1.800000 6.200000 5.960000 -1.922585 7.411659 58.629028
1.800000 6.200000 6.000000 -17.826298 8.539900 390.706787
1.800000 6.200000 6.040000 -28.243206 -7.283199 850.723694
1.800000 6.200000 6.080000 -19.913744 -27.690138 1163.300903
1.800000 6.200000 6.120000 3.389898 -33.900196 1160.714722
1.800000 6.200000 6.160000 22.973923 -18.822964 882.105103
1.800000 6.200000 6.200000 22.340725 5.248427 526.653992
1.840000 5.800000 5.800000 3.229295 -4.332351 29.197611
1.840000 5.800000 5.840000 -1.476687 -0.487006 2.417781
1.840000 5.800000 5.880000 -7.353477 -4.268688 72.295334
1.840000 5.800000 5.920000 -6.605640 -13.614329 228.984436
1.840000 5.800000 5.960000 3.610567 -20.334991 426.548065
1.840000 5.800000 6.000000 17.938669 -16.934196 608.562866
1.840000 5.800000 6.040000 26.818449 -3.241613 729.737244
1.840000 5.800000 6.080000 24.269859 13.286958 765.569336
1.840000 5.800000 6.120000 12.273139 23.747793 714.587646
1.840000 5.800000 6.160000 -1.855070 24.426424 600.091492
1.840000 5.800000 6.200000 -11.818550 17.951328 461.928314
1.840000 5.840000 5.800000 4.675125 -5.190255 48.795544
1.840000 5.840000 5.840000 2.016814 -3.109885 13.738926
1.840000 5.840000 5.880000 0.458760 -5.135433 26.583136
1.840000 5.840000 5.920000 3.180876 -7.874425 72.124542
1.840000 5.840000 5.960000 8.811852 -6.790238 123.756081
1.840000 5.840000 6.000000 12.638990 -0.670881 160.194168
1.840000 5.840000 6.040000 11.046915 7.114174 172.645798
1.840000 5.840000 6.080000 4.824400 11.803482 162.597031
1.840000 5.840000 6.120000 -1.988844 11.550428 137.367905
1.840000 5.840000 6.160000 -6.224554 8.404431 109.379539
1.840000 5.840000 6.200000 -8.125408 5.169934 92.750473
1.840000 5.880000 5.800000 10.236561 -6.171703 142.877106
1.840000 5.880000 5.840000 10.696967 -1.413478 116.423019
1.840000 5.880000 5.880000 9.094524 3.066105 92.111374
1.840000 5.880000 5.920000 5.280006 6.180425 66.076118
1.840000 5.880000 5.960000 0.235084 6.295799 39.692352
1.840000 5.880000 6.000000 -3.456649 2.837994 20.002630
1.840000 5.880000 6.040000 -3.139576 -2.215234 14.764198
1.840000 5.880000 6.080000 1.343079 -4.956861 26.374327
1.840000 5.880000 6.120000 6.550677 -2.536110 49.343227
1.840000 5.880000 6.160000 7.616199 3.849742 72.827011
1.840000 5.880000 6.200000 2.460571 9.025148 87.507713
1.840000 5.920000 5.800000 18.468136 -0.574758 341.402405
1.840000 5.920000 5.840000 17.256887 10.130562 400.428467
1.840000 5.920000 5.880000 7.989193 18.797350 417.167572
1.840000 5.920000 5.920000 -6.281211 18.444584 379.656281
1.840000 5.920000 5.960000 -16.530701 6.728743 318.540039
1.840000 5.920000 6.000000 -14.194222 -9.789945 297.318970
1.840000 5.920000 6.040000 0.830578 -19.140739 367.057770
1.840000 5.920000 6.080000 18.447655 -13.351563 518.580200
1.840000 5.920000 6.120000 25.587597 4.313555 673.331848
1.840000 5.920000 6.160000 16.745388 21.206238 730.112549
1.840000 5.920000 6.200000 -1.360514 25.202690 637.026611
1.840000 5.960000 5.800000 20.876148 13.241962 611.163147
1.840000 5.960000 5.840000 11.588993 26.543556 838.865112
1.840000 5.960000 5.880000 -7.569417 30.146267 966.093506
1.840000 5.960000 5.920000 -25.457382 16.850657 932.022949
1.840000 5.960000 5.960000 -27.254671 -7.774309 803.256958
1.840000 5.960000 6.000000 -7.939547 -26.384068 759.155396
1.840000 5.960000 6.040000 20.546505 -23.136292 957.446838
1.840000 5.960000 6.080000 37.070263 1.926890 1377.917236
1.840000 5.960000 6.120000 28.521097 31.266319 1791.035645
1.840000 5.960000 6.160000 1.128677 43.670891 1908.420654
1.840000 5.960000 6.200000 -24.689137 31.512980 1602.621338
1.840000 6.000000 5.800000 10.775142 27.346199 863.918274
1.840000 6.000000 5.840000 -7.316202 34.768646 1262.385620
1.840000 6.000000 5.880000 -28.994595 25.354132 1483.518555
1.840000 6.000000 5.920000 -37.504742 -0.428312 1406.789062
1.840000 6.000000 5.960000 -21.605915 -26.122185 1149.184082
1.840000 6.000000 6.000000 11.104115 -30.323061 1042.789429
1.840000 6.000000 6.040000 36.691391 -5.856141 1380.552612
1.840000 6.000000 6.080000 33.883221 31.243433 2124.224609
1.840000 6.000000 6.120000 3.021929 53.338257 2854.101807
1.840000 6.000000 6.160000 -33.192459 44.205997 3055.909668
1.840000 6.000000 6.200000 -48.669960 12.441513 2523.556152
1.840000 6.040000 5.800000 -8.309445 30.644218 1008.114990
1.840000 6.040000 5.840000 -28.034891 26.125893 1468.517334
1.840000 6.040000 5.880000 -40.626068 5.174360 1677.251465
1.840000 6.040000 5.920000 -32.124382 -21.559301 1496.779419
1.840000 6.040000 5.960000 -3.159230 -33.138794 1108.160400
1.840000 6.040000 6.000000 26.419704 -16.168297 959.414612
1.840000 6.040000 6.040000 31.780787 20.225899 1419.105347
1.840000 6.040000 6.080000 5.269629 48.746857 2404.025146
1.840000 6.040000 6.120000 -34.706573 46.276665 3346.076172
1.840000 6.040000 6.160000 -58.180309 14.263847 3588.405762
1.840000 6.040000 6.200000 -49.033257 -22.352051 2903.874512
1.840000 6.080000 5.800000 -24.633312 19.780809 998.080444
1.840000 6.080000 5.840000 -36.552532 5.496914 1366.303711
1.840000 6.080000 5.880000 -34.194530 -16.635185 1445.995239
1.840000 6.080000 5.920000 -13.489085 -31.164520 1153.182739
1.840000 6.080000 5.960000 13.341945 -23.388830 725.044861
1.840000 6.080000 6.000000 24.397385 5.067001 620.906860
1.840000 6.080000 6.040000 7.034135 33.343468 1161.265869
1.840000 6.080000 6.080000 -28.315174 37.277390 2191.352783
1.840000 6.080000 6.120000 -54.616241 11.132583 3106.868164
1.840000 6.080000 6.160000 -51.095352 -25.899586 3281.523682
1.840000 6.080000 6.200000 -21.484184 -45.819397 2560.987305
1.840000 6.120000 5.800000 -29.050507 2.539166 850.379333
1.840000 6.120000 5.840000 -29.333199 -13.081244 1031.555420
1.840000 6.120000 5.880000 -16.526993 -25.972355 947.704712
1.840000 6.120000 5.920000 3.534682 -24.475317 611.535095
1.840000 6.120000 5.960000 15.466268 -6.186895 277.483093
1.840000 6.120000 6.000000 6.799073 16.032236 303.259979
1.840000 6.120000 6.040000 -18.703592 22.556717 858.629883
1.840000 6.120000 6.080000 -41.240559 4.527762 1721.284302
1.840000 6.120000 6.120000 -41.123425 -26.207722 2377.980713
1.840000 6.120000 6.160000 -16.790413 -45.923439 2390.880127
1.840000 6.120000 6.200000 12.918014 -39.678371 1741.248291
1.840000 6.160000 5.800000 -23.105511 -10.125294 636.386230
1.840000 6.160000 5.840000 -15.617521 -19.972260 642.798096
1.840000 6.160000 5.880000 -2.147399 -21.338490 459.942474
1.840000 6.160000 5.920000 7.677585 -11.141258 183.072937
1.840000 6.160000 5.960000 4.432427 3.394527 31.169228
1.840000 6.160000 6.000000 -11.157832 8.740034 200.885406
1.840000 6.160000 6.040000 -26.168764 -2.904075 693.237854
1.840000 6.160000 6.080000 -25.641357 -24.637924 1264.506470
1.840000 6.160000 6.120000 -6.681726 -39.081512 1572.010132
1.840000 6.160000 6.160000 17.334808 -33.459576 1420.038818
1.840000 6.160000 6.200000 27.823826 -11.747564 912.170532
1.840000 6.200000 5.800000 -15.773948 -14.730691 465.810669
1.840000 6.200000 5.840000 -6.773538 -18.158867 375.625244
1.840000 6.200000 5.880000 1.396797 -13.504349 184.318466
1.840000 6.200000 5.920000 1.569345 -4.755230 25.075054
1.840000 6.200000 5.960000 -6.703114 -1.211399 46.399220
1.840000 6.200000 6.000000 -14.802353 -8.794985 296.461426
1.840000 6.200000 6.040000 -12.067286 -22.840708 667.317322
1.840000 6.200000 6.080000 3.458421 -30.670876 952.663330
1.840000 6.200000 6.120000 21.378504 -23.000669 986.071289
1.840000 6.200000 6.160000 27.279451 -3.596414 757.102661
1.840000 6.200000 6.200000 15.982958 12.806948 419.472839
1.880000 5.800000 5.800000 -2.641245 1.794286 10.195638
1.880000 5.800000 5.840000 -4.262571 -0.309761 18.265465
1.880000 5.800000 5.880000 -4.191402 -4.143305 34.734829
1.880000 5.800000 5.920000 -0.926611 -8.455185 72.348755
1.880000 5.800000 5.960000 6.102623 -10.636147 150.369644
1.880000 5.800000 6.000000 15.143696 -7.560387 286.490967
1.880000 5.800000 6.040000 21.796000 2.113045 479.530548
1.880000 5.800000 6.080000 21.096352 15.747278 693.032837
1.880000 5.800000 6.120000 11.186275 27.057606 857.246765
1.880000 5.800000 6.160000 -4.334327 29.647316 897.749695
1.880000 5.800000 6.200000 -17.807693 21.515926 780.049072
1.880000 5.840000 5.800000 1.123396 -1.858939 4.717673
1.880000 5.840000 5.840000 6.220793 2.168455 43.400459
1.880000 5.840000 5.880000 5.746456 10.286452 138.832855
1.880000 5.840000 5.920000 -1.961475 15.278976 237.294510
1.880000 5.840000 5.960000 -10.866249 11.754017 256.232269
1.880000 5.840000 6.000000 -12.751317 2.472679 168.710220
1.880000 5.840000 6.040000 -5.789398 -3.636200 46.739082
1.880000 5.840000 6.080000 2.967255 -0.250116 8.867158
1.880000 5.840000 6.120000 4.218491 9.688298 111.658783
1.880000 5.840000 6.160000 -4.342487 16.449286 289.436157
1.880000 5.840000 6.200000 -15.486296 12.849489 404.934723
1.880000 5.880000 5.800000 9.426052 0.361202 88.980927
1.880000 5.880000 5.840000 12.653014 17.220058 456.629211
1.880000 5.880000 5.880000 -2.230461 33.935749 1156.609985
1.880000 5.880000 5.920000 -28.993954 32.853165 1919.979736
1.880000 5.880000 5.960000 -47.320030 9.274048 2325.193359
1.880000 5.880000 6.000000 -40.895222 -21.366426 2128.943359
1.880000 5.880000 6.040000 -13.492311 -35.961929 1475.302856
1.880000 5.880000 6.080000 13.459606 -24.511112 781.955627
1.880000 5.880000 6.120000 20.015751 1.085836 401.809326
1.880000 5.880000 6.160000 5.075003 18.628973 372.794281
1.880000 5.880000 6.200000 -14.489323 15.906511 462.957581
1.880000 5.920000 5.800000 13.475307 11.905979 323.336243
1.880000 5.920000 5.840000 2.190041 36.814590 1360.110352
1.880000 5.920000 5.880000 -32.543869 45.547825 3133.707520
1.880000 5.920000 5.920000 -67.669731 20.342144 4992.995117
1.880000 5.920000 5.960000 -72.270721 -28.179493 6017.141113
1.880000 5.920000 6.000000 -36.862274 -65.874535 5698.281250
1.880000 5.920000 6.040000 14.994385 -64.080544 4331.147461
1.880000 5.920000 6.080000 45.821560 -25.529030 2751.346680
1.880000 5.920000 6.120000 36.656769 18.167582 1673.779785
1.880000 5.920000 6.160000 1.962830 35.009483 1229.516602
1.880000 5.920000 6.200000 -26.166565 19.501879 1065.012451
1.880000 5.960000 5.800000 4.651695 25.152222 654.272522
1.880000 5.960000 5.840000 -24.770288 42.783257 2443.974121
1.880000 5.960000 5.880000 -67.091537 27.520798 5258.668945
1.880000 5.960000 5.920000 -86.534393 -23.357246 8033.762207
1.880000 5.960000 5.960000 -57.957287 -77.990906 9441.628906
1.880000 5.960000 6.000000 5.815960 -94.010994 8871.892578
1.880000 5.960000 6.040000 60.607784 -56.561020 6872.452148
1.880000 5.960000 6.080000 67.941078 6.588755 4659.401855
1.880000 5.960000 6.120000 28.096054 48.661762 3157.355225
1.880000 5.960000 6.160000 -22.160152 44.161995 2441.354004
1.880000 5.960000 6.200000 -43.940441 7.879383 1992.847046
1.880000 6.000000 5.800000 -14.371775 27.011230 936.154480
1.880000 6.000000 5.840000 -50.538322 24.346010 3146.850342
1.880000 6.000000 5.880000 -78.411423 -14.292037 6352.613281
1.880000 6.000000 5.920000 -65.447189 -70.618073 9270.246094
1.880000 6.000000 5.960000 -7.960735 -102.211487 10510.561523
1.880000 6.000000 6.000000 58.265705 -78.936325 9625.835938
1.880000 6.000000 6.040000 85.164566 -13.022366 7422.585449
1.880000 6.000000 6.080000 54.119743 48.206589 5252.821777
1.880000 6.000000 6.120000 -7.421524 62.369789 3945.069580
1.880000 6.000000 6.160000 -50.842712 27.523579 3342.528809
1.880000 6.000000 6.200000 -48.773624 -19.861012 2773.326172
1.880000 6.040000 5.800000 -29.720449 12.459603 1038.546875
1.880000 6.040000 5.840000 -54.736519 -8.938472 3075.982666
1.880000 6.040000 5.880000 -55.118317 -52.264072 5769.562012
1.880000 6.040000 5.920000 -16.192745 -87.723755 7957.662109
1.880000 6.040000 5.960000 43.404114 -81.855675 8584.268555
1.880000 6.040000 6.000000 81.436409 -30.017097 7532.915039
1.880000 6.040000 6.040000 67.460251 34.016312 5707.994629
1.880000 6.040000 6.080000 11.379330 64.248146 4257.313477
1.880000 6.040000 6.120000 -43.548859 41.876022 3650.104248
1.880000 6.040000 6.160000 -58.058781 -9.266522 3456.690430
1.880000 6.040000 6.200000 -29.578636 -45.712528 2964.531006
1.880000 6.080000 5.800000 -29.154945 -8.920302 929.582642
1.880000 6.080000 5.840000 -33.882168 -33.978683 2302.552246
1.880000 6.080000 5.880000 -13.860936 -60.857826 3895.800537
1.880000 6.080000 5.920000 26.621120 -65.131210 4950.758789
1.880000 6.080000 5.960000 61.292229 -34.387001 4939.203125
1.880000 6.080000 6.000000 61.553398 15.525028 4029.847412
1.880000 6.080000 6.040000 23.125952 49.413078 2976.461914
1.880000 6.080000 6.080000 -26.726776 42.023224 2480.271973
1.880000 6.080000 6.120000 -50.999557 0.904507 2601.772949
1.880000 6.080000 6.160000 -34.699036 -39.764740 2785.257568
1.880000 6.080000 6.200000 3.295534 -49.388340 2450.068604
1.880000 6.120000 5.800000 -14.409761 -21.549742 672.032593
1.880000 6.120000 5.840000 -5.291673 -35.289841 1273.374634
1.880000 6.120000 5.880000 15.453273 -39.606747 1807.497925
1.880000 6.120000 5.920000 36.486404 -25.358086 1974.290283
1.880000 6.120000 5.960000 40.861710 3.063124 1679.062012
1.880000 6.120000 6.000000 21.051445 26.980198 1171.094482
1.880000 6.120000 6.040000 -11.221302 27.422493 877.910706
1.880000 6.120000 6.080000 -32.147663 2.584900 1040.154053
1.880000 6.120000 6.120000 -25.789211 -28.547325 1480.033203
1.880000 6.120000 6.160000 1.472713 -41.741821 1744.548584
1.880000 6.120000 6.200000 26.376751 -28.588657 1513.044312
1.880000 6.160000 5.800000 0.597996 -19.209038 369.344727
1.880000 6.160000 5.840000 9.627072 -19.068977 456.306396
1.880000 6.160000 5.880000 17.083174 -12.066946 437.446045
1.880000 6.160000 5.920000 17.448929 -0.765776 305.051544
1.880000 6.160000 5.960000 8.584282 7.785881 134.309845
1.880000 6.160000 6.000000 -4.721876 6.349451 62.611641
1.880000 6.160000 6.040000 -12.563997 -5.915961 192.852631
1.880000 6.160000 6.080000 -7.529914 -20.818108 490.093231
1.880000 6.160000 6.120000 8.039869 -26.620686 773.300415
1.880000 6.160000 6.160000 22.653347 -18.052410 839.063660
1.880000 6.160000 6.200000 25.000416 -1.658403 627.771118
1.880000 6.200000 5.800000 4.397263 -10.750530 134.909821
1.880000 6.200000 5.840000 5.845100 -5.561836 65.099220
1.880000 6.200000 5.880000 2.124640 -1.917757 8.191887
1.880000 6.200000 5.920000 -3.408367 -3.732981 25.552113
1.880000 6.200000 5.960000 -5.344604 -10.703292 143.125244
1.880000 6.200000 6.000000 -0.362972 -18.153656 329.686981
1.880000 6.200000 6.040000 9.956702 -20.179195 506.335846
1.880000 6.200000 6.080000 19.739471 -14.002121 585.706116
1.880000 6.200000 6.120000 22.728941 -2.434091 522.529541
1.880000 6.200000 6.160000 16.904009 7.646563 344.215424
1.880000 6.200000 6.200000 6.340902 10.053482 141.279541
1.920000 5.800000 5.800000 -9.860348 0.485226 97.461899
1.920000 5.800000 5.840000 -4.930453 -2.111309 28.766996
1.920000 5.800000 5.880000 -1.672630 -1.159208 4.141456
1.920000 5.800000 5.920000 -0.922855 -0.955329 1.764315
1.920000 5.800000 5.960000 1.386147 -3.307308 12.859690
1.920000 5.800000 6.000000 8.663180 -4.055573 91.498367
1.920000 5.800000 6.040000 17.705753 2.939484 322.134277
1.920000 5.800000 6.080000 19.787678 17.931671 713.097046
1.920000 5.800000 6.120000 8.999880 32.271450 1122.444336
1.920000 5.800000 6.160000 -10.353538 34.783363 1317.078125
1.920000 5.800000 6.200000 -25.584755 22.189514 1146.954224
1.920000 5.840000 5.800000 -1.813055 -1.768612 6.415156
1.920000 5.840000 5.840000 4.859365 12.135012 170.871948
1.920000 5.840000 5.880000 -6.521656 27.392902 792.903076
1.920000 5.840000 5.920000 -29.149214 25.723082 1511.353516
1.920000 5.840000 5.960000 -42.242546 3.774124 1798.676758
1.920000 5.840000 6.000000 -31.492241 -21.238518 1442.835938
1.920000 5.840000 6.040000 -4.500824 -27.226835 761.557983
1.920000 5.840000 6.080000 15.438137 -8.956556 318.555969
1.920000 5.840000 6.120000 11.586447 16.476633 405.725159
1.920000 5.840000 6.160000 -10.320576 26.265316 796.381104
1.920000 5.840000 6.200000 -28.511515 13.740080 1001.696289
1.920000 5.880000 5.800000 4.989861 6.263960 64.135902
1.920000 5.880000 5.840000 -4.565434 35.098183 1252.725586
1.920000 5.880000 5.880000 -43.200104 45.507378 3937.170410
1.920000 5.880000 5.920000 -82.036880 15.880966 6982.254883
1.920000 5.880000 5.960000 -84.229103 -39.410713 8647.746094
1.920000 5.880000 6.000000 -41.208302 -79.053818 7947.629883
1.920000 5.880000 6.040000 16.358089 -71.966919 5446.824219
1.920000 5.880000 6.080000 45.430012 -26.313066 2756.263428
1.920000 5.880000 6.120000 29.404007 18.647709 1212.332764
1.920000 5.880000 6.160000 -9.170101 29.481848 953.270081
1.920000 5.880000 6.200000 -33.073586 7.411210 1148.788086
1.920000 5.920000 5.800000 -0.242019 18.884800 356.694244
1.920000 5.920000 5.840000 -36.309662 43.702934 3228.337891
1.920000 5.920000 5.880000 -91.324478 24.057472 8918.921875
1.920000 5.920000 5.920000 -115.481171 -43.374260 15217.226562
1.920000 5.920000 5.960000 -75.807465 -114.340027 18820.414062
1.920000 5.920000 6.000000 8.136581 -133.058655 17770.808594
1.920000 5.920000 6.040000 77.311249 -83.386940 12930.411133
1.920000 5.920000 6.080000 84.718521 -4.629677 7198.662109
1.920000 5.920000 6.120000 35.873146 44.161144 3237.089355
1.920000 5.920000 6.160000 -20.399879 36.343399 1736.997803
1.920000 5.920000 6.200000 -39.511375 -3.941403 1576.683472
1.920000 5.960000 5.800000 -17.593714 21.707111 780.737427
1.920000 5.960000 5.840000 -69.354446 20.708447 5238.878906
1.920000 5.960000 5.880000 -110.299812 -35.393986 13418.783203
1.920000 5.960000 5.920000 -90.368256 -118.410400 22187.443359
1.920000 5.960000 5.960000 -4.966581 -164.574875 27109.554688
1.920000 5.960000 6.000000 92.217384 -130.898285 25638.406250
1.920000 5.960000 6.040000 132.588303 -37.254364 18967.546875
1.920000 5.960000 6.080000 92.622269 48.717979 10952.326172
1.920000 5.960000 6.120000 12.842503 70.703690 5163.941406
1.920000 5.960000 6.160000 -41.729790 30.109489 2647.956787
1.920000 5.960000 6.200000 -39.507835 -23.021423 2090.854980
1.920000 6.000000 5.800000 -32.838226 6.461969 1120.106201
1.920000 6.000000 5.840000 -74.578804 -24.672434 6170.727051
1.920000 6.000000 5.880000 -76.581306 -94.896248 14869.994141
1.920000 6.000000 5.920000 -13.023948 -153.801819 23824.623047
1.920000 6.000000 5.960000 85.463440 -145.806274 28563.468750
1.920000 6.000000 6.000000 150.639389 -63.523632 26727.476562
1.920000 6.000000 6.040000 134.800903 39.618546 19740.912109
1.920000 6.000000 6.080000 53.581741 93.225662 11562.027344
1.920000 6.000000 6.120000 -28.449322 69.934082 5700.139648
1.920000 6.000000 6.160000 -55.413979 4.834661 3094.083008
1.920000 6.000000 6.200000 -25.403923 -41.865696 2398.095703
1.920000 6.040000 5.800000 -29.989552 -18.034241 1224.607056
1.920000 6.040000 5.840000 -42.744919 -60.748638 5517.524902
1.920000 6.040000 5.880000 -9.013083 -111.147156 12434.925781
1.920000 6.040000 5.920000 65.443588 -122.032959 19174.906250
1.920000 6.040000 5.960000 132.973068 -68.437149 22365.480469
1.920000 6.040000 6.000000 141.217285 23.178953 20479.585938
1.920000 6.040000 6.040000 80.306839 91.945724 14903.205078
1.920000 6.040000 6.080000 -5.811314 93.391953 8755.828125
1.920000 6.040000 6.120000 -56.621037 36.865402 4565.000000
1.920000 6.040000 6.160000 -46.215675 -25.702438 2796.503906
1.920000 6.040000 6.200000 -0.538010 -47.699318 2275.514404
1.920000 6.080000 5.800000 -8.144404 -32.217262 1104.283325
1.920000 6.080000 5.840000 4.210814 -61.096428 3750.504395
1.920000 6.080000 5.880000 45.293339 -74.764374 7641.198242
1.920000 6.080000 5.920000 93.173775 -49.299667 11111.809570
1.920000 6.080000 5.960000 110.809509 10.786461 12395.094727
1.920000 6.080000 6.000000 77.954880 69.530113 10911.400391
1.920000 6.080000 6.040000 12.434395 86.763626 7682.541016
1.920000 6.080000 6.080000 -41.745590 52.501026 4499.051758
1.920000 6.080000 6.120000 -50.723549 -4.027445 2589.098633
1.920000 6.080000 6.160000 -18.213299 -40.059536 1936.490723
1.920000 6.080000 6.200000 21.163656 -35.624626 1717.014404
1.920000 6.120000 5.800000 15.852610 -24.637068 858.290344
1.920000 6.120000 5.840000 31.992403 -29.295340 1881.730713
1.920000 6.120000 5.880000 52.627834 -18.649057 3117.476318
1.920000 6.120000 5.920000 62.624092 8.871902 4000.487549
1.920000 6.120000 5.960000 49.293610 40.300476 4053.988281
1.920000 6.120000 6.000000 15.208611 55.069893 3263.994873
1.920000 6.120000 6.040000 -20.190228 41.372356 2119.317139
1.920000 6.120000 6.080000 -34.420715 7.668106 1243.585449
1.920000 6.120000 6.120000 -20.336842 -22.642353 926.263306
1.920000 6.120000 6.160000 7.853291 -30.099649 967.663086
1.920000 6.120000 6.200000 27.125458 -14.775127 954.094849
1.920000 6.160000 5.800000 23.302864 -3.937540 558.527710
1.920000 6.160000 5.840000 25.378927 4.749493 666.647644
1.920000 6.160000 5.880000 21.321503 13.288437 631.189026
1.920000 6.160000 5.920000 12.965904 17.971550 491.091309
1.920000 6.160000 5.960000 3.391273 17.276718 309.985718
1.920000 6.160000 6.000000 -4.307213 11.344947 147.259903
1.920000 6.160000 6.040000 -7.190613 1.856773 55.152523
1.920000 6.160000 6.080000 -3.478376 -7.479038 68.035110
1.920000 6.160000 6.120000 5.427780 -11.890290 170.839798
1.920000 6.160000 6.160000 14.428119 -8.805422 285.706055
1.920000 6.160000 6.200000 17.810097 -0.691940 317.678345
1.920000 6.200000 5.800000 12.361066 9.512004 243.274170
1.920000 6.200000 5.840000 0.976840 13.809124 191.646133
1.920000 6.200000 5.880000 -10.210098 5.947559 139.619568
1.920000 6.200000 5.920000 -10.477524 -8.700834 185.483017
1.920000 6.200000 5.960000 1.219257 -18.028811 326.524597
1.920000 6.200000 6.000000 15.325703 -14.785034 453.474396
1.920000 6.200000 6.040000 21.051811 -2.932171 451.776367
1.920000 6.200000 6.080000 16.107687 7.053933 309.215546
1.920000 6.200000 6.120000 7.456499 8.392697 126.036751
1.920000 6.200000 6.160000 3.417114 3.258572 22.294956
1.920000 6.200000 6.200000 5.963600 -1.160425 36.911114
1.960000 5.800000 5.800000 -12.853380 -4.671423 187.031570
1.960000 5.800000 5.840000 -4.418150 -2.409168 25.324139
1.960000 5.800000 5.880000 -3.419353 3.064777 21.084839
1.960000 5.800000 5.920000 -7.040974 3.060707 58.943237
1.960000 5.800000 5.960000 -5.976013 -3.044739 44.983170
1.960000 5.800000 6.000000 4.306847 -6.092056 55.662079
1.960000 5.800000 6.040000 16.592445 3.084171 284.821350
1.960000 5.800000 6.080000 17.738686 22.307129 812.268982
1.960000 5.800000 6.120000 2.215673 37.746170 1429.682495
1.960000 5.800000 6.160000 -20.620190 36.287552 1741.978638
1.960000 5.800000 6.200000 -33.892441 18.541759 1492.494385
1.960000 5.840000 5.800000 -4.377192 -1.816912 22.460983
1.960000 5.840000 5.840000 -7.103561 19.458044 429.076050
1.960000 5.840000 5.880000 -32.824745 28.027317 1862.994385
1.960000 5.840000 5.920000 -58.666313 6.926521 3489.713135
1.960000 5.840000 5.960000 -56.425987 -31.583172 4181.388672
1.960000 5.840000 6.000000 -21.782913 -55.028732 3502.656738
1.960000 5.840000 6.040000 18.889893 -41.661289 2092.490967
1.960000 5.840000 6.080000 32.479267 -2.300076 1060.193237
1.960000 5.840000 6.120000 10.402004 29.520695 979.673096
1.960000 5.840000 6.160000 -24.233706 29.440172 1453.996216
1.960000 5.840000 6.200000 -40.223732 4.092435 1634.696655
1.960000 5.880000 5.800000 -4.695461 8.429372 93.101662
1.960000 5.880000 5.840000 -35.724445 32.880520 2357.364502
1.960000 5.880000 5.880000 -85.625908 15.129673 7560.703125
1.960000 5.880000 5.920000 -105.732330 -47.357224 13422.031250
1.960000 5.880000 5.960000 -65.649818 -110.808258 16588.367188
1.960000 5.880000 6.000000 13.143524 -122.686539 15224.738281
1.960000 5.880000 6.040000 73.157486 -71.330032 10439.991211
1.960000 5.880000 6.080000 72.569931 2.045700 5270.580078
1.960000 5.880000 6.120000 22.094065 41.511948 2211.389648
1.960000 5.880000 6.160000 -28.664009 26.777702 1538.670776
1.960000 5.880000 6.200000 -39.825638 -13.438032 1766.662109
1.960000 5.920000 5.800000 -17.636497 12.989683 479.777924
1.960000 5.920000 5.840000 -72.830544 13.579350 5488.687012
1.960000 5.920000 5.880000 -116.325027 -47.334915 15772.105469
1.960000 5.920000 5.920000 -92.122604 -136.867844 27219.380859
1.960000 5.920000 5.960000 2.645977 -183.670547 33741.871094
1.960000 5.920000 6.000000 106.525597 -142.783325 31734.781250
1.960000 5.920000 6.040000 145.412384 -40.098705 22752.667969
1.960000 5.920000 6.080000 98.454102 49.056908 12099.790039
1.960000 5.920000 6.120000 14.047438 67.151459 4706.648926
1.960000 5.920000 6.160000 -38.261292 21.913378 1944.122559
1.960000 5.920000 6.200000 -30.558231 -29.895964 1827.574097
1.960000 5.960000 5.800000 -31.844353 0.753544 1014.630615
1.960000 5.960000 5.840000 -83.965706 -36.190598 8359.999023
1.960000 5.960000 5.880000 -85.713219 -123.218475 22529.548828
1.960000 5.960000 5.920000 -5.022882 -194.902435 38012.191406
1.960000 5.960000 5.960000 117.235649 -181.948303 46849.382812
1.960000 5.960000 6.000000 195.342682 -78.411652 44307.148438
1.960000 5.960000 6.040000 173.441254 46.950394 32286.208984
1.960000 5.960000 6.080000 75.282120 109.332863 17621.072266
1.960000 5.960000 6.120000 -19.442789 80.770447 6901.887207
1.960000 5.960000 6.160000 -47.755531 7.734449 2340.412598
1.960000 5.960000 6.200000 -13.852970 -39.610325 1760.882568
1.960000 6.000000 5.800000 -29.750690 -23.262894 1426.265869
1.960000 6.000000 5.840000 -50.100769 -82.855019 9375.041016
1.960000 6.000000 5.880000 -2.455494 -154.795837 23967.781250
1.960000 6.000000 5.920000 103.850754 -169.474396 39506.550781
1.960000 6.000000 5.960000 199.008545 -92.368683 48136.375000
1.960000 6.000000 6.000000 209.808533 36.531345 45354.160156
1.960000 6.000000 6.040000 125.768837 131.736572 33172.328125
1.960000 6.000000 6.080000 9.799768 135.055908 18336.132812
1.960000 6.000000 6.120000 -57.638672 63.225548 7319.686523
1.960000 6.000000 6.160000 -46.833069 -13.729473 2381.834961
1.960000 6.000000 6.200000 4.653420 -38.972046 1540.474609
1.960000 6.040000 5.800000 -6.008297 -39.223602 1574.590576
1.960000 6.040000 5.840000 10.291365 -89.105133 8045.636719
1.960000 6.040000 5.880000 78.261200 -114.831024 19310.980469
1.960000 6.040000 5.920000 159.470825 -73.740677 30868.630859
1.960000 6.040000 5.960000 190.388550 25.968111 36922.144531
1.960000 6.040000 6.000000 138.272232 123.630447 34403.699219
1.960000 6.040000 6.040000 33.739166 154.666870 25060.171875
1.960000 6.040000 6.080000 -53.206352 105.415329 13943.307617
1.960000 6.040000 6.120000 -72.260254 22.488533 5727.278320
1.960000 6.040000 6.160000 -31.603144 -31.072594 1964.264771
1.960000 6.040000 6.200000 17.970860 -29.516047 1194.148804
1.960000 6.080000 5.800000 24.094761 -30.687012 1522.250244
1.960000 6.080000 5.840000 54.281891 -48.837372 5331.612305
1.960000 6.080000 5.880000 101.631531 -33.374321 11442.813477
1.960000 6.080000 5.920000 129.548874 23.338322 17327.587891
1.960000 6.080000 5.960000 106.833138 92.954659 20053.886719
1.960000 6.080000 6.000000 37.756500 129.867035 18291.000000
1.960000 6.080000 6.040000 -37.086800 108.637352 13177.504883
1.960000 6.080000 6.080000 -72.514664 46.055882 7379.520508
1.960000 6.080000 6.120000 -54.958076 -13.225982 3195.316650
1.960000 6.080000 6.160000 -10.269392 -34.203892 1275.366699
1.960000 6.080000 6.200000 22.424118 -17.460148 807.697815
1.960000 6.120000 5.800000 37.145699 -2.002235 1383.811890
1.960000 6.120000 5.840000 52.438690 5.702934 2782.339600
1.960000 6.120000 5.880000 61.261261 28.648617 4573.685547
1.960000 6.120000 5.920000 50.983147 58.395306 6009.292969
1.960000 6.120000 5.960000 19.505424 77.610886 6403.911133
1.960000 6.120000 6.000000 -20.157227 71.841385 5567.498535
1.960000 6.120000 6.040000 -47.114868 41.391083 3933.032471
1.960000 6.120000 6.080000 -47.414192 2.762070 2255.734863
1.960000 6.120000 6.120000 -24.449369 -22.800550 1117.636719
1.960000 6.120000 6.160000 4.082624 -24.684994 626.016785
1.960000 6.120000 6.200000 20.290361 -9.386481 499.804810
1.960000 6.160000 5.800000 24.054241 24.048389 1156.931519
1.960000 6.160000 5.840000 15.015034 33.158695 1324.950195
1.960000 6.160000 5.880000 1.658566 33.917793 1153.167603
1.960000 6.160000 5.920000 -8.187889 27.080402 800.389709
1.960000 6.160000 5.960000 -11.877769 18.625309 487.983521
1.960000 6.160000 6.000000 -12.670761 12.264053 310.955200
1.960000 6.160000 6.040000 -13.625452 6.256538 224.797211
1.960000 6.160000 6.080000 -12.867262 -2.190748 170.365799
1.960000 6.160000 6.120000 -6.192478 -11.067545 160.837341
1.960000 6.160000 6.160000 6.268048 -14.052240 236.753876
1.960000 6.160000 6.200000 17.772657 -7.296880 369.111786
1.960000 6.200000 5.800000 -0.478607 27.649466 764.721985
1.960000 6.200000 5.840000 -19.596519 20.496843 804.144165
1.960000 6.200000 5.880000 -26.034979 -1.713168 680.755066
1.960000 6.200000 5.920000 -11.652054 -21.034477 578.219604
1.960000 6.200000 5.960000 11.731302 -20.900269 574.444702
1.960000 6.200000 6.000000 23.695110 -3.152565 571.396912
1.960000 6.200000 6.040000 15.702343 13.887371 439.422638
1.960000 6.200000 6.080000 -0.849918 14.241459 203.541519
1.960000 6.200000 6.120000 -7.174558 0.115366 51.487587
1.960000 6.200000 6.160000 3.429787 -11.555517 145.293427
1.960000 6.200000 6.200000 19.574873 -7.340348 437.056366
2.000000 5.800000 5.800000 -12.348061 -8.542799 225.454010
2.000000 5.800000 5.840000 -6.110729 -1.769541 40.472286
2.000000 5.800000 5.880000 -9.348068 3.391594 98.889290
2.000000 5.800000 5.920000 -13.904509 -0.455582 193.542908
2.000000 5.800000 5.960000 -9.346119 -8.733910 163.631104
2.000000 5.800000 6.000000 4.629257 -9.057373 103.466026
2.000000 5.800000 6.040000 15.988968 5.278304 283.507599
2.000000 5.800000 6.080000 11.633591 26.510736 838.159607
2.000000 5.800000 6.120000 -8.851744 38.218643 1539.018066
2.000000 5.800000 6.160000 -31.302555 30.652527 1919.427368
2.000000 5.800000 6.200000 -39.584000 10.346408 1673.941162
2.000000 5.840000 5.800000 -9.281384 -3.093349 95.712891
2.000000 5.840000 5.840000 -24.580723 13.506821 786.646118
2.000000 5.840000 5.880000 -53.231503 4.252502 2851.676514
2.000000 5.840000 5.920000 -63.402920 -32.812847 5096.613281
2.000000 5.840000 5.960000 -35.868164 -68.870071 6029.612305
2.000000 5.840000 6.000000 13.841812 -70.222954 5122.858887
2.000000 5.840000 6.040000 47.254982 -31.585388 3230.669922
2.000000 5.840000 6.080000 38.444416 17.151386 1772.143188
2.000000 5.840000 6.120000 -1.898657 38.304283 1470.822998
2.000000 5.840000 6.160000 -37.735065 20.839239 1858.209106
2.000000 5.840000 6.200000 -42.330639 -12.098671 1938.260742
2.000000 5.880000 5.800000 -16.285229 0.967093 266.143951
2.000000 5.880000 5.840000 -58.026623 2.860168 3375.269531
2.000000 5.880000 5.880000 -90.852829 -44.765179 10258.157227
2.000000 5.880000 5.920000 -68.985405 -114.393585 17844.878906
2.000000 5.880000 5.960000 8.418571 -147.523453 21834.042969
2.000000 5.880000 6.000000 89.564117 -109.269142 19961.476562
2.000000 5.880000 6.040000 114.596001 -23.950867 13705.886719
2.000000 5.880000 6.080000 69.967438 45.206741 6939.091797
2.000000 5.880000 6.120000 -0.937916 53.114372 2822.016113
2.000000 5.880000 6.160000 -40.439034 10.517872 1745.941040
2.000000 5.880000 6.200000 -28.855129 -32.841278 1911.167969
2.000000 5.920000 5.800000 -26.690954 -7.308668 765.823669
2.000000 5.920000 5.840000 -74.437622 -40.819733 7207.209961
2.000000 5.920000 5.880000 -74.124405 -121.749084 20317.267578
2.000000 5.920000 5.920000 4.050396 -186.394363 34759.265625
2.000000 5.920000 5.960000 118.880173 -169.408478 42831.726562
2.000000 5.920000 6.000000 188.107025 -68.341301 40054.789062
2.000000 5.920000 6.040000 161.543442 48.588875 28457.162109
2.000000 5.920000 6.080000 66.331207 101.800934 14763.258789
2.000000 5.920000 6.120000 -19.985443 69.517853 5232.149902
2.000000 5.920000 6.160000 -40.789101 0.256268 1663.816406
2.000000 5.920000 6.200000 -5.657255 -39.697617 1607.905273
2.000000 5.960000 5.800000 -25.299858 -27.003092 1369.249756
2.000000 5.960000 5.840000 -47.224121 -90.670189 10451.201172
2.000000 5.960000 5.880000 5.841047 -167.528564 28099.937500
2.000000 5.960000 5.920000 121.895836 -180.253876 47350.054688
2.000000 5.960000 5.960000 222.624969 -93.154839 58239.703125
2.000000 5.960000 6.000000 229.525543 46.641136 54857.371094
2.000000 5.960000 6.040000 135.736176 145.435760 39575.867188
2.000000 5.960000 6.080000 12.885607 144.172577 20951.771484
2.000000 5.960000 6.120000 -53.857639 66.505554 7323.633789
2.000000 5.960000 6.160000 -38.621071 -10.614079 1604.245850
2.000000 5.960000 6.200000 13.444660 -30.878593 1134.246460
2.000000 6.000000 5.800000 -4.072886 -42.125313 1791.130371
2.000000 6.000000 5.840000 15.082352 -105.366478 11329.572266
2.000000 6.000000 5.880000 101.099594 -137.673218 29175.042969
2.000000 6.000000 5.920000 202.917084 -84.323204 48285.746094
2.000000 6.000000 5.960000 239.179062 41.673256 58943.285156
2.000000 6.000000 6.000000 171.482208 161.565826 55509.664062
2.000000 6.000000 6.040000 42.350964 196.343185 40344.250000
2.000000 6.000000 6.080000 -60.562332 134.371384 21723.464844
2.000000 6.000000 6.120000 -80.036354 36.890999 7766.763672
2.000000 6.000000 6.160000 -32.369766 -21.352524 1503.732056
2.000000 6.000000 6.200000 19.437523 -16.314579 643.982788
2.000000 6.040000 5.800000 26.348454 -35.139301 1929.011475
2.000000 6.040000 5.840000 70.545761 -67.238739 9497.751953
2.000000 6.040000 5.880000 144.384369 -46.737621 23031.250000
2.000000 6.040000 5.920000 188.604721 38.899639 37084.925781
2.000000 6.040000 5.960000 154.663971 143.858765 44616.289062
2.000000 6.040000 6.000000 51.827606 197.742416 41788.164062
2.000000 6.040000 6.040000 -56.338875 165.347748 30513.945312
2.000000 6.040000 6.080000 -104.742325 76.181244 16774.537109
2.000000 6.040000 6.120000 -79.405418 -3.719505 6319.055664
2.000000 6.040000 6.160000 -21.720776 -29.206388 1324.805176
2.000000 6.040000 6.200000 15.417623 -8.067915 302.794342
2.000000 6.080000 5.800000 43.227989 -5.247705 1896.197510
2.000000 6.080000 5.840000 79.103981 -1.557192 6259.864746
2.000000 6.080000 5.880000 108.439781 41.000862 13440.256836
2.000000 6.080000 5.920000 96.404922 105.664803 20458.960938
2.000000 6.080000 5.960000 35.207180 150.496033 23888.601562
2.000000 6.080000 6.000000 -44.686790 141.821320 22110.197266
2.000000 6.080000 6.040000 -96.909637 82.957520 16273.427734
2.000000 6.080000 6.080000 -95.783188 11.684017 9310.935547
2.000000 6.080000 6.120000 -54.340137 -31.006174 3914.233398
2.000000 6.080000 6.160000 -9.041863 -31.885700 1098.453125
2.000000 6.080000 6.200000 12.271610 -9.458543 240.056458
2.000000 6.120000 5.800000 32.308578 27.830339 1818.372070
2.000000 6.120000 5.840000 38.583130 44.088966 3432.494873
2.000000 6.120000 5.880000 29.545658 67.613297 5444.503906
2.000000 6.120000 5.920000 2.101631 83.735291 7016.016113
2.000000 6.120000 5.960000 -34.226250 79.502548 7492.091309
2.000000 6.120000 6.000000 -62.735306 52.867756 6730.717773
2.000000 6.120000 6.040000 -70.050644 14.492229 5117.117676
2.000000 6.120000 6.080000 -54.197441 -18.858868 3293.019531
2.000000 6.120000 6.120000 -25.043854 -34.363480 1808.043457
2.000000 6.120000 6.160000 2.550211 -29.857746 897.988586
2.000000 6.120000 6.200000 17.610748 -13.240730 485.455383
2.000000 6.160000 5.800000 2.320221 40.494652 1645.200195
2.000000 6.160000 5.840000 -13.942486 41.812210 1942.653809
2.000000 6.160000 5.880000 -27.661720 30.572641 1699.857178
2.000000 6.160000 5.920000 -30.085915 14.722287 1121.907959
2.000000 6.160000 5.960000 -24.180134 4.812836 607.842285
2.000000 6.160000 6.000000 -19.714809 2.167633 393.372345
2.000000 6.160000 6.040000 -20.665781 -1.356949 428.915802
2.000000 6.160000 6.080000 -20.061098 -11.878679 543.550659
2.000000 6.160000 6.120000 -8.711315 -24.026758 653.172119
2.000000 6.160000 6.160000 12.093533 -25.225407 782.574707
2.000000 6.160000 6.200000 28.925323 -9.725246 931.254761
2.000000 6.200000 5.800000 -22.131718 27.101437 1224.300781
2.000000 6.200000 5.840000 -37.124222 6.370753 1418.794434
2.000000 6.200000 5.880000 -28.734425 -21.693634 1296.281006
2.000000 6.200000 5.920000 -0.381493 -32.500847 1056.450562
2.000000 6.200000 5.960000 23.781584 -16.595566 840.976562
2.000000 6.200000 6.000000 23.252663 9.292389 627.034851
2.000000 6.200000 6.040000 2.700905 19.066069 370.809875
2.000000 6.200000 6.080000 -12.859329 4.448620 185.152573
2.000000 6.200000 6.120000 -4.527916 -16.461451 291.481384
2.000000 6.200000 6.160000 20.542782 -18.544670 765.910645
2.000000 6.200000 6.200000 36.768780 3.783985 1366.261719
2.040000 5.800000 5.800000 -12.353271 -10.513399 263.134888
2.040000 5.800000 5.840000 -10.077091 -4.233707 119.472046
2.040000 5.800000 5.880000 -13.948057 -2.933109 203.151428
2.040000 5.800000 5.920000 -14.727856 -8.893188 295.998535
2.040000 5.800000 5.960000 -6.169449 -14.276924 241.892670
2.040000 5.800000 6.000000 7.116043 -9.040434 132.367523
2.040000 5.800000 6.040000 12.845585 7.897270 227.375931
2.040000 5.800000 6.080000 2.828424 25.781780 672.700195
2.040000 5.800000 6.120000 -18.290352 30.993793 1295.152222
2.040000 5.800000 6.160000 -36.332985 19.502577 1700.436279
2.040000 5.800000 6.200000 -40.032356 0.515414 1602.855225
2.040000 5.840000 5.800000 -15.092857 -10.061037 329.018799
2.040000 5.840000 5.840000 -33.281658 -7.483948 1163.678345
2.040000 5.840000 5.880000 -48.162865 -30.406311 3244.205322
2.040000 5.840000 5.920000 -34.735924 -64.590813 5378.557617
2.040000 5.840000 5.960000 7.419174 -78.359489 6195.253418
2.040000 5.840000 6.000000 49.506634 -53.079006 5268.287598
2.040000 5.840000 6.040000 58.420761 -3.289764 3423.807861
2.040000 5.840000 6.080000 27.523621 34.656662 1958.633911
2.040000 5.840000 6.120000 -17.149242 35.123508 1527.757446
2.040000 5.840000 6.160000 -41.356503 5.126127 1736.637573
2.040000 5.840000 6.200000 -33.234932 -25.147015 1736.932983
2.040000 5.880000 5.800000 -19.927357 -17.058498 688.091919
2.040000 5.880000 5.840000 -49.405098 -38.626881 3932.899658
2.040000 5.880000 5.880000 -46.435009 -92.005638 10621.247070
2.040000 5.880000 5.920000 9.307724 -132.880066 17743.744141
2.040000 5.880000 5.960000 88.182442 -116.340416 21311.236328
2.040000 5.880000 6.000000 132.421326 -42.362591 19329.998047
2.040000 5.880000 6.040000 108.169945 39.524967 13262.959961
2.040000 5.880000 6.080000 36.952934 73.191719 6722.547363
2.040000 5.880000 6.120000 -24.717484 45.052082 2640.644043
2.040000 5.880000 6.160000 -36.914314 -8.058416 1427.604736
2.040000 5.880000 6.200000 -8.325390 -37.698494 1490.488525
2.040000 5.920000 5.800000 -16.392742 -31.678671 1272.260254
2.040000 5.920000 5.840000 -31.500233 -81.689705 7665.472656
2.040000 5.920000 5.880000 14.235626 -141.315567 20172.742188
2.040000 5.920000 5.920000 109.676773 -146.973709 33630.265625
2.040000 5.920000 5.960000 189.246765 -71.093529 40868.628906
2.040000 5.920000 6.000000 189.335785 44.877930 37862.066406
2.040000 5.920000 6.040000 107.518005 122.823189 26645.656250
2.040000 5.920000 6.080000 5.805302 116.279846 13554.704102
2.040000 5.920000 6.120000 -45.607044 48.636318 4445.494141
2.040000 5.920000 6.160000 -28.582851 -14.405388 1024.494629
2.040000 5.920000 6.200000 16.027191 -27.770847 1028.090820
2.040000 5.960000 5.800000 2.174803 -42.654144 1824.105713
2.040000 5.960000 5.840000 21.725863 -100.479889 10568.220703
2.040000 5.960000 5.880000 104.201157 -127.779099 27185.378906
2.040000 5.960000 5.920000 199.198578 -73.024376 45012.632812
2.040000 5.960000 5.960000 228.960373 48.628735 54787.605469
2.040000 5.960000 6.000000 159.816681 160.063690 51161.757812
2.040000 5.960000 6.040000 36.240211 187.598083 36506.390625
2.040000 5.960000 6.080000 -57.365593 124.845604 18877.236328
2.040000 5.960000 6.120000 -70.226105 33.702145 6067.540039
2.040000 5.960000 6.160000 -23.142422 -15.945715 789.837463
2.040000 5.960000 6.200000 22.133076 -6.543844 532.694946
2.040000 6.000000 5.800000 28.638956 -35.819199 2103.204834
2.040000 6.000000 5.840000 77.638733 -71.077080 11079.724609
2.040000 6.000000 5.880000 159.668823 -46.832245 27687.392578
2.040000 6.000000 5.920000 206.814331 49.911484 45263.324219
2.040000 6.000000 5.960000 165.757599 165.389923 54829.406250
2.040000 6.000000 6.000000 50.522911 220.784607 51298.406250
2.040000 6.000000 6.040000 -65.560242 180.774750 36977.656250
2.040000 6.000000 6.080000 -112.550735 83.086136 19570.974609
2.040000 6.000000 6.120000 -81.145813 1.606567 6587.224121
2.040000 6.000000 6.160000 -21.394857 -19.091534 822.226562
2.040000 6.000000 6.200000 10.720248 5.454720 144.677689
2.040000 6.040000 5.800000 44.775757 -8.631898 2079.378174
2.040000 6.040000 5.840000 94.969604 -7.400196 9073.988281
2.040000 6.040000 5.880000 138.089600 49.466320 21515.654297
2.040000 6.040000 5.920000 123.347977 138.179459 34308.285156
2.040000 6.040000 5.960000 40.565479 198.486664 41042.515625
2.040000 6.040000 6.000000 -65.270142 184.567398 38325.316406
2.040000 6.040000 6.040000 -129.922195 105.283554 27964.404297
2.040000 6.040000 6.080000 -123.029259 15.551559 15378.048828
2.040000 6.040000 6.120000 -68.773170 -31.788212 5740.239258
2.040000 6.040000 6.160000 -17.675573 -26.979973 1040.344849
2.040000 6.040000 6.200000 -0.410875 -0.957388 1.085410
2.040000 6.080000 5.800000 36.496445 24.132494 1914.367676
2.040000 6.080000 5.840000 60.600883 47.303162 5910.056152
2.040000 6.080000 5.880000 57.497757 95.463226 12419.219727
2.040000 6.080000 5.920000 11.845638 136.135651 18673.234375
2.040000 6.080000 5.960000 -57.902119 135.356354 21673.996094
2.040000 6.080000 6.000000 -112.117340 86.820221 20108.048828
2.040000 6.080000 6.040000 -121.344383 17.527142 15031.660156
2.040000 6.080000 6.080000 -87.966675 -34.556580 8932.292969
2.040000 6.080000 6.120000 -40.099815 -49.482933 4056.555664
2.040000 6.080000 6.160000 -6.194399 -35.456802 1295.555420
2.040000 6.080000 6.200000 5.013569 -14.741354 242.443390
2.040000 6.120000 5.800000 7.697625 41.150047 1752.579834
2.040000 6.120000 5.840000 2.155561 57.273949 3284.951660
2.040000 6.120000 5.880000 -19.542976 68.620911 5090.757324
2.040000 6.120000 5.920000 -49.046535 62.967037 6370.410156
2.040000 6.120000 5.960000 -71.834641 38.841560 6668.882812
2.040000 6.120000 6.000000 -77.511734 5.310219 6036.267090
2.040000 6.120000 6.040000 -64.913696 -25.255508 4851.628906
2.040000 6.120000 6.080000 -40.062351 -43.935951 3535.359863
2.040000 6.120000 6.120000 -11.523383 -47.308960 2370.926025
2.040000 6.120000 6.160000 12.454618 -36.479729 1485.888184
2.040000 6.120000 6.200000 25.157784 -16.424164 902.667236
2.040000 6.160000 5.800000 -21.660839 32.964592 1555.856201
2.040000 6.160000 5.840000 -36.785580 24.582790 1957.492432
2.040000 6.160000 5.880000 -42.091675 5.521267 1802.193481
2.040000 6.160000 5.920000 -33.144310 -10.807011 1215.336792
2.040000 6.160000 5.960000 -19.854696 -14.862221 615.094543
2.040000 6.160000 6.000000 -14.321892 -11.683533 341.621521
2.040000 6.160000 6.040000 -16.036163 -14.002047 453.215851
2.040000 6.160000 6.080000 -12.251411 -25.552111 803.007446
2.040000 6.160000 6.120000 6.055638 -34.409706 1220.698608
2.040000 6.160000 6.160000 30.772524 -25.275488 1585.798584
2.040000 6.160000 6.200000 42.157528 2.109239 1781.706055
2.040000 6.200000 5.800000 -32.755531 10.366238 1180.383667
2.040000 6.200000 5.840000 -35.040852 -15.852273 1479.155884
2.040000 6.200000 5.880000 -12.422337 -36.547989 1490.069946
2.040000 6.200000 5.920000 18.991177 -30.982872 1320.603149
2.040000 6.200000 5.960000 31.933950 -3.671524 1033.257202
2.040000 6.200000 6.000000 17.073608 18.499460 633.738159
2.040000 6.200000 6.040000 -6.003944 14.314666 240.957001
2.040000 6.200000 6.080000 -9.133755 -8.609968 157.557037
2.040000 6.200000 6.120000 13.892733 -21.335659 648.218384
2.040000 6.200000 6.160000 39.775597 -4.591070 1603.176025
2.040000 6.200000 6.200000 39.827309 29.871140 2478.499512
2.080000 5.800000 5.800000 -13.959536 -14.098757 393.643585
2.080000 5.800000 5.840000 -11.665924 -11.557438 269.668152
2.080000 5.800000 5.880000 -11.501896 -11.981518 275.850372
2.080000 5.800000 5.920000 -8.298172 -14.849935 289.380219
2.080000 5.800000 5.960000 -0.329521 -14.706555 216.391357
2.080000 5.800000 6.000000 7.673218 -6.774059 104.766144
2.080000 5.800000 6.040000 7.998144 7.260353 116.683037
2.080000 5.800000 6.080000 -2.881260 19.145529 374.852936
2.080000 5.800000 6.120000 -20.155001 20.379143 821.533508
2.080000 5.800000 6.160000 -33.768406 9.400587 1228.676392
2.080000 5.800000 6.200000 -36.265926 -6.936298 1363.329590
2.080000 5.840000 5.800000 -14.943546 -23.440880 772.784424
2.080000 5.840000 5.840000 -22.391720 -30.989956 1461.766479
2.080000 5.840000 5.880000 -17.883873 -50.593197 2879.504639
2.080000 5.840000 5.920000 7.569946 -64.512917 4219.220703
2.080000 5.840000 5.960000 41.868439 -53.646393 4630.901855
2.080000 5.840000 6.000000 59.906143 -17.602806 3898.604980
2.080000 5.840000 6.040000 45.977612 21.734840 2586.343994
2.080000 5.840000 6.080000 8.987082 38.026161 1526.756470
2.080000 5.840000 6.120000 -24.695112 23.097731 1143.353760
2.080000 5.840000 6.160000 -34.059967 -7.116561 1210.726685
2.080000 5.840000 6.200000 -20.111191 -28.410490 1211.615967
2.080000 5.880000 5.800000 -7.254997 -36.058846 1352.875366
2.080000 5.880000 5.840000 -10.524851 -61.592293 3904.383057
2.080000 5.880000 5.880000 18.814163 -90.835510 8605.062500
2.080000 5.880000 5.920000 74.075363 -88.588715 13335.120117
2.080000 5.880000 5.960000 117.764114 -40.077560 15474.597656
2.080000 5.880000 6.000000 113.686371 29.914848 13819.489258
2.080000 5.880000 6.040000 61.263649 75.442337 9444.781250
2.080000 5.880000 6.080000 -2.218353 69.150146 4786.663574
2.080000 5.880000 6.120000 -34.290333 25.138229 1807.757568
2.080000 5.880000 6.160000 -23.270504 -16.600517 817.093506
2.080000 5.880000 6.200000 6.577582 -27.536337 801.514465
2.080000 5.920000 5.800000 11.823313 -42.456631 1942.356323
2.080000 5.920000 5.840000 29.333172 -77.221359 6823.573242
2.080000 5.920000 5.880000 87.295685 -89.590973 15647.079102
2.080000 5.920000 5.920000 150.427719 -45.763794 24722.822266
2.080000 5.920000 5.960000 165.767975 41.765999 29223.419922
2.080000 5.920000 6.000000 112.130463 118.497337 26614.859375
2.080000 5.920000 6.040000 22.769016 134.010544 18477.253906
2.080000 5.920000 6.080000 -42.476414 86.070267 9212.336914
2.080000 5.920000 6.120000 -49.045593 20.006119 2805.715088
2.080000 5.920000 6.160000 -13.459629 -14.654432 395.914001
2.080000 5.920000 6.200000 19.481201 -6.642281 423.637115
2.080000 5.960000 5.800000 34.724594 -32.855656 2285.291504
2.080000 5.960000 5.840000 75.459442 -55.823780 8810.421875
2.080000 5.960000 5.880000 139.877640 -30.522247 20497.361328
2.080000 5.960000 5.920000 172.991913 51.412739 32569.470703
2.080000 5.960000 5.960000 133.654144 144.447739 38728.578125
2.080000 5.960000 6.000000 36.591377 184.997864 35563.140625
2.080000 5.960000 6.040000 -56.654739 147.520477 24972.050781
2.080000 5.960000 6.080000 -90.614151 66.346397 12612.769531
2.080000 5.960000 6.120000 -61.589355 2.611279 3800.067627
2.080000 5.960000 6.160000 -13.363411 -10.041748 279.417450
2.080000 5.960000 6.200000 9.010359 11.756779 219.408417
2.080000 6.000000 5.800000 46.870598 -7.252466 2249.451172
2.080000 6.000000 5.840000 93.837914 -3.023853 8814.697266
2.080000 6.000000 5.880000 132.349930 53.847752 20416.083984
2.080000 6.000000 5.920000 114.075714 138.841492 32290.226562
2.080000 6.000000 5.960000 31.760988 193.201172 38335.453125
2.080000 6.000000 6.000000 -68.530411 175.018784 35327.992188
2.080000 6.000000 6.040000 -125.282898 97.083145 25120.941406
2.080000 6.000000 6.080000 -113.511101 14.705746 13101.028320
2.080000 6.000000 6.120000 -61.396351 -23.627268 4327.759766
2.080000 6.000000 6.160000 -18.384546 -14.347532 543.843262
2.080000 6.000000 6.200000 -9.384232 8.623256 162.424347
2.080000 6.040000 5.800000 38.133106 21.625118 1921.779541
2.080000 6.040000 5.840000 67.987183 48.216457 6947.083496
2.080000 6.040000 5.880000 65.669228 106.008942 15550.342773
2.080000 6.040000 5.920000 11.582888 154.826935 24105.542969
2.080000 6.040000 5.960000 -70.635857 152.747208 28321.132812
2.080000 6.040000 6.000000 -131.417938 94.105301 26126.480469
2.080000 6.040000 6.040000 -136.857117 15.009979 18955.169922
2.080000 6.040000 6.080000 -95.054352 -38.310814 10503.048828
2.080000 6.040000 6.120000 -43.887459 -46.990921 4134.255859
2.080000 6.040000 6.160000 -15.218119 -28.182362 1025.836670
2.080000 6.040000 6.200000 -11.402674 -11.101551 253.265411
2.080000 6.080000 5.800000 12.351129 36.956894 1518.362427
2.080000 6.080000 5.840000 15.192490 64.270874 4361.556641
2.080000 6.080000 5.880000 -12.402031 93.008659 8804.420898
2.080000 6.080000 5.920000 -62.306522 94.857918 12880.126953
2.080000 6.080000 5.960000 -105.529922 59.433861 14668.948242
2.080000 6.080000 6.000000 -116.130417 3.567524 13499.000977
2.080000 6.080000 6.040000 -91.295708 -43.262012 10206.507812
2.080000 6.080000 6.080000 -50.136848 -62.239586 6387.469727
2.080000 6.080000 6.120000 -15.300025 -55.770691 3344.460693
2.080000 6.080000 6.160000 3.477324 -38.776470 1515.706421
2.080000 6.080000 6.200000 10.130235 -23.076862 635.163208
2.080000 6.120000 5.800000 -14.725340 31.268375 1194.546875
2.080000 6.120000 5.840000 -27.726706 39.398216 2320.989746
2.080000 6.120000 5.880000 -48.916473 34.242081 3565.341309
2.080000 6.120000 5.920000 -64.352844 13.521328 4324.114746
2.080000 6.120000 5.960000 -64.763535 -13.476124 4375.921387
2.080000 6.120000 6.000000 -51.507881 -35.600861 3920.482910
2.080000 6.120000 6.040000 -31.580765 -48.117546 3312.643066
2.080000 6.120000 6.080000 -9.914539 -51.784588 2779.941650
2.080000 6.120000 6.120000 11.704416 -46.921036 2338.576904
2.080000 6.120000 6.160000 29.723555 -31.947214 1904.114258
2.080000 6.120000 6.200000 36.850433 -8.677922 1433.260742
2.080000 6.160000 5.800000 -28.153603 12.260401 942.942810
2.080000 6.160000 5.840000 -36.112419 -1.090597 1305.296265
2.080000 6.160000 5.880000 -30.683060 -19.103325 1306.387207
2.080000 6.160000 5.920000 -14.165004 -27.463104 954.869446
2.080000 6.160000 5.960000 -0.538301 -22.314606 498.231384
2.080000 6.160000 6.000000 1.299381 -14.820772 221.343674
2.080000 6.160000 6.040000 -1.401039 -17.287640 300.825409
2.080000 6.160000 6.080000 6.195988 -26.909143 762.492249
2.080000 6.160000 6.120000 27.270092 -27.068178 1476.344238
2.080000 6.160000 6.160000 46.074146 -6.387238 2163.623779
2.080000 6.160000 6.200000 42.778358 25.489609 2479.708008
2.080000 6.200000 5.800000 -25.647091 -4.687519 679.746094
2.080000 6.200000 5.840000 -16.450722 -25.544250 923.135010
2.080000 6.200000 5.880000 10.080923 -31.517607 1094.984619
2.080000 6.200000 5.920000 31.910473 -12.935722 1185.611206
2.080000 6.200000 5.960000 29.235144 14.152609 1054.989990
2.080000 6.200000 6.000000 7.385944 23.805532 621.255554
2.080000 6.200000 6.040000 -7.402515 8.787099 132.010345
2.080000 6.200000 6.080000 3.568690 -10.121223 115.174713
2.080000 6.200000 6.120000 29.693138 -6.004769 917.739685
2.080000 6.200000 6.160000 40.917439 24.037220 2252.024902
2.080000 6.200000 6.200000 19.845976 53.671925 3274.538330
2.120000 5.800000 5.800000 -13.533014 -21.282925 636.105347
2.120000 5.800000 5.840000 -6.641348 -19.694296 431.972809
2.120000 5.800000 5.880000 -2.745007 -16.366182 275.386993
2.120000 5.800000 5.920000 -0.555195 -13.752260 189.432907
2.120000 5.800000 5.960000 2.317837 -11.339931 133.966400
2.120000 5.800000 6.000000 5.737428 -6.265457 72.174042
2.120000 5.800000 6.040000 5.854186 2.701164 41.567783
2.120000 5.800000 6.080000 -1.458649 11.844603 142.422272
2.120000 5.800000 6.120000 -15.343250 14.131381 435.111267
2.120000 5.800000 6.160000 -28.506111 5.306556 840.757935
2.120000 5.800000 6.200000 -32.149261 -11.148417 1157.862305
2.120000 5.840000 5.800000 -3.515484 -36.010727 1309.131104
2.120000 5.840000 5.840000 3.389849 -39.582123 1578.235474
2.120000 5.840000 5.880000 15.848164 -42.013702 2016.315552
2.120000 5.840000 5.920000 32.853657 -35.879986 2366.736328
2.120000 5.840000 5.960000 45.497437 -17.093773 2362.213867
2.120000 5.840000 6.000000 43.294609 8.584274 1948.113037
2.120000 5.840000 6.040000 23.903067 27.654966 1336.153809
2.120000 5.840000 6.080000 -3.007969 28.858677 841.871094
2.120000 5.840000 6.120000 -22.153511 12.412655 644.852051
2.120000 5.840000 6.160000 -24.110548 -9.985735 681.033447
2.120000 5.840000 6.200000 -11.794385 -24.543657 741.498657
2.120000 5.880000 5.800000 18.304893 -41.347088 2044.650757
2.120000 5.880000 5.840000 32.506180 -48.433578 3402.463379
2.120000 5.880000 5.880000 58.701637 -44.642483 5438.833496
2.120000 5.880000 5.920000 83.089104 -18.560226 7248.281250
2.120000 5.880000 5.960000 85.190849 23.695480 7818.956543
2.120000 5.880000 6.000000 56.930611 59.337563 6762.041016
2.120000 5.880000 6.040000 12.502781 66.643967 4597.737793
2.120000 5.880000 6.080000 -21.684879 43.500336 2362.513184
2.120000 5.880000 6.120000 -28.328840 9.037529 884.200134
2.120000 5.880000 6.160000 -12.014065 -13.212726 318.913879
2.120000 5.880000 6.200000 7.865515 -14.406208 269.405151
2.120000 5.920000 5.800000 41.368256 -28.814386 2541.601318
2.120000 5.920000 5.840000 65.550499 -30.539753 5229.543945
2.120000 5.920000 5.880000 96.403732 -7.447720 9349.148438
2.120000 5.920000 5.920000 106.814987 41.844975 13160.443359
2.120000 5.920000 5.960000 78.068413 92.370369 14626.962891
2.120000 5.920000 6.000000 20.348061 111.510300 12848.590820
2.120000 5.920000 6.040000 -32.717419 87.478226 8722.869141
2.120000 5.920000 6.080000 -51.732601 39.996342 4275.969238
2.120000 5.920000 6.120000 -35.246460 2.589325 1249.017578
2.120000 5.920000 6.160000 -7.310116 -6.153603 91.304619
2.120000 5.920000 6.200000 7.090483 5.153263 76.831062
2.120000 5.960000 5.800000 50.728222 -1.741539 2576.385498
2.120000 5.960000 5.840000 77.786026 10.401546 6158.858398
2.120000 5.960000 5.880000 94.730919 52.742531 11755.721680
2.120000 5.960000 5.920000 74.012947 107.417679 17016.474609
2.120000 5.960000 5.960000 14.952160 137.643265 19169.234375
2.120000 5.960000 6.000000 -50.861797 119.913300 16966.121094
2.120000 5.960000 6.040000 -85.001389 65.984856 11579.236328
2.120000 5.960000 6.080000 -74.536407 12.719183 5717.454102
2.120000 5.960000 6.120000 -40.229576 -10.218470 1722.835938
2.120000 5.960000 6.160000 -14.129185 -3.267787 210.312302
2.120000 5.960000 6.200000 -10.240378 10.202201 208.950256
2.120000 6.000000 5.800000 39.092300 25.130777 2159.763916
2.120000 6.000000 5.840000 56.430092 50.215885 5705.990234
2.120000 6.000000 5.880000 47.322762 95.139847 11291.035156
2.120000 6.000000 5.920000 -0.026269 128.570099 16530.269531
2.120000 6.000000 5.960000 -64.462692 120.602142 18700.316406
2.120000 6.000000 6.000000 -107.645294 71.047699 16635.285156
2.120000 6.000000 6.040000 -106.788574 10.652924 11517.284180
2.120000 6.000000 6.080000 -72.678139 -25.900303 5952.937500
2.120000 6.000000 6.120000 -36.437668 -28.427835 2135.845459
2.120000 6.000000 6.160000 -20.079542 -14.313301 608.058594
2.120000 6.000000 6.200000 -20.449348 -6.303102 457.904938
2.120000 6.040000 5.800000 13.579189 36.558868 1520.945312
2.120000 6.040000 5.840000 13.744226 63.100761 4170.609863
2.120000 6.040000 5.880000 -15.125399 89.710632 8276.775391
2.120000 6.040000 5.920000 -64.167259 88.916061 12023.502930
2.120000 6.040000 5.960000 -103.953751 52.084126 13519.137695
2.120000 6.040000 6.000000 -109.896149 -1.611744 12079.760742
2.120000 6.040000 6.040000 -82.778580 -42.055511 8620.958984
2.120000 6.040000 6.080000 -45.167862 -53.472225 4899.414551
2.120000 6.040000 6.120000 -19.321417 -43.755753 2287.883057
2.120000 6.040000 6.160000 -9.752098 -31.247261 1071.494751
2.120000 6.040000 6.200000 -6.069866 -25.439907 684.032104
2.120000 6.080000 5.800000 -9.853992 28.875443 930.892334
2.120000 6.080000 5.840000 -22.284142 43.506836 2389.427734
2.120000 6.080000 5.880000 -50.316513 43.985905 4466.511230
2.120000 6.080000 5.920000 -75.797264 20.948967 6184.084473
2.120000 6.080000 5.960000 -80.614540 -15.754955 6746.922852
2.120000 6.080000 6.000000 -62.276890 -46.500092 6040.669434
2.120000 6.080000 6.040000 -33.570690 -58.947243 4601.768555
2.120000 6.080000 6.080000 -8.975086 -55.416710 3151.563965
2.120000 6.080000 6.120000 6.689921 -45.492813 2114.351074
2.120000 6.080000 6.160000 16.793583 -34.603432 1479.421875
2.120000 6.080000 6.200000 23.629915 -21.593712 1024.661255
2.120000 6.120000 5.800000 -19.657848 11.924406 528.622437
2.120000 6.120000 5.840000 -31.631563 9.945739 1099.473511
2.120000 6.120000 5.880000 -40.773609 -4.534748 1683.051147
2.120000 6.120000 5.920000 -37.480354 -23.758247 1969.231323
2.120000 6.120000 5.960000 -23.596348 -36.528477 1891.117188
2.120000 6.120000 6.000000 -8.164589 -39.581284 1633.338501
2.120000 6.120000 6.040000 3.748325 -38.075253 1463.774780
2.120000 6.120000 6.080000 15.050434 -36.014496 1523.559570
2.120000 6.120000 6.120000 29.073612 -29.781387 1732.205933
2.120000 6.120000 6.160000 40.942352 -13.569816 1860.416138
2.120000 6.120000 6.200000 40.180172 9.814659 1710.773682
2.120000 6.160000 5.800000 -17.265322 -0.965029 299.022614
2.120000 6.160000 5.840000 -17.751717 -12.874067 480.865051
2.120000 6.160000 5.880000 -6.219288 -22.908930 563.498657
2.120000 6.160000 5.920000 9.380663 -20.611641 512.836609
2.120000 6.160000 5.960000 16.023727 -9.268365 342.662415
2.120000 6.160000 6.000000 11.760056 -2.355940 143.849350
2.120000 6.160000 6.040000 8.818476 -6.720284 122.927719
2.120000 6.160000 6.080000 18.691412 -12.659786 509.639099
2.120000 6.160000 6.120000 36.178333 -4.139993 1326.011353
2.120000 6.160000 6.160000 42.202240 21.219894 2231.312988
2.120000 6.160000 6.200000 24.349342 45.636681 2675.597168
2.120000 6.200000 5.800000 -13.120659 -5.080758 197.965790
2.120000 6.200000 5.840000 -0.574418 -15.763662 248.823013
2.120000 6.200000 5.880000 18.880344 -10.148809 459.465729
2.120000 6.200000 5.920000 25.951454 10.499151 783.710144
2.120000 6.200000 5.960000 13.035095 27.082516 903.376343
2.120000 6.200000 6.000000 -5.267939 23.693136 589.115845
2.120000 6.200000 6.040000 -7.396455 6.950455 103.016357
2.120000 6.200000 6.080000 10.065329 0.285349 101.392258
2.120000 6.200000 6.120000 26.293247 17.724253 1005.484009
2.120000 6.200000 6.160000 17.945919 46.083199 2445.717041
2.120000 6.200000 6.200000 -14.103004 56.801582 3425.314453
2.160000 5.800000 5.800000 -7.308565 -28.851021 885.796509
2.160000 5.800000 5.840000 3.237835 -22.381155 511.399689
2.160000 5.800000 5.880000 5.247313 -13.210594 202.054092
2.160000 5.800000 5.920000 1.864956 -8.975346 84.034889
2.160000 5.800000 5.960000 0.852209 -10.079092 102.314354
2.160000 5.800000 6.000000 5.342906 -9.528929 119.347130
2.160000 5.800000 6.040000 9.446893 -1.498853 91.490341
2.160000 5.800000 6.080000 4.262489 10.452635 127.426392
2.160000 5.800000 6.120000 -11.360797 15.146870 358.495361
2.160000 5.800000 6.160000 -27.094807 4.877894 757.922363
2.160000 5.800000 6.200000 -29.551701 -15.415922 1110.953613
2.160000 5.840000 5.800000 15.383539 -37.860188 1670.047119
2.160000 5.840000 5.840000 26.236988 -27.192480 1427.810547
2.160000 5.840000 5.880000 29.347969 -14.946638 1084.705322
2.160000 5.840000 5.920000 27.863697 -5.315577 804.640991
2.160000 5.840000 5.960000 25.214890 2.441626 641.752197
2.160000 5.840000 6.000000 20.735472 10.682421 544.073914
2.160000 5.840000 6.040000 11.164433 18.054562 450.611755
2.160000 5.840000 6.080000 -3.492290 18.939083 370.884979
2.160000 5.840000 6.120000 -16.754478 9.157212 364.567078
2.160000 5.840000 6.160000 -19.803963 -7.891931 454.479492
2.160000 5.840000 6.200000 -9.651875 -21.956074 575.227844
2.160000 5.880000 5.800000 41.202900 -26.482944 2399.025391
2.160000 5.880000 5.840000 49.947304 -10.626795 2607.661865
2.160000 5.880000 5.880000 50.618599 7.444675 2617.665771
2.160000 5.880000 5.920000 43.398827 23.981075 2458.550049
2.160000 5.880000 5.960000 29.599014 35.759876 2154.870361
2.160000 5.880000 6.000000 11.764641 39.857430 1727.021484
2.160000 5.880000 6.040000 -5.635095 34.504753 1222.332275
2.160000 5.880000 6.080000 -16.951242 21.052311 730.544434
2.160000 5.880000 6.120000 -18.211662 4.809096 354.792053
2.160000 5.880000 6.160000 -10.141046 -7.170012 154.249878
2.160000 5.880000 6.200000 1.747352 -10.332520 109.814201
2.160000 5.920000 5.800000 52.243114 2.088224 2733.703613
2.160000 5.920000 5.840000 55.194611 22.109219 3535.262695
2.160000 5.920000 5.880000 47.371960 43.968040 4177.291016
2.160000 5.920000 5.920000 27.850170 60.249275 4405.606934
2.160000 5.920000 5.960000 1.780067 63.710037 4062.137451
2.160000 5.920000 6.000000 -21.176640 52.520863 3206.891113
2.160000 5.920000 6.040000 -32.603016 32.377712 2111.272949
2.160000 5.920000 6.080000 -30.755892 13.005701 1115.073120
2.160000 5.920000 6.120000 -21.020027 1.635172 444.515350
2.160000 5.920000 6.160000 -11.036095 -1.073643 122.948097
2.160000 5.920000 6.200000 -4.988370 0.561477 25.199095
2.160000 5.960000 5.800000 39.608421 30.578304 2503.859863
2.160000 5.960000 5.840000 34.118931 50.597778 3724.236816
2.160000 5.960000 5.880000 15.176231 68.514397 4924.540527
2.160000 5.960000 5.920000 -14.106743 73.280579 5569.042969
2.160000 5.960000 5.960000 -41.669563 59.584805 5286.701172
2.160000 5.960000 6.000000 -54.945511 33.646324 4151.084473
2.160000 5.960000 6.040000 -50.724545 9.010311 2654.165283
2.160000 5.960000 6.080000 -36.974586 -4.136527 1384.230835
2.160000 5.960000 6.120000 -24.927626 -6.048018 657.965088
2.160000 5.960000 6.160000 -19.399950 -4.493352 396.548279
2.160000 5.960000 6.200000 -16.679399 -5.531364 308.798340
2.160000 6.000000 5.800000 11.983545 41.104107 1833.152954
2.160000 6.000000 5.840000 -0.849423 55.444843 3074.852051
2.160000 6.000000 5.880000 -25.850275 61.265438 4421.690430
2.160000 6.000000 5.920000 -52.987862 49.228035 5231.112793
2.160000 6.000000 5.960000 -67.480423 22.292564 5050.565918
2.160000 6.000000 6.000000 -62.711464 -5.517069 3963.165771
2.160000 6.000000 6.040000 -45.756001 -21.082769 2538.094727
2.160000 6.000000 6.080000 -29.944958 -22.850330 1418.838135
2.160000 6.000000 6.120000 -22.353939 -19.678730 886.950989
2.160000 6.000000 6.160000 -19.119183 -19.910606 761.975403
2.160000 6.000000 6.200000 -12.568162 -22.738993 675.020447
2.160000 6.040000 5.800000 -11.414641 30.259773 1045.947876
2.160000 6.040000 5.840000 -26.519148 35.314018 1950.344971
2.160000 6.040000 5.880000 -47.179649 27.471981 2980.629150
2.160000 6.040000 5.920000 -59.889576 5.225770 3614.069824
2.160000 6.040000 5.960000 -55.606777 -20.341381 3505.885498
2.160000 6.040000 6.000000 -38.473366 -35.717842 2755.964111
2.160000 6.040000 6.040000 -21.036297 -37.263058 1831.061279
2.160000 6.040000 6.080000 -11.546084 -32.677662 1201.141602
2.160000 6.040000 6.120000 -7.262239 -30.808735 1001.918274
2.160000 6.040000 6.160000 -0.416448 -31.757296 1008.699219
2.160000 6.040000 6.200000 10.786729 -28.169439 909.870850
2.160000 6.080000 5.800000 -17.699715 11.198624 438.689087
2.160000 6.080000 5.840000 -28.947540 7.828083 899.238953
2.160000 6.080000 5.880000 -37.048759 -6.681047 1417.246948
2.160000 6.080000 5.920000 -32.834236 -25.167686 1711.499512
2.160000 6.080000 5.960000 -18.083927 -36.102520 1630.420410
2.160000 6.080000 6.000000 -3.113703 -35.584557 1275.955811
2.160000 6.080000 6.040000 4.774595 -30.148808 931.747375
2.160000 6.080000 6.080000 8.364058 -27.671804 835.686218
2.160000 6.080000 6.120000 15.071675 -27.569113 987.211365
2.160000 6.080000 6.160000 25.945080 -22.109768 1161.989014
2.160000 6.080000 6.200000 32.670902 -7.257051 1120.052612
2.160000 6.120000 5.800000 -10.869895 0.270374 118.227722
2.160000 6.120000 5.840000 -14.647684 -7.166559 265.914215
2.160000 6.120000 5.880000 -10.017383 -17.947868 422.473938
2.160000 6.120000 5.920000 2.033199 -22.387003 505.311798
2.160000 6.120000 5.960000 12.286787 -17.551983 459.037231
2.160000 6.120000 6.000000 14.690636 -10.590393 327.971191
2.160000 6.120000 6.040000 13.763536 -9.337223 276.618652
2.160000 6.120000 6.080000 18.489521 -11.730374 479.464081
2.160000 6.120000 6.120000 29.705263 -7.555744 939.491943
2.160000 6.120000 6.160000 36.668476 8.501614 1416.854614
2.160000 6.120000 6.200000 28.325882 27.893738 1580.416260
2.160000 6.160000 5.800000 -5.623794 1.334898 33.409008
2.160000 6.160000 5.840000 -1.986577 -5.475250 33.924847
2.160000 6.160000 5.880000 8.468225 -6.228095 110.499985
2.160000 6.160000 5.920000 15.785820 2.623122 256.072876
2.160000 6.160000 5.960000 12.648626 12.625794 319.398438
2.160000 6.160000 6.000000 4.513198 13.287493 196.926422
2.160000 6.160000 6.040000 3.981453 5.924484 50.951481
2.160000 6.160000 6.080000 14.905676 3.896380 237.360947
2.160000 6.160000 6.120000 25.276857 17.149479 933.024109
2.160000 6.160000 6.160000 19.130278 38.359695 1837.433716
2.160000 6.160000 6.200000 -4.567163 48.000275 2324.885254
2.160000 6.200000 5.800000 -10.934367 3.495191 131.776749
2.160000 6.200000 5.840000 -1.887551 0.119322 3.577088
2.160000 6.200000 5.880000 6.706331 8.514786 117.476456
2.160000 6.200000 5.920000 3.258899 21.557570 475.349213
2.160000 6.200000 5.960000 -9.954720 24.906422 719.426270
2.160000 6.200000 6.000000 -17.876244 14.774342 537.841248
2.160000 6.200000 6.040000 -10.323177 4.406345 125.983871
2.160000 6.200000 6.080000 4.084132 9.773577 112.202942
2.160000 6.200000 6.120000 5.495425 29.749870 915.254517
2.160000 6.200000 6.160000 -14.670671 44.311565 2178.743408
2.160000 6.200000 6.200000 -41.475090 35.099861 2952.183350
2.200000 5.800000 5.800000 3.389102 -31.336893 993.486877
2.200000 5.800000 5.840000 11.321302 -18.162464 458.046997
2.200000 5.800000 5.880000 6.749934 -7.717493 105.121307
2.200000 5.800000 5.920000 -0.459718 -8.109378 65.973351
2.200000 5.800000 5.960000 0.933046 -14.077164 199.037109
2.200000 5.800000 6.000000 10.636528 -13.055407 283.579346
2.200000 5.800000 6.040000 16.278931 0.128727 265.020142
2.200000 5.800000 6.080000 6.772130 15.721622 293.031128
2.200000 5.800000 6.120000 -14.249643 17.781399 519.230469
2.200000 5.800000 6.160000 -29.754433 0.877139 886.095642
2.200000 5.800000 6.200000 -25.193470 -22.630856 1146.866577
2.200000 5.840000 5.800000 30.326019 -26.528507 1623.429199
2.200000 5.840000 5.840000 31.290203 -5.494568 1009.267029
2.200000 5.840000 5.880000 18.882439 6.007338 392.634583
2.200000 5.840000 5.920000 7.592661 3.503774 69.924927
2.200000 5.840000 5.960000 7.321159 -3.061022 62.969231
2.200000 5.840000 6.000000 13.487488 -1.311811 183.633179
2.200000 5.840000 6.040000 13.103715 9.351162 259.151581
2.200000 5.840000 6.080000 0.239047 16.754274 280.762848
2.200000 5.840000 6.120000 -16.041039 9.484076 347.262604
2.200000 5.840000 6.160000 -20.223145 -9.628893 501.691162
2.200000 5.840000 6.200000 -6.600533 -24.782383 657.733521
2.200000 5.880000 5.800000 46.357090 -1.061303 2150.106201
2.200000 5.880000 5.840000 34.736065 21.397129 1664.431396
2.200000 5.880000 5.880000 13.783866 27.179825 928.737793
2.200000 5.880000 5.920000 0.161923 17.892136 320.154724
2.200000 5.880000 5.960000 0.422741 7.378554 54.621769
2.200000 5.880000 6.000000 6.339369 6.762923 85.924728
2.200000 5.880000 6.040000 5.477462 13.590219 214.696655
2.200000 5.880000 6.080000 -4.751537 16.020630 279.237701
2.200000 5.880000 6.120000 -14.498365 6.858736 257.244873
2.200000 5.880000 6.160000 -12.573723 -7.930951 220.998489
2.200000 5.880000 6.200000 1.037161 -15.121554 229.737106
2.200000 5.920000 5.800000 38.124893 29.217743 2307.184082
2.200000 5.920000 5.840000 14.919450 43.395210 2105.734375
2.200000 5.920000 5.880000 -9.107521 37.254948 1470.878052
2.200000 5.920000 5.920000 -18.764238 19.213772 721.265686
2.200000 5.920000 5.960000 -12.754023 5.466076 192.543076
2.200000 5.920000 6.000000 -3.010684 4.831975 32.412193
2.200000 5.920000 6.040000 -1.798827 11.875081 144.253326
2.200000 5.920000 6.080000 -9.898516 14.374104 304.595459
2.200000 5.920000 6.120000 -17.340107 6.584786 344.038727
2.200000 5.920000 6.160000 -14.825817 -5.323825 248.147964
2.200000 5.920000 6.200000 -3.455177 -10.383091 119.746826
2.200000 5.960000 5.800000 10.765304 43.313210 1991.925903
2.200000 5.960000 5.840000 -15.574879 42.872116 2080.595215
2.200000 5.960000 5.880000 -33.262451 24.647121 1713.871216
2.200000 5.960000 5.920000 -32.248718 2.226111 1044.935425
2.200000 5.960000 5.960000 -17.765812 -8.690883 391.155518
2.200000 5.960000 6.000000 -5.029445 -3.886125 40.397285
2.200000 5.960000 6.040000 -5.032675 6.709908 70.350693
2.200000 5.960000 6.080000 -15.108639 9.497541 318.474243
2.200000 5.960000 6.120000 -22.861408 0.261233 522.712219
2.200000 5.960000 6.160000 -18.905714 -12.671004 517.980347
2.200000 5.960000 6.200000 -5.657680 -17.372473 333.812134
2.200000 6.000000 5.800000 -15.455258 33.238338 1343.652100
2.200000 6.000000 5.840000 -34.343441 20.231546 1588.787354
2.200000 6.000000 5.880000 -38.802261 -2.769963 1513.288208
2.200000 6.000000 5.920000 -25.960323 -20.612789 1098.825439
2.200000 6.000000 5.960000 -6.930716 -21.897095 527.517578
2.200000 6.000000 6.000000 2.569666 -9.440771 95.731339
2.200000 6.000000 6.040000 -3.539822 2.277322 17.716534
2.200000 6.000000 6.080000 -16.391218 0.772642 269.269012
2.200000 6.000000 6.120000 -21.055973 -12.811699 607.493652
2.200000 6.000000 6.160000 -11.011648 -25.300419 761.367615
2.200000 6.000000 6.200000 5.948554 -24.478859 634.599854
2.200000 6.040000 5.800000 -23.042631 11.073329 653.581421
2.200000 6.040000 5.840000 -29.253098 -5.615355 887.275940
2.200000 6.040000 5.880000 -21.300299 -23.359230 999.356323
2.200000 6.040000 5.920000 -2.967206 -29.509251 879.600220
2.200000 6.040000 5.960000 12.012971 -19.952446 542.411560
2.200000 6.040000 6.000000 12.225225 -4.445658 169.220001
2.200000 6.040000 6.040000 -0.036603 1.834538 3.366871
2.200000 6.040000 6.080000 -10.460507 -7.041304 159.002167
2.200000 6.040000 6.120000 -6.605247 -21.677137 513.527588
2.200000 6.040000 6.160000 9.678115 -26.514503 796.684814
2.200000 6.040000 6.200000 24.040009 -15.196117 808.843994
2.200000 6.080000 5.800000 -12.943564 -2.948699 176.230682
2.200000 6.080000 5.840000 -9.540368 -14.695469 306.975433
2.200000 6.080000 5.880000 3.276147 -21.561848 475.646393
2.200000 6.080000 5.920000 17.683886 -16.138378 573.167053
2.200000 6.080000 5.960000 22.008278 -1.871833 487.868042
2.200000 6.080000 6.000000 13.098178 8.429463 242.618134
2.200000 6.080000 6.040000 0.993723 5.161300 27.626501
2.200000 6.080000 6.080000 -0.497859 -7.472806 56.090694
2.200000 6.080000 6.120000 11.737400 -14.913221 360.170715
2.200000 6.080000 6.160000 26.173508 -7.086425 735.269897
2.200000 6.080000 6.200000 28.068977 10.837262 905.313721
2.200000 6.120000 5.800000 -2.213517 -0.245222 4.959792
2.200000 6.120000 5.840000 3.703414 -4.802884 36.782970
2.200000 6.120000 5.880000 13.464676 -2.661509 188.381134
2.200000 6.120000 5.920000 18.372028 7.641913 395.930267
2.200000 6.120000 5.960000 12.570295 17.813513 475.333557
2.200000 6.120000 6.000000 1.345892 17.871859 321.214752
2.200000 6.120000 6.040000 -3.032648 7.993564 73.094017
2.200000 6.120000 6.080000 5.260167 -0.017525 27.669661
2.200000 6.120000 6.120000 17.881784 5.122388 345.997070
2.200000 6.120000 6.160000 20.122370 21.157833 852.563660
2.200000 6.120000 6.200000 6.739397 33.386768 1160.095703
2.200000 6.160000 5.800000 -5.565562 8.334857 100.445328
2.200000 6.160000 5.840000 -1.204317 7.329361 55.169918
2.200000 6.160000 5.880000 2.890126 12.620806 167.637573
2.200000 6.160000 5.920000 -0.288447 20.437246 417.764221
2.200000 6.160000 5.960000 -9.618126 21.754318 565.758728
2.200000 6.160000 6.000000 -15.198565 13.722680 419.308319
2.200000 6.160000 6.040000 -9.540514 5.156315 117.608994
2.200000 6.160000 6.080000 2.036435 7.797235 64.943939
2.200000 6.160000 6.120000 5.258931 22.119535 516.930176
2.200000 6.160000 6.160000 -7.496084 34.443054 1242.515259
2.200000 6.160000 6.200000 -27.057728 30.554195 1665.679443
2.200000 6.200000 5.800000 -19.503586 4.920357 404.599762
2.200000 6.200000 5.840000 -15.015049 3.995728 241.417526
2.200000 6.200000 5.880000 -13.988342 8.748823 272.215637
2.200000 6.200000 5.920000 -19.894566 11.447972 526.849792
2.200000 6.200000 5.960000 -25.910778 5.849882 705.589539
2.200000 6.200000 6.000000 -22.818714 -3.244072 531.217712
2.200000 6.200000 6.040000 -11.727321 -4.013127 153.635239
2.200000 6.200000 6.080000 -5.500574 7.921401 93.004898
2.200000 6.200000 6.120000 -14.972136 21.604233 690.907715
2.200000 6.200000 6.160000 -34.800774 20.681028 1638.798828
2.200000 6.200000 6.200000 -46.408512 1.856914 2157.198242
