#kx 	ky 	kz 	real 	imag 	intensity
6.800000 0.800000 2.800000 -33.091812 18.017870 1419.711670
6.800000 0.800000 2.840000 -33.920151 3.933153 1166.046387
6.800000 0.800000 2.880000 -29.412519 -6.353658 905.465271
6.800000 0.800000 2.920000 -23.084995 -13.450642 713.836731
6.800000 0.800000 2.960000 -14.635273 -18.561474 558.719543
6.800000 0.800000 3.000000 -3.177687 -19.481617 389.631073
6.800000 0.800000 3.040000 8.093822 -12.784937 228.964569
6.800000 0.800000 3.080000 12.660430 0.546726 160.585388
6.800000 0.800000 3.120000 6.889597 13.564567 231.464020
6.800000 0.800000 3.160000 -5.566647 18.757793 382.842377
6.800000 0.800000 3.200000 -16.719681 14.773689 497.809631
6.800000 0.840000 2.800000 -34.979542 -10.221257 1328.042480
6.800000 0.840000 2.840000 -26.727962 -19.408764 1091.084106
6.800000 0.840000 2.880000 -17.347336 -23.302217 843.923401
6.800000 0.840000 2.920000 -8.553218 -23.141083 608.667236
6.800000 0.840000 2.960000 -1.445687 -19.304825 374.766296
6.800000 0.840000 3.000000 1.846728 -12.709875 164.951324
6.800000 0.840000 3.040000 -0.097992 -6.703388 44.945015
6.800000 0.840000 3.080000 -4.968637 -5.298578 52.762291
6.800000 0.840000 3.120000 -7.457512 -8.742513 132.046005
6.800000 0.840000 3.160000 -4.499088 -12.036850 165.127548
6.800000 0.840000 3.200000 0.475916 -9.703323 94.380981
6.800000 0.880000 2.800000 -15.705873 -31.139458 1216.340332
6.800000 0.880000 2.840000 -4.015309 -30.569038 950.588806
6.800000 0.880000 2.880000 4.587327 -25.558327 674.271667
6.800000 0.880000 2.920000 8.718415 -17.437473 380.076233
6.800000 0.880000 2.960000 6.143227 -9.073937 120.075577
6.800000 0.880000 3.000000 -2.577256 -6.432102 48.014191
6.800000 0.880000 3.040000 -10.450527 -14.019745 305.766785
6.800000 0.880000 3.080000 -7.674809 -27.908855 837.806946
6.800000 0.880000 3.120000 8.464506 -35.657703 1343.119629
6.800000 0.880000 3.160000 27.694487 -26.586407 1473.821655
6.800000 0.880000 3.200000 33.520046 -3.609249 1136.620239
6.800000 0.920000 2.800000 11.505532 -30.892595 1086.729736
6.800000 0.920000 2.840000 18.855423 -21.033716 797.944214
6.800000 0.920000 2.880000 20.000139 -10.039730 500.801758
6.800000 0.920000 2.920000 13.876856 -0.467278 192.785477
6.800000 0.920000 2.960000 0.977438 1.579144 3.449079
6.800000 0.920000 3.000000 -10.799831 -9.878384 214.218826
6.800000 0.920000 3.040000 -8.230079 -31.162579 1038.840576
6.800000 0.920000 3.080000 14.791187 -45.905998 2326.139893
6.800000 0.920000 3.120000 46.533875 -36.659302 3509.305664
6.800000 0.920000 3.160000 62.780479 -2.702930 3948.694580
6.800000 0.920000 3.200000 47.198212 34.593662 3424.392578
6.800000 0.960000 2.800000 27.576500 -11.559875 894.094116
6.800000 0.960000 2.840000 25.224709 1.481121 638.479675
6.800000 0.960000 2.880000 16.482437 10.555578 383.090973
6.800000 0.960000 2.920000 2.490570 12.049740 151.399170
6.800000 0.960000 2.960000 -10.847281 0.644559 118.078957
6.800000 0.960000 3.000000 -10.912646 -22.326321 617.550415
6.800000 0.960000 3.040000 11.611073 -41.973110 1896.558960
6.800000 0.960000 3.080000 48.704285 -37.427547 3772.928711
6.800000 0.960000 3.120000 74.526215 -1.462814 5556.296387
6.800000 0.960000 3.160000 64.785400 47.107300 6416.245605
6.800000 0.960000 3.200000 20.128193 74.514435 5957.544922
6.800000 1.000000 2.800000 22.832048 10.863883 639.326416
6.800000 1.000000 2.840000 11.491858 18.698881 481.710968
6.800000 1.000000 2.880000 -2.144565 18.252340 337.747070
6.800000 1.000000 2.920000 -13.881403 7.690825 251.842133
6.800000 1.000000 2.960000 -15.150934 -12.438391 384.264374
6.800000 1.000000 3.000000 2.868166 -31.877750 1024.417358
6.800000 1.000000 3.040000 37.046295 -32.132637 2404.934326
6.800000 1.000000 3.080000 66.375076 -1.759308 4408.746094
6.800000 1.000000 3.120000 64.541763 47.689487 6439.926270
6.800000 1.000000 3.160000 23.684973 84.319939 7670.830078
6.800000 1.000000 3.200000 -33.735180 80.070236 7549.305176
6.800000 1.040000 2.800000 3.788996 19.913271 410.894867
6.800000 1.040000 2.840000 -9.760771 17.180702 390.449158
6.800000 1.040000 2.880000 -18.610601 6.226495 385.123718
6.800000 1.040000 2.920000 -18.243977 -10.086665 434.583496
6.800000 1.040000 2.960000 -4.063231 -25.046074 643.815674
6.800000 1.040000 3.000000 22.598820 -26.341137 1204.562134
6.800000 1.040000 3.040000 47.962265 -3.778650 2314.657227
6.800000 1.040000 3.080000 50.647419 37.600807 3978.981934
6.800000 1.040000 3.120000 19.052946 74.002106 5839.326172
6.800000 1.040000 3.160000 -33.909313 78.003426 7234.375977
6.800000 1.040000 3.200000 -75.984032 41.987999 7536.565430
6.800000 1.080000 2.800000 -13.848814 11.232829 317.966095
6.800000 1.080000 2.840000 -20.989742 -0.733688 441.107574
6.800000 1.080000 2.880000 -17.911077 -15.041405 547.050537
6.800000 1.080000 2.920000 -4.627808 -24.938669 643.353821
6.800000 1.080000 2.960000 15.266436 -23.512550 785.904053
6.800000 1.080000 3.000000 32.612671 -5.941849 1098.891846
6.800000 1.080000 3.040000 34.068432 24.400360 1756.035645
6.800000 1.080000 3.080000 10.928276 52.370411 2862.087158
6.800000 1.080000 3.120000 -30.272202 57.973667 4277.352051
6.800000 1.080000 3.160000 -67.337563 31.871822 5550.160156
6.800000 1.080000 3.200000 -76.822906 -13.959705 6096.632324
6.800000 1.120000 2.800000 -18.585712 -6.297420 385.086212
6.800000 1.120000 2.840000 -14.539644 -20.412575 628.074463
6.800000 1.120000 2.880000 -0.532954 -27.987532 783.585999
6.800000 1.120000 2.920000 16.403610 -23.431807 818.127991
6.800000 1.120000 2.960000 27.165928 -6.902298 785.629333
6.800000 1.120000 3.000000 24.104336 15.446730 819.620422
6.800000 1.120000 3.040000 4.829989 32.718147 1093.806030
6.800000 1.120000 3.080000 -24.455481 33.585281 1726.041626
6.800000 1.120000 3.120000 -49.679398 13.504576 2650.416016
6.800000 1.120000 3.160000 -56.242046 -19.923685 3560.120850
6.800000 1.120000 3.200000 -39.386673 -49.698200 4021.221191
6.800000 1.160000 2.800000 -10.699127 -20.242870 524.245117
6.800000 1.160000 2.840000 2.688830 -28.677990 829.656921
6.800000 1.160000 2.880000 19.578892 -24.103220 964.298218
6.800000 1.160000 2.920000 28.615599 -7.454585 874.423340
6.800000 1.160000 2.960000 22.743999 11.983739 660.899475
6.800000 1.160000 3.000000 3.865272 22.556841 523.751404
6.800000 1.160000 3.040000 -18.373573 17.365828 639.160156
6.800000 1.160000 3.080000 -32.288353 -1.791592 1045.747559
6.800000 1.160000 3.120000 -30.782084 -25.618790 1603.859131
6.800000 1.160000 3.160000 -15.201918 -42.735306 2057.404785
6.800000 1.160000 3.200000 5.780149 -46.270054 2174.328125
6.800000 1.200000 2.800000 1.408874 -24.897343 621.862610
6.800000 1.200000 2.840000 17.920153 -24.183643 905.980469
6.800000 1.200000 2.880000 29.332233 -9.936815 959.120239
6.800000 1.200000 2.920000 25.771820 9.191243 748.665649
6.800000 1.200000 2.960000 8.135889 19.396313 442.409637
6.800000 1.200000 3.000000 -11.851839 12.606075 299.379211
6.800000 1.200000 3.040000 -20.496262 -7.088284 470.340515
6.800000 1.200000 3.080000 -12.455160 -26.745457 870.450439
6.800000 1.200000 3.120000 5.909807 -34.601471 1232.187622
6.800000 1.200000 3.160000 22.316799 -28.391970 1304.143433
6.800000 1.200000 3.200000 28.190813 -15.676400 1040.471436
6.840000 0.800000 2.800000 -44.657333 12.905089 2160.818848
6.840000 0.800000 2.840000 -45.435223 -5.553691 2095.202881
6.840000 0.800000 2.880000 -36.543480 -21.684158 1805.628662
6.840000 0.800000 2.920000 -20.837349 -30.647688 1373.475830
6.840000 0.800000 2.960000 -3.302977 -29.734997 895.079712
6.840000 0.800000 3.000000 9.962841 -19.443510 477.308289
6.840000 0.800000 3.040000 13.980222 -4.261337 213.605591
6.840000 0.800000 3.080000 7.952724 8.708326 139.080780
6.840000 0.800000 3.120000 -3.626228 13.777306 202.963684
6.840000 0.800000 3.160000 -13.851652 10.453230 301.138275
6.840000 0.800000 3.200000 -18.511253 3.193848 352.867157
6.840000 0.840000 2.800000 -36.483780 -19.150738 1697.816895
6.840000 0.840000 2.840000 -22.879208 -30.111500 1430.160522
6.840000 0.840000 2.880000 -5.637114 -30.479475 960.775452
6.840000 0.840000 2.920000 6.729465 -20.244337 455.118896
6.840000 0.840000 2.960000 8.046925 -6.116574 102.165482
6.840000 0.840000 3.000000 -0.605282 2.467834 6.456573
6.840000 0.840000 3.040000 -11.065886 0.311760 122.551033
6.840000 0.840000 3.080000 -14.261959 -9.175352 287.590576
6.840000 0.840000 3.120000 -7.794405 -16.666840 338.536285
6.840000 0.840000 3.160000 1.863022 -15.066490 230.469986
6.840000 0.840000 3.200000 5.170840 -6.133121 64.352768
6.840000 0.880000 2.800000 -7.118181 -33.582382 1178.444824
6.840000 0.880000 2.840000 11.407898 -26.715786 843.873352
6.840000 0.880000 2.880000 20.535275 -7.412204 476.638275
6.840000 0.880000 2.920000 11.585361 13.493666 316.299622
6.840000 0.880000 2.960000 -11.902702 20.027494 542.774841
6.840000 0.880000 3.000000 -33.164993 4.202736 1117.579712
6.840000 0.880000 3.040000 -34.013565 -24.619753 1763.054810
6.840000 0.880000 3.080000 -10.816500 -44.777420 2122.013916
6.840000 0.880000 3.120000 20.352200 -39.729729 1992.663330
6.840000 0.880000 3.160000 36.006546 -12.884174 1462.473267
6.840000 0.880000 3.200000 25.156706 14.453392 841.760376
6.840000 0.920000 2.800000 20.907713 -20.415451 853.923096
6.840000 0.920000 2.840000 28.527306 3.464207 825.807922
6.840000 0.920000 2.880000 14.623760 29.892500 1107.415894
6.840000 0.920000 2.920000 -19.313431 38.765511 1875.773438
6.840000 0.920000 2.960000 -52.986202 16.208138 3070.241211
6.840000 0.920000 3.000000 -59.057354 -29.136951 4336.732910
6.840000 0.920000 3.040000 -26.398804 -67.038849 5191.104004
6.840000 0.920000 3.080000 26.266287 -67.908409 5301.470215
6.840000 0.920000 3.120000 62.126728 -28.601490 4677.775391
6.840000 0.920000 3.160000 55.923225 22.599546 3638.146729
6.840000 0.920000 3.200000 15.371534 48.578438 2596.148682
6.840000 0.960000 2.800000 26.431852 7.681064 757.641541
6.840000 0.960000 2.840000 12.959148 34.657707 1369.096191
6.840000 0.960000 2.880000 -22.823524 46.734665 2705.042236
6.840000 0.960000 2.920000 -63.632618 25.572300 4703.052734
6.840000 0.960000 2.960000 -78.517853 -26.413248 6862.712891
6.840000 0.960000 3.000000 -47.083633 -78.947449 8449.568359
6.840000 0.960000 3.040000 18.020727 -92.796295 8935.899414
6.840000 0.960000 3.080000 74.598404 -52.537586 8325.120117
6.840000 0.960000 3.120000 82.549751 16.555021 7088.530273
6.840000 0.960000 3.160000 37.516514 66.175629 5786.702637
6.840000 0.960000 3.200000 -24.758587 63.988007 4707.452637
6.840000 1.000000 2.800000 7.677897 26.640318 768.656677
6.840000 1.000000 2.840000 -22.183210 39.211662 2029.649292
6.840000 1.000000 2.880000 -60.949825 24.123133 4296.806641
6.840000 1.000000 2.920000 -81.681778 -22.886320 7195.696777
6.840000 1.000000 2.960000 -59.246677 -79.341797 9805.289062
6.840000 1.000000 3.000000 4.284338 -105.532867 11155.541992
6.840000 1.000000 3.040000 72.278687 -75.255966 10887.668945
6.840000 1.000000 3.080000 97.481232 -2.140753 9507.173828
6.840000 1.000000 3.120000 60.442799 65.678932 7967.053711
6.840000 1.000000 3.160000 -12.114694 82.340515 6926.726074
6.840000 1.000000 3.200000 -67.983978 41.296482 6327.220703
6.840000 1.040000 2.800000 -17.441942 21.850601 781.670105
6.840000 1.040000 2.840000 -46.776058 12.692966 2349.110840
6.840000 1.040000 2.880000 -66.390762 -22.125814 4897.285156
6.840000 1.040000 2.920000 -53.942986 -70.222198 7841.002930
6.840000 1.040000 2.960000 -3.472580 -100.495140 10111.332031
6.840000 1.040000 3.000000 61.033089 -84.137924 10804.228516
6.840000 1.040000 3.040000 96.929657 -21.692171 9865.908203
6.840000 1.040000 3.080000 75.419189 50.040871 8192.142578
6.840000 1.040000 3.120000 7.966840 82.938812 6942.317383
6.840000 1.040000 3.160000 -59.417419 55.740448 6637.427246
6.840000 1.040000 3.200000 -82.095703 -8.419299 6810.589355
6.840000 1.080000 2.800000 -28.075325 -0.772931 788.821289
6.840000 1.080000 2.840000 -40.952362 -22.989689 2205.621826
6.840000 1.080000 2.880000 -34.073158 -55.741280 4268.070312
6.840000 1.080000 2.920000 -0.256455 -79.936569 6389.920898
6.840000 1.080000 2.960000 48.497784 -73.237602 7715.781250
6.840000 1.080000 3.000000 82.629448 -29.292265 7685.662109
6.840000 1.080000 3.040000 74.837509 30.569153 6535.125977
6.840000 1.080000 3.080000 24.109108 68.110764 5220.325195
6.840000 1.080000 3.120000 -38.658524 56.747200 4714.726074
6.840000 1.080000 3.160000 -72.168816 4.097206 5225.125000
6.840000 1.080000 3.200000 -56.827568 -52.886185 6026.321289
6.840000 1.120000 2.800000 -17.766485 -22.475449 820.793823
6.840000 1.120000 2.840000 -11.466777 -40.741108 1791.324829
6.840000 1.120000 2.880000 9.543488 -53.468803 2949.990967
6.840000 1.120000 2.920000 39.084618 -48.673180 3896.685547
6.840000 1.120000 2.960000 61.153954 -21.529741 4203.335938
6.840000 1.120000 3.000000 58.480103 17.756800 3735.226318
6.840000 1.120000 3.040000 26.576843 46.374474 2856.920410
6.840000 1.120000 3.080000 -18.618422 43.815090 2266.407715
6.840000 1.120000 3.120000 -49.124424 8.788939 2490.454346
6.840000 1.120000 3.160000 -45.219429 -37.241463 3431.723145
6.840000 1.120000 3.200000 -10.977586 -65.289970 4383.287598
6.840000 1.160000 2.800000 3.062668 -29.053118 853.463623
6.840000 1.160000 2.840000 17.576305 -32.043430 1335.707886
6.840000 1.160000 2.880000 32.935974 -24.216991 1671.241089
6.840000 1.160000 2.920000 40.887321 -6.547651 1714.644775
6.840000 1.160000 2.960000 35.174953 13.998962 1433.248291
6.840000 1.160000 3.000000 15.836657 26.740120 965.833679
6.840000 1.160000 3.040000 -8.764961 22.904972 601.462280
6.840000 1.160000 3.080000 -25.127007 2.117571 635.850586
6.840000 1.160000 3.120000 -22.778297 -25.357317 1161.844360
6.840000 1.160000 3.160000 -2.162012 -44.121208 1951.355347
6.840000 1.160000 3.200000 24.794243 -44.124641 2561.738525
6.840000 1.200000 2.800000 19.313625 -21.043736 815.854919
6.840000 1.200000 2.840000 28.409920 -10.809162 923.961548
6.840000 1.200000 2.880000 27.965195 3.757174 796.168457
6.840000 1.200000 2.920000 17.353844 14.122538 500.601959
6.840000 1.200000 2.960000 2.552935 14.106121 205.500122
6.840000 1.200000 3.000000 -8.004204 3.819734 78.657639
6.840000 1.200000 3.040000 -8.716221 -10.880232 194.351959
6.840000 1.200000 3.080000 0.317982 -22.353022 499.758667
6.840000 1.200000 3.120000 14.128856 -25.544468 852.144409
6.840000 1.200000 3.160000 26.208317 -20.252249 1097.029419
6.840000 1.200000 3.200000 32.255394 -10.478461 1150.208496
6.880000 0.800000 2.800000 -51.616272 -2.169946 2668.948242
6.880000 0.800000 2.840000 -47.384979 -25.078516 2874.268066
6.880000 0.800000 2.880000 -29.015728 -41.789230 2588.252197
6.880000 0.800000 2.920000 -4.240692 -43.710560 1928.596558
6.880000 0.800000 2.960000 15.099884 -30.480675 1157.078003
6.880000 0.800000 3.000000 20.669615 -10.385040 535.082031
6.880000 0.800000 3.040000 12.871628 5.308250 193.856323
6.880000 0.800000 3.080000 -0.255186 9.936794 98.805000
6.880000 0.800000 3.120000 -9.549911 5.154852 117.773315
6.880000 0.800000 3.160000 -11.348673 -1.977955 132.704681
6.880000 0.800000 3.200000 -8.776891 -5.729759 109.863953
6.880000 0.840000 2.800000 -30.455555 -29.811741 1816.280762
6.880000 0.840000 2.840000 -10.298923 -36.119469 1410.683838
6.880000 0.840000 2.880000 8.764702 -25.780249 741.441223
6.880000 0.840000 2.920000 13.336025 -5.418414 207.208771
6.880000 0.840000 2.960000 0.841946 9.467133 90.335472
6.880000 0.840000 3.000000 -17.331713 7.506577 356.736969
6.880000 0.840000 3.040000 -25.294975 -8.501591 712.112793
6.880000 0.840000 3.080000 -16.449280 -24.069723 849.930359
6.880000 0.840000 3.120000 1.056511 -26.010563 677.665588
6.880000 0.840000 3.160000 12.248129 -13.928476 344.019104
6.880000 0.840000 3.200000 9.042660 0.230944 81.823036
6.880000 0.880000 2.800000 2.991014 -29.885220 902.072510
6.880000 0.880000 2.840000 19.712788 -9.591040 480.582031
6.880000 0.880000 2.880000 13.113914 20.823900 605.609558
6.880000 0.880000 2.920000 -19.210262 36.465378 1698.757935
6.880000 0.880000 2.960000 -55.818535 19.030136 3477.854736
6.880000 0.880000 3.000000 -66.816719 -24.055294 5043.131348
6.880000 0.880000 3.040000 -39.998413 -62.487877 5504.607910
6.880000 0.880000 3.080000 6.759766 -67.725174 4632.393555
6.880000 0.880000 3.120000 39.739147 -37.507252 2985.993652
6.880000 0.880000 3.160000 37.962193 2.635328 1448.072998
6.880000 0.880000 3.200000 9.879522 22.289015 594.405151
6.880000 0.920000 2.800000 20.886715 -4.467072 456.209595
6.880000 0.920000 2.840000 12.173813 31.732182 1155.133057
6.880000 0.920000 2.880000 -30.893864 53.170601 3781.543457
6.880000 0.920000 2.920000 -85.325340 30.777073 8227.641602
6.880000 0.920000 2.960000 -108.441574 -33.456318 12878.900391
6.880000 0.920000 3.000000 -73.899307 -100.055428 15472.196289
6.880000 0.920000 3.040000 1.292797 -121.071716 14660.031250
6.880000 0.920000 3.080000 66.792267 -80.790604 10988.328125
6.880000 0.920000 3.120000 79.722878 -10.294504 6461.714355
6.880000 0.920000 3.160000 39.729267 38.827320 3085.975586
6.880000 0.920000 3.200000 -13.711985 37.780727 1615.401978
6.880000 0.960000 2.800000 9.694000 22.144171 584.337952
6.880000 0.960000 2.840000 -29.558889 48.333679 3209.872559
6.880000 0.960000 2.880000 -90.421875 32.499992 9232.365234
6.880000 0.960000 2.920000 -127.548820 -36.140949 17574.869141
6.880000 0.960000 2.960000 -99.726997 -122.495399 24950.597656
6.880000 0.960000 3.000000 -10.668301 -166.250168 27752.931641
6.880000 0.960000 3.040000 85.578827 -131.329269 24571.113281
6.880000 0.960000 3.080000 125.214966 -39.652924 17251.142578
6.880000 0.960000 3.120000 87.136848 44.441578 9567.884766
6.880000 0.960000 3.160000 9.203929 67.122543 4590.148438
6.880000 0.960000 3.200000 -46.515358 27.373705 2912.998047
6.880000 1.000000 2.800000 -17.906910 25.785414 985.544983
6.880000 1.000000 2.840000 -69.463623 21.415712 5283.827637
6.880000 1.000000 2.880000 -112.538651 -33.762257 13804.837891
6.880000 1.000000 2.920000 -100.449486 -120.320297 24567.074219
6.880000 1.000000 2.960000 -18.916353 -181.052063 33137.675781
6.880000 1.000000 3.000000 90.742661 -164.433380 35272.566406
6.880000 1.000000 3.040000 157.340225 -71.890793 29924.234375
6.880000 1.000000 3.080000 136.845139 37.032818 20098.021484
6.880000 1.000000 3.120000 49.865410 90.840988 10738.644531
6.880000 1.000000 3.160000 -36.023792 63.677185 5352.497559
6.880000 1.000000 3.200000 -63.432152 -7.638437 4081.983643
6.880000 1.040000 2.800000 -35.647518 3.948700 1286.337891
6.880000 1.040000 2.840000 -72.042328 -28.871784 6023.677246
6.880000 1.040000 2.880000 -74.026276 -95.976311 14691.341797
6.880000 1.040000 2.920000 -16.106808 -157.259766 24990.064453
6.880000 1.040000 2.960000 82.147369 -160.587708 32536.601562
6.880000 1.040000 3.000000 160.827057 -87.609009 33540.679688
6.880000 1.040000 3.040000 164.397858 22.685595 27541.292969
6.880000 1.040000 3.080000 89.321335 99.538055 17886.125000
6.880000 1.040000 3.120000 -10.178257 96.436050 9403.508789
6.880000 1.040000 3.160000 -65.945045 27.888222 5126.501953
6.880000 1.040000 3.200000 -50.441216 -46.317627 4689.638672
6.880000 1.080000 2.800000 -27.809454 -23.742847 1337.088501
6.880000 1.080000 2.840000 -34.756042 -62.577065 5123.871582
6.880000 1.080000 2.880000 -3.314574 -107.615967 11592.182617
6.880000 1.080000 2.920000 65.023689 -120.930435 18852.250000
6.880000 1.080000 2.960000 133.578629 -76.615486 23713.183594
6.880000 1.080000 3.000000 153.530884 10.630302 23684.736328
6.880000 1.080000 3.040000 104.446823 89.014626 18832.742188
6.880000 1.080000 3.080000 15.746346 107.864937 11882.791992
6.880000 1.080000 3.120000 -53.617363 58.867203 6340.168945
6.880000 1.080000 3.160000 -61.700981 -17.230089 4103.886719
6.880000 1.080000 3.200000 -15.205217 -65.260147 4490.085449
6.880000 1.120000 2.800000 -1.606116 -34.923603 1222.237671
6.880000 1.120000 2.840000 11.893383 -56.728844 3359.614258
6.880000 1.120000 2.880000 47.153862 -66.743530 6678.185547
6.880000 1.120000 2.920000 89.461426 -45.844933 10105.104492
6.880000 1.120000 2.960000 109.632507 6.337429 12059.450195
6.880000 1.120000 3.000000 86.190430 63.704334 11487.032227
6.880000 1.120000 3.040000 26.706371 89.443451 8713.361328
6.880000 1.120000 3.080000 -33.083916 65.080994 5330.081055
6.880000 1.120000 3.120000 -55.226257 7.428257 3105.118408
6.880000 1.120000 3.160000 -29.318598 -43.499146 2751.755859
6.880000 1.120000 3.200000 20.450434 -56.117233 3567.364014
6.880000 1.160000 2.800000 22.322592 -23.819145 1065.649780
6.880000 1.160000 2.840000 34.761314 -23.367325 1754.380859
6.880000 1.160000 2.880000 49.296322 -13.168825 2603.545410
6.880000 1.160000 2.920000 56.733868 8.691769 3294.278564
6.880000 1.160000 2.960000 47.223316 34.846382 3444.312012
6.880000 1.160000 3.000000 19.683655 50.131386 2900.602051
6.880000 1.160000 3.040000 -13.212936 41.990166 1937.755737
6.880000 1.160000 3.080000 -31.532228 12.127666 1141.361694
6.880000 1.160000 3.120000 -22.909657 -21.894970 1004.242065
6.880000 1.160000 3.160000 6.870132 -38.714058 1545.977051
6.880000 1.160000 3.200000 37.796745 -29.385008 2292.072754
6.880000 1.200000 2.800000 29.709059 -2.850568 890.753906
6.880000 1.200000 2.840000 27.158665 6.795896 783.777283
6.880000 1.200000 2.880000 20.033642 12.867777 566.926514
6.880000 1.200000 2.920000 11.802914 14.013676 335.691895
6.880000 1.200000 2.960000 4.919121 11.261748 151.024719
6.880000 1.200000 3.000000 0.312046 5.765906 33.343048
6.880000 1.200000 3.040000 -0.999519 -1.894234 4.587160
6.880000 1.200000 3.080000 2.736855 -10.136269 110.234314
6.880000 1.200000 3.120000 12.076397 -15.269955 379.010864
6.880000 1.200000 3.160000 24.117214 -13.365654 760.280701
6.880000 1.200000 3.200000 33.195648 -3.803850 1116.420288
6.920000 0.800000 2.800000 -45.752998 -19.986269 2492.787842
6.920000 0.800000 2.840000 -33.412022 -42.206299 2897.734863
6.920000 0.800000 2.880000 -7.528629 -51.554131 2714.508545
6.920000 0.800000 2.920000 18.174149 -41.494850 2052.122314
6.920000 0.800000 2.960000 29.703125 -18.520386 1225.280273
6.920000 0.800000 3.000000 23.275230 2.718803 549.128235
6.920000 0.800000 3.040000 7.506248 10.744789 171.794250
6.920000 0.800000 3.080000 -4.405220 5.440363 49.003513
6.920000 0.800000 3.120000 -5.494434 -3.678965 43.723587
6.920000 0.800000 3.160000 0.620954 -6.923166 48.315819
6.920000 0.800000 3.200000 5.059460 -2.721808 33.006374
6.920000 0.840000 2.800000 -17.405090 -33.756542 1442.441284
6.920000 0.840000 2.840000 3.217529 -30.372856 932.862854
6.920000 0.840000 2.880000 13.461273 -11.271513 308.252869
6.920000 0.840000 2.920000 3.764606 8.103771 79.843369
6.920000 0.840000 2.960000 -17.817429 10.538475 428.520203
6.920000 0.840000 3.000000 -31.944824 -6.842796 1067.295654
6.920000 0.840000 3.040000 -25.307602 -29.380501 1503.688477
6.920000 0.840000 3.080000 -2.632645 -37.941982 1446.524780
6.920000 0.840000 3.120000 17.972960 -25.907341 994.217590
6.920000 0.840000 3.160000 21.531223 -4.202358 481.253387
6.920000 0.840000 3.200000 8.857511 9.662999 171.829041
6.920000 0.880000 2.800000 7.706673 -19.222893 428.912384
6.920000 0.880000 2.840000 9.778107 9.788458 191.425278
6.920000 0.880000 2.880000 -19.303875 32.934658 1457.331299
6.920000 0.880000 2.920000 -63.465256 21.914719 4508.093750
6.920000 0.880000 2.960000 -86.513161 -25.818642 8151.128906
6.920000 0.880000 3.000000 -63.849140 -79.642090 10419.575195
6.920000 0.880000 3.040000 -6.662384 -99.889282 10022.256836
6.920000 0.880000 3.080000 45.702583 -72.188927 7299.967285
6.920000 0.880000 3.120000 59.103703 -19.673342 3880.287842
6.920000 0.880000 3.160000 32.630215 18.301769 1399.685791
6.920000 0.880000 3.200000 -4.212576 20.245420 427.622833
6.920000 0.920000 2.800000 7.675686 7.240315 111.338318
6.920000 0.920000 2.840000 -26.149883 37.483437 2088.824463
6.920000 0.920000 2.880000 -86.954185 26.853607 8282.146484
6.920000 0.920000 2.920000 -127.175819 -39.255787 17714.707031
6.920000 0.920000 2.960000 -102.631226 -125.907211 26385.794922
6.920000 0.920000 3.000000 -16.158508 -171.650467 29724.980469
6.920000 0.920000 3.040000 78.319092 -140.566681 25892.873047
6.920000 0.920000 3.080000 118.865875 -54.973854 17151.220703
6.920000 0.920000 3.120000 87.086121 23.220367 8123.177734
6.920000 0.920000 3.160000 20.364134 45.469994 2482.218262
6.920000 0.920000 3.200000 -25.024540 14.359632 832.426636
6.920000 0.960000 2.800000 -14.984240 18.535559 568.094360
6.920000 0.960000 2.840000 -74.511566 19.464619 5930.845215
6.920000 0.960000 2.880000 -128.629745 -42.353264 18339.410156
6.920000 0.960000 2.920000 -117.943237 -145.000610 34935.785156
6.920000 0.960000 2.960000 -23.927078 -218.871765 48477.351562
6.920000 0.960000 3.000000 103.870972 -202.604156 51837.625000
6.920000 0.960000 3.040000 182.372559 -99.396332 43139.382812
6.920000 0.960000 3.080000 163.561035 21.287352 27205.363281
6.920000 0.960000 3.120000 73.968765 81.089996 12046.965820
6.920000 0.960000 3.160000 -11.647453 56.637104 3343.424561
6.920000 0.960000 3.200000 -36.337761 -8.354380 1390.228516
6.920000 1.000000 2.800000 -36.102306 2.868668 1311.605713
6.920000 1.000000 2.840000 -89.620659 -35.909130 9321.328125
6.920000 1.000000 2.880000 -98.327080 -127.440353 25909.257812
6.920000 1.000000 2.920000 -22.654552 -214.994507 46735.867188
6.920000 1.000000 2.960000 110.935638 -224.213531 62578.421875
6.920000 1.000000 3.000000 219.578049 -129.919403 65093.570312
6.920000 1.000000 3.040000 229.390442 13.990653 52815.714844
6.920000 1.000000 3.080000 138.769379 114.541702 32376.742188
6.920000 1.000000 3.120000 19.705526 115.785042 13794.483398
6.920000 1.000000 3.160000 -44.745239 41.310501 3708.693848
6.920000 1.000000 3.200000 -28.143238 -34.297543 1968.363281
6.920000 1.040000 2.800000 -33.393806 -25.540396 1767.458252
6.920000 1.040000 2.840000 -53.715214 -84.916138 10096.074219
6.920000 1.040000 2.880000 -10.798012 -162.051712 26377.355469
6.920000 1.040000 2.920000 96.983536 -191.450378 46059.054688
6.920000 1.040000 2.960000 209.853134 -127.724472 60351.882812
6.920000 1.040000 3.000000 248.379166 6.253679 61731.320312
6.920000 1.040000 3.040000 180.946640 128.827911 49338.320312
6.920000 1.040000 3.080000 54.217728 163.819778 29776.482422
6.920000 1.040000 3.120000 -44.377003 102.610710 12498.276367
6.920000 1.040000 3.160000 -58.779526 6.986104 3503.838379
6.920000 1.040000 3.200000 -4.999911 -48.111664 2339.731201
6.920000 1.080000 2.800000 -7.156755 -40.973793 1730.070801
6.920000 1.080000 2.840000 6.483662 -89.193726 7997.558594
6.920000 1.080000 2.880000 70.733315 -121.647858 19801.402344
6.920000 1.080000 2.920000 158.342789 -92.799728 33684.230469
6.920000 1.080000 2.960000 208.335266 2.797878 43411.410156
6.920000 1.080000 3.000000 175.220490 114.746109 43868.890625
6.920000 1.080000 3.040000 72.140862 171.830078 34729.878906
6.920000 1.080000 3.080000 -34.758724 140.095291 20834.859375
6.920000 1.080000 3.120000 -78.988129 51.059513 8846.198242
6.920000 1.080000 3.160000 -46.361195 -26.433472 2848.088867
6.920000 1.080000 3.200000 19.597811 -44.246773 2341.851074
6.920000 1.120000 2.800000 21.663813 -30.493813 1399.193359
6.920000 1.120000 2.840000 46.039375 -49.996674 4619.291504
6.920000 1.120000 2.880000 92.764893 -43.668175 10512.234375
6.920000 1.120000 2.920000 131.301865 5.123840 17266.433594
6.920000 1.120000 2.960000 124.808990 78.958397 21811.712891
6.920000 1.120000 3.000000 63.853424 132.931274 21747.984375
6.920000 1.120000 3.040000 -19.408134 129.220673 17074.658203
6.920000 1.120000 3.080000 -73.352783 69.952881 10274.037109
6.920000 1.120000 3.120000 -67.829391 -2.748512 4608.380371
6.920000 1.120000 3.160000 -17.312122 -40.941998 1975.956787
6.920000 1.120000 3.200000 34.356926 -28.480423 1991.532837
6.920000 1.160000 2.800000 32.350319 -4.010942 1062.630737
6.920000 1.160000 2.840000 43.186066 -2.968536 1873.848511
6.920000 1.160000 2.880000 57.059196 11.353024 3384.643066
6.920000 1.160000 2.920000 58.923576 40.135246 5082.825684
6.920000 1.160000 2.960000 36.841442 69.088768 6130.549805
6.920000 1.160000 3.000000 -4.174660 76.838043 5921.512695
6.920000 1.160000 3.040000 -41.642502 53.044964 4547.866211
6.920000 1.160000 3.080000 -51.727478 9.814301 2772.052490
6.920000 1.160000 3.120000 -28.823206 -25.734716 1493.052856
6.920000 1.160000 3.160000 9.404167 -32.397694 1138.048950
6.920000 1.160000 3.200000 36.525635 -10.888695 1452.685669
6.920000 1.200000 2.800000 22.338903 17.897648 819.352417
6.920000 1.200000 2.840000 14.553764 18.352325 548.619934
6.920000 1.200000 2.880000 10.246429 15.926783 358.651733
6.920000 1.200000 2.920000 8.718121 14.995687 300.876251
6.920000 1.200000 2.960000 5.707703 16.285242 297.786987
6.920000 1.200000 3.000000 -0.962822 15.549583 242.716583
6.920000 1.200000 3.040000 -7.519457 8.357994 126.398300
6.920000 1.200000 3.080000 -6.971838 -3.828285 63.262291
6.920000 1.200000 3.120000 3.742439 -13.149967 186.927490
6.920000 1.200000 3.160000 19.487707 -11.651909 515.537720
6.920000 1.200000 3.200000 30.194851 1.488182 913.943665
6.960000 0.800000 2.800000 -28.864819 -28.302845 1634.228760
6.960000 0.800000 2.840000 -11.433910 -43.806950 2049.783203
6.960000 0.800000 2.880000 13.830997 -43.034737 2043.285034
6.960000 0.800000 2.920000 31.839565 -25.137260 1645.639771
6.960000 0.800000 2.960000 32.472271 -1.567009 1056.903931
6.960000 0.800000 3.000000 18.552742 12.928307 511.345337
6.960000 0.800000 3.040000 3.003826 12.090279 155.197800
6.960000 0.800000 3.080000 -2.414215 2.409039 11.631906
6.960000 0.800000 3.120000 3.297268 -3.759079 25.002651
6.960000 0.800000 3.160000 10.944304 0.350189 119.900414
6.960000 0.800000 3.200000 10.775013 10.506681 226.491272
6.960000 0.840000 2.800000 -6.163578 -26.750265 753.566345
6.960000 0.840000 2.840000 6.335209 -16.605762 315.886230
6.960000 0.840000 2.880000 3.454792 -0.002266 11.935593
6.960000 0.840000 2.920000 -13.733007 5.938858 223.865524
6.960000 0.840000 2.960000 -29.307432 -7.206367 910.857300
6.960000 0.840000 3.000000 -26.927307 -30.150246 1634.117188
6.960000 0.840000 3.040000 -5.283096 -43.573921 1926.597778
6.960000 0.840000 3.080000 20.232170 -35.354889 1659.308838
6.960000 0.840000 3.120000 31.075420 -11.121372 1089.366699
6.960000 0.840000 3.160000 21.386520 11.401901 587.386597
6.960000 0.840000 3.200000 1.615470 18.175276 332.950378
6.960000 0.880000 2.800000 1.567465 -8.847349 80.732536
6.960000 0.880000 2.840000 -14.560078 13.475136 393.575134
6.960000 0.880000 2.880000 -52.989868 11.477867 2939.667480
6.960000 0.880000 2.920000 -81.790375 -28.902260 7525.006348
6.960000 0.880000 2.960000 -68.431625 -86.350571 12139.308594
6.960000 0.880000 3.000000 -11.972015 -118.789146 14254.190430
6.960000 0.880000 3.040000 52.304153 -99.839172 12703.584961
6.960000 0.880000 3.080000 81.895149 -42.675652 8528.026367
6.960000 0.880000 3.120000 62.800461 11.650558 4079.633545
6.960000 0.880000 3.160000 18.725370 29.936113 1246.810425
6.960000 0.880000 3.200000 -13.238340 12.659574 335.518463
6.960000 0.920000 2.800000 -11.594234 3.523933 146.844376
6.960000 0.920000 2.840000 -58.850674 7.716423 3522.945068
6.960000 0.920000 2.880000 -104.952232 -41.754814 12758.435547
6.960000 0.920000 2.920000 -97.127716 -127.877953 25786.562500
6.960000 0.920000 2.960000 -18.016762 -190.733185 36703.753906
6.960000 0.920000 3.000000 90.231674 -177.312103 39581.335938
6.960000 0.920000 3.040000 156.901733 -90.556580 32818.648438
6.960000 0.920000 3.080000 142.184845 10.489254 20326.554688
6.960000 0.920000 3.120000 69.483795 60.916443 8538.810547
6.960000 0.920000 3.160000 0.855097 43.257259 1871.921631
6.960000 0.920000 3.200000 -18.970711 -5.181929 386.740265
6.960000 0.960000 2.800000 -29.282890 -5.527287 888.038574
6.960000 0.960000 2.840000 -82.615944 -40.629559 8476.155273
6.960000 0.960000 2.880000 -92.743179 -131.018646 25767.181641
6.960000 0.960000 2.920000 -17.513939 -218.876770 48213.777344
6.960000 0.960000 2.960000 116.281685 -228.043793 65525.402344
6.960000 0.960000 3.000000 224.482239 -133.842697 68306.140625
6.960000 0.960000 3.040000 234.202515 8.225491 54918.476562
6.960000 0.960000 3.080000 146.657990 106.118362 32769.671875
6.960000 0.960000 3.120000 34.340725 108.138519 12873.224609
6.960000 0.960000 3.160000 -24.194256 41.271824 2288.725342
6.960000 0.960000 3.200000 -9.056641 -22.220329 575.765747
6.960000 1.000000 2.800000 -29.340292 -29.371254 1723.523193
6.960000 1.000000 2.840000 -55.666019 -95.787598 12273.969727
6.960000 1.000000 2.880000 -7.965445 -186.000885 34659.777344
6.960000 1.000000 2.920000 116.923401 -221.236511 62616.675781
6.960000 1.000000 2.960000 247.909012 -147.748169 83288.398438
6.960000 1.000000 3.000000 292.297394 6.193955 85476.132812
6.960000 1.000000 3.040000 216.147095 145.128845 67781.945312
6.960000 1.000000 3.080000 76.063065 184.387802 39784.453125
6.960000 1.000000 3.120000 -29.502945 119.513824 15153.978516
6.960000 1.000000 3.160000 -43.644753 22.750362 2422.443359
6.960000 1.000000 3.200000 8.927383 -26.655155 790.195496
6.960000 1.040000 2.800000 -6.361389 -45.133430 2077.493652
6.960000 1.040000 2.840000 7.573807 -111.718376 12538.357422
6.960000 1.040000 2.880000 93.399002 -159.192413 34065.597656
6.960000 1.040000 2.920000 213.267334 -122.370850 60457.582031
6.960000 1.040000 2.960000 282.080994 5.925146 79604.796875
6.960000 1.040000 3.000000 238.885422 155.354919 81201.398438
6.960000 1.040000 3.040000 104.624542 230.691681 64164.945312
6.960000 1.040000 3.080000 -31.254009 191.340591 37588.035156
6.960000 1.040000 3.120000 -85.506416 83.548691 14291.730469
6.960000 1.040000 3.160000 -47.609058 -4.272362 2284.875732
6.960000 1.040000 3.200000 22.179543 -18.802788 845.476929
6.960000 1.080000 2.800000 22.717918 -36.288311 1832.945312
6.960000 1.080000 2.840000 60.587109 -75.298981 9340.734375
6.960000 1.080000 2.880000 140.535355 -70.393005 24705.361328
6.960000 1.080000 2.920000 208.247696 8.297855 43435.957031
6.960000 1.080000 2.960000 200.448120 129.674042 56994.804688
6.960000 1.080000 3.000000 103.723412 217.761566 58178.648438
6.960000 1.080000 3.040000 -26.423737 213.335480 46210.242188
6.960000 1.080000 3.080000 -108.342751 125.153587 27401.572266
6.960000 1.080000 3.120000 -101.246490 21.954018 10732.830078
6.960000 1.080000 3.160000 -34.559189 -27.296942 1939.460571
6.960000 1.080000 3.200000 25.304491 -8.370984 710.390625
6.960000 1.120000 2.800000 35.239849 -8.380390 1312.077881
6.960000 1.120000 2.840000 67.947304 -17.147512 4910.873047
6.960000 1.120000 2.880000 110.969589 13.160133 12487.439453
6.960000 1.120000 2.920000 122.332184 82.663307 21798.384766
6.960000 1.120000 2.960000 74.411385 151.992157 28638.669922
6.960000 1.120000 3.000000 -15.740166 170.885773 29449.699219
6.960000 1.120000 3.040000 -94.625290 121.703407 23765.664062
6.960000 1.120000 3.080000 -114.845932 36.934204 14553.723633
6.960000 1.120000 3.120000 -73.619484 -27.110178 6154.790527
6.960000 1.120000 3.160000 -11.926069 -36.437447 1469.918579
6.960000 1.120000 3.200000 23.257137 -2.994646 549.862305
6.960000 1.160000 2.800000 24.041254 17.456842 882.723206
6.960000 1.160000 2.840000 35.496380 19.390434 1635.981934
6.960000 1.160000 2.880000 45.100861 39.600262 3602.268555
6.960000 1.160000 2.920000 33.706543 70.904846 6163.627930
6.960000 1.160000 2.960000 -4.171906 90.136551 8142.002441
6.960000 1.160000 3.000000 -50.928349 77.041107 8529.029297
6.960000 1.160000 3.040000 -77.520752 33.673714 7143.385742
6.960000 1.160000 3.080000 -67.134560 -14.692726 4722.925293
6.960000 1.160000 3.120000 -29.316360 -39.191502 2395.422852
6.960000 1.160000 3.160000 8.379001 -29.932936 966.188293
6.960000 1.160000 3.200000 23.119637 -1.441574 536.595703
6.960000 1.200000 2.800000 2.048447 25.244789 641.495483
6.960000 1.200000 2.840000 -0.981768 17.959721 323.515442
6.960000 1.200000 2.880000 1.321823 14.524157 212.698349
6.960000 1.200000 2.920000 2.293388 17.227436 302.044189
6.960000 1.200000 2.960000 -3.590248 21.005268 454.111176
6.960000 1.200000 3.000000 -14.450043 17.856133 527.645203
6.960000 1.200000 3.040000 -21.561192 4.917633 489.068085
6.960000 1.200000 3.080000 -16.879986 -11.536491 418.024567
6.960000 1.200000 3.120000 -0.766075 -20.402430 416.846008
6.960000 1.200000 3.160000 17.250420 -14.795567 516.485718
6.960000 1.200000 3.200000 25.535099 2.114883 656.513977
7.000000 0.800000 2.800000 -13.128150 -21.383165 629.588074
7.000000 0.800000 2.840000 2.297173 -29.508839 876.048523
7.000000 0.800000 2.880000 20.353577 -24.103018 995.223511
7.000000 0.800000 2.920000 29.770508 -7.458237 941.908447
7.000000 0.800000 2.960000 25.234064 9.942772 735.616699
7.000000 0.800000 3.000000 11.859024 17.566441 449.216278
7.000000 0.800000 3.040000 0.902420 13.490086 182.796768
7.000000 0.800000 3.080000 -0.085121 5.695272 32.443371
7.000000 0.800000 3.120000 6.189248 4.402821 57.691620
7.000000 0.800000 3.160000 9.796252 12.364177 248.839417
7.000000 0.800000 3.200000 3.461297 22.391376 513.354309
7.000000 0.840000 2.800000 -5.779732 -14.823956 253.154968
7.000000 0.840000 2.840000 -3.768410 -7.596523 71.908073
7.000000 0.840000 2.880000 -11.935026 -3.902771 157.676483
7.000000 0.840000 2.920000 -21.402885 -12.302856 609.443787
7.000000 0.840000 2.960000 -19.484222 -29.092857 1226.029297
7.000000 0.840000 3.000000 -2.284325 -40.607315 1654.172119
7.000000 0.840000 3.040000 20.568687 -35.266624 1666.805664
7.000000 0.840000 3.080000 33.556412 -14.070038 1323.998657
7.000000 0.840000 3.120000 28.086182 10.013100 889.095764
7.000000 0.840000 3.160000 8.947789 22.749056 597.582458
7.000000 0.840000 3.200000 -10.696104 19.495586 494.484528
7.000000 0.880000 2.800000 -11.467644 -8.957660 211.746521
7.000000 0.880000 2.840000 -34.076107 -6.049385 1197.776123
7.000000 0.880000 2.880000 -57.868515 -32.524033 4406.578125
7.000000 0.880000 2.920000 -52.063400 -80.012962 9112.671875
7.000000 0.880000 2.960000 -5.882904 -114.363579 13113.636719
7.000000 0.880000 3.000000 56.787056 -104.826439 14213.351562
7.000000 0.880000 3.040000 95.163300 -52.818192 11845.815430
7.000000 0.880000 3.080000 85.995613 7.770447 7455.625488
7.000000 0.880000 3.120000 42.224949 39.339649 3330.554199
7.000000 0.880000 3.160000 -0.815631 30.994728 961.338440
7.000000 0.880000 3.200000 -16.980364 2.964569 297.121429
7.000000 0.920000 2.800000 -21.147038 -16.531790 720.497314
7.000000 0.920000 2.840000 -56.754707 -40.622902 4871.317383
7.000000 0.920000 2.880000 -61.927059 -104.976250 14854.973633
7.000000 0.920000 2.920000 -5.027328 -167.059998 27934.316406
7.000000 0.920000 2.960000 93.782883 -170.665390 37921.906250
7.000000 0.920000 3.000000 172.006561 -98.537354 39295.867188
7.000000 0.920000 3.040000 176.726715 7.179298 31283.875000
7.000000 0.920000 3.080000 110.554596 78.752640 18424.296875
7.000000 0.920000 3.120000 27.645990 79.769615 7127.492188
7.000000 0.920000 3.160000 -15.451382 31.592178 1236.810913
7.000000 0.920000 3.200000 -6.224377 -13.213317 213.334625
7.000000 0.960000 2.800000 -18.282131 -34.814781 1546.305298
7.000000 0.960000 2.840000 -39.376854 -89.630447 9584.154297
7.000000 0.960000 2.880000 3.084785 -165.597839 27432.160156
7.000000 0.960000 2.920000 112.111931 -193.319885 49941.664062
7.000000 0.960000 2.960000 224.710144 -126.250252 66433.773438
7.000000 0.960000 3.000000 260.139099 9.082336 67754.843750
7.000000 0.960000 3.040000 191.192505 128.396515 53040.238281
7.000000 0.960000 3.080000 69.779083 159.855438 30422.882812
7.000000 0.960000 3.120000 -18.852053 103.343834 11035.347656
7.000000 0.960000 3.160000 -29.218706 23.424818 1402.454834
7.000000 0.960000 3.200000 13.161320 -13.936039 367.433533
7.000000 1.000000 2.800000 2.937504 -46.470070 2168.096191
7.000000 1.000000 2.840000 16.456127 -111.018120 12595.826172
7.000000 1.000000 2.880000 102.500725 -157.060440 35174.382812
7.000000 1.000000 2.920000 222.300079 -117.753632 63283.242188
7.000000 1.000000 2.960000 288.882111 12.998902 83621.843750
7.000000 1.000000 3.000000 242.146393 162.133621 84922.187500
7.000000 1.000000 3.040000 106.706161 234.182892 66227.828125
7.000000 1.000000 3.080000 -25.829441 192.543030 37739.976562
7.000000 1.000000 3.120000 -75.269821 88.001358 13409.785156
7.000000 1.000000 3.160000 -37.559578 8.450066 1482.125488
7.000000 1.000000 3.200000 23.650860 0.530087 559.644165
7.000000 1.040000 2.800000 29.455936 -36.629852 2209.398193
7.000000 1.040000 2.840000 72.759705 -82.256836 12060.162109
7.000000 1.040000 2.880000 166.378387 -76.013069 33459.753906
7.000000 1.040000 2.920000 244.587219 17.526535 60130.085938
7.000000 1.040000 2.960000 232.652649 159.439896 79548.335938
7.000000 1.040000 3.000000 117.921371 259.118469 81047.835938
7.000000 1.040000 3.040000 -31.072023 250.198212 63564.613281
7.000000 1.040000 3.080000 -120.150963 148.697418 36547.175781
7.000000 1.040000 3.120000 -108.622559 37.085632 13174.204102
7.000000 1.040000 3.160000 -37.426529 -9.794735 1496.682007
7.000000 1.040000 3.200000 17.203295 14.714785 512.478210
7.000000 1.080000 2.800000 40.653286 -8.692089 1728.242065
7.000000 1.080000 2.840000 89.176018 -22.773422 8470.991211
7.000000 1.080000 2.880000 152.089386 21.415249 23589.794922
7.000000 1.080000 2.920000 167.041733 121.617393 42693.730469
7.000000 1.080000 2.960000 96.682457 218.141891 56933.382812
7.000000 1.080000 3.000000 -29.684242 240.306793 58628.507812
7.000000 1.080000 3.040000 -134.428925 169.259598 46719.945312
7.000000 1.080000 3.080000 -156.180176 56.452099 27579.087891
7.000000 1.080000 3.120000 -100.182343 -21.135231 10483.200195
7.000000 1.080000 3.160000 -27.511478 -26.215284 1444.122559
7.000000 1.080000 3.200000 3.539845 14.541675 223.990799
7.000000 1.120000 2.800000 28.029343 17.825493 1103.392212
7.000000 1.120000 2.840000 59.509018 24.130367 4123.597656
7.000000 1.120000 2.880000 81.015594 70.496246 11533.247070
7.000000 1.120000 2.920000 54.968613 134.867844 21210.884766
7.000000 1.120000 2.960000 -21.623550 168.237762 28771.523438
7.000000 1.120000 3.000000 -107.165825 137.096390 30279.933594
7.000000 1.120000 3.040000 -147.672287 55.808613 24921.705078
7.000000 1.120000 3.080000 -122.391930 -23.506409 15532.335938
7.000000 1.120000 3.120000 -59.827965 -54.885189 6591.769531
7.000000 1.120000 3.160000 -9.953234 -34.759628 1307.298706
7.000000 1.120000 3.200000 -0.796446 2.097244 5.032760
7.000000 1.160000 2.800000 3.033728 25.524952 660.726685
7.000000 1.160000 2.840000 14.463768 31.192430 1182.168335
7.000000 1.160000 2.880000 14.095600 54.098480 3125.331543
7.000000 1.160000 2.920000 -11.925255 76.031364 5922.980469
7.000000 1.160000 2.960000 -55.070602 72.874550 8343.471680
7.000000 1.160000 3.000000 -88.558487 37.134636 9221.586914
7.000000 1.160000 3.040000 -89.386108 -13.252548 8165.506348
7.000000 1.160000 3.080000 -57.894272 -48.892250 5742.199219
7.000000 1.160000 3.120000 -16.768585 -52.700508 3058.529053
7.000000 1.160000 3.160000 8.657118 -31.654993 1076.984253
7.000000 1.160000 3.200000 9.746702 -7.319098 148.567413
7.000000 1.200000 2.800000 -14.781512 14.706869 434.785095
7.000000 1.200000 2.840000 -10.342754 8.625329 181.368866
7.000000 1.200000 2.880000 -6.386311 9.645452 133.819702
7.000000 1.200000 2.920000 -8.828346 13.571281 262.119385
7.000000 1.200000 2.960000 -17.489697 12.887245 471.970581
7.000000 1.200000 3.000000 -25.736937 3.181618 672.512573
7.000000 1.200000 3.040000 -25.544727 -12.714596 814.194031
7.000000 1.200000 3.080000 -13.852615 -26.260672 881.517822
7.000000 1.200000 3.120000 4.621181 -29.120041 869.332153
7.000000 1.200000 3.160000 20.161167 -19.110836 771.696716
7.000000 1.200000 3.200000 24.355566 -2.014804 597.253052
7.040000 0.800000 2.800000 -10.654856 -6.546213 156.378845
7.040000 0.800000 2.840000 -1.504372 -13.161575 175.490204
7.040000 0.800000 2.880000 10.854235 -11.335953 246.318237
7.040000 0.800000 2.920000 18.781881 -0.707375 353.259430
7.040000 0.800000 2.960000 16.828644 12.368603 436.185577
7.040000 0.800000 3.000000 7.053688 19.392567 425.826172
7.040000 0.800000 3.040000 -2.305965 17.381773 307.443512
7.040000 0.800000 3.080000 -4.602390 11.777706 159.896347
7.040000 0.800000 3.120000 -1.485505 10.834454 119.592110
7.040000 0.800000 3.160000 -1.161770 16.735283 281.419403
7.040000 0.800000 3.200000 -9.487864 22.780005 608.948120
7.040000 0.840000 2.800000 -15.794623 -9.609636 341.815247
7.040000 0.840000 2.840000 -17.022606 -12.951694 457.515503
7.040000 0.840000 2.880000 -16.817024 -21.117294 728.752441
7.040000 0.840000 2.920000 -9.160801 -30.926052 1040.340942
7.040000 0.840000 2.960000 6.279808 -34.444336 1225.848267
7.040000 0.840000 3.000000 22.446831 -26.202217 1190.416382
7.040000 0.840000 3.040000 30.057034 -8.413315 974.209167
7.040000 0.840000 3.080000 24.610617 10.341484 712.628723
7.040000 0.840000 3.120000 9.231599 21.229500 535.914062
7.040000 0.840000 3.160000 -8.229792 20.623211 493.046295
7.040000 0.840000 3.200000 -20.587500 11.085966 546.743774
7.040000 0.880000 2.800000 -19.160969 -21.985239 850.493469
7.040000 0.880000 2.840000 -30.391960 -36.000370 2219.697754
7.040000 0.880000 2.880000 -25.812622 -66.276344 5058.845215
7.040000 0.880000 2.920000 7.549026 -91.399231 8410.807617
7.040000 0.880000 2.960000 57.217316 -85.684410 10615.639648
7.040000 0.880000 3.000000 92.268616 -44.073692 10455.987305
7.040000 0.880000 3.040000 89.094246 10.502525 8048.087891
7.040000 0.880000 3.080000 51.695347 45.241692 4719.219727
7.040000 0.880000 3.120000 7.440725 44.104649 2000.584351
7.040000 0.880000 3.160000 -16.843311 18.370750 621.181641
7.040000 0.880000 3.200000 -15.449826 -7.098648 289.087921
7.040000 0.920000 2.800000 -9.702100 -38.924538 1609.250366
7.040000 0.920000 2.840000 -16.867205 -71.598167 5410.799805
7.040000 0.920000 2.880000 14.878273 -114.813934 13403.602539
7.040000 0.920000 2.920000 85.601944 -125.284348 23023.861328
7.040000 0.920000 2.960000 154.156921 -75.944969 29531.994141
7.040000 0.920000 3.000000 170.482483 13.373947 29243.140625
7.040000 0.920000 3.040000 120.522728 88.029472 22274.916016
7.040000 0.920000 3.080000 40.058750 104.151489 12452.235352
7.040000 0.920000 3.120000 -16.532415 64.647934 4452.676270
7.040000 0.920000 3.160000 -22.413006 12.042051 647.353821
7.040000 0.920000 3.200000 4.298876 -12.771263 181.585495
7.040000 0.960000 2.800000 14.352403 -45.852280 2308.423096
7.040000 0.960000 2.840000 27.519989 -89.065323 8689.981445
7.040000 0.960000 2.880000 92.733704 -117.669312 22445.605469
7.040000 0.960000 2.920000 180.322815 -82.312653 39291.691406
7.040000 0.960000 2.960000 224.892090 19.616459 50961.257812
7.040000 0.960000 3.000000 183.226776 131.205978 50787.058594
7.040000 0.960000 3.040000 77.223396 180.925400 38697.453125
7.040000 0.960000 3.080000 -22.126770 144.387115 21337.232422
7.040000 0.960000 3.120000 -55.912434 63.498444 7158.252441
7.040000 0.960000 3.160000 -25.026180 5.258633 653.962891
7.040000 0.960000 3.200000 19.787725 1.792002 394.765350
7.040000 1.000000 2.800000 39.799572 -31.697933 2588.764893
7.040000 1.000000 2.840000 76.485245 -66.210129 10233.773438
7.040000 1.000000 2.880000 155.179596 -56.637688 27288.535156
7.040000 1.000000 2.920000 218.692398 27.422438 48578.351562
7.040000 1.000000 2.960000 202.573105 150.629120 63724.992188
7.040000 1.000000 3.000000 98.351295 233.247253 64077.257812
7.040000 1.000000 3.040000 -31.297386 219.534180 49174.785156
7.040000 1.000000 3.080000 -104.251961 127.847992 27213.582031
7.040000 1.000000 3.120000 -89.203583 32.976952 9044.758789
7.040000 1.000000 3.160000 -27.084999 -1.946178 737.384766
7.040000 1.000000 3.200000 14.424908 22.803579 728.081177
7.040000 1.040000 2.800000 48.043404 -1.589455 2310.695068
7.040000 1.040000 2.840000 94.605461 -13.006105 9119.352539
7.040000 1.040000 2.880000 154.835144 33.429100 25091.425781
7.040000 1.040000 2.920000 165.454376 134.691055 45516.828125
7.040000 1.040000 2.960000 90.128403 228.950806 60541.601562
7.040000 1.040000 3.000000 -38.265472 245.359024 61665.296875
7.040000 1.040000 3.040000 -139.503296 168.956436 48007.445312
7.040000 1.040000 3.080000 -154.591019 56.382214 27077.335938
7.040000 1.040000 3.120000 -95.379517 -14.543415 9308.762695
7.040000 1.040000 3.160000 -27.768867 -12.383986 924.473083
7.040000 1.040000 3.200000 -7.459332 28.110067 845.817505
7.040000 1.080000 2.800000 32.069733 25.084703 1657.710205
7.040000 1.080000 2.840000 69.602753 34.838799 6058.285156
7.040000 1.080000 2.880000 92.993896 92.874924 17273.617188
7.040000 1.080000 2.920000 57.056084 169.853729 32105.685547
7.040000 1.080000 2.960000 -38.230167 205.078461 43518.722656
7.040000 1.080000 3.000000 -138.593750 161.188904 45190.089844
7.040000 1.080000 3.040000 -179.560806 61.765198 36057.023438
7.040000 1.080000 3.080000 -142.839355 -27.063526 21135.515625
7.040000 1.080000 3.120000 -70.182053 -54.415443 7886.561035
7.040000 1.080000 3.160000 -22.136889 -25.813007 1156.353149
7.040000 1.080000 3.200000 -23.658096 10.433990 668.573669
7.040000 1.120000 2.800000 3.937749 31.033030 978.554810
7.040000 1.120000 2.840000 23.483250 47.402897 2798.497559
7.040000 1.120000 2.880000 17.830700 89.375504 8305.914062
7.040000 1.120000 2.920000 -30.950264 122.603806 15989.612305
7.040000 1.120000 2.960000 -101.512627 109.555664 22307.257812
7.040000 1.120000 3.000000 -147.499390 46.363403 23905.634766
7.040000 1.120000 3.040000 -137.877579 -30.149906 19919.244141
7.040000 1.120000 3.080000 -84.372200 -73.660698 12544.566406
7.040000 1.120000 3.120000 -29.338867 -67.744743 5450.119141
7.040000 1.120000 3.160000 -7.004996 -35.772739 1328.758789
7.040000 1.120000 3.200000 -16.449749 -14.166794 471.292297
7.040000 1.160000 2.800000 -15.645459 16.384865 513.244202
7.040000 1.160000 2.840000 -8.766882 26.099243 758.028687
7.040000 1.160000 2.880000 -20.381031 42.819778 2248.919922
7.040000 1.160000 2.920000 -50.497871 45.090919 4583.226074
7.040000 1.160000 2.960000 -79.546799 20.372765 6742.742676
7.040000 1.160000 3.000000 -84.980453 -21.781868 7696.126953
7.040000 1.160000 3.040000 -61.309570 -57.154758 7025.530273
7.040000 1.160000 3.080000 -24.255222 -67.500702 5144.660645
7.040000 1.160000 3.120000 3.994587 -54.392673 2974.519775
7.040000 1.160000 3.160000 13.062365 -34.305824 1347.514893
7.040000 1.160000 3.200000 9.139040 -22.087769 571.391541
7.040000 1.200000 2.800000 -16.059437 -2.371143 263.527832
7.040000 1.200000 2.840000 -11.107395 -1.748125 126.430168
7.040000 1.200000 2.880000 -11.781319 0.509541 139.059097
7.040000 1.200000 2.920000 -16.377289 -1.149628 269.537231
7.040000 1.200000 2.960000 -19.879416 -8.415886 466.018311
7.040000 1.200000 3.000000 -18.228729 -18.781090 685.015869
7.040000 1.200000 3.040000 -10.377831 -28.126299 898.788025
7.040000 1.200000 3.080000 2.227451 -32.833385 1082.992798
7.040000 1.200000 3.120000 16.440903 -30.414562 1195.348877
7.040000 1.200000 3.160000 27.522913 -20.326580 1170.680664
7.040000 1.200000 3.200000 30.398394 -5.708143 956.645203
7.080000 0.800000 2.800000 -22.036472 1.769668 488.737823
7.080000 0.800000 2.840000 -16.099991 -9.985378 358.917480
7.080000 0.800000 2.880000 -1.589367 -14.126080 202.072220
7.080000 0.800000 2.920000 11.879639 -5.303186 169.249603
7.080000 0.800000 2.960000 13.730076 10.819616 305.579071
7.080000 0.800000 3.000000 3.002106 21.887030 488.054688
7.080000 0.800000 3.040000 -10.445778 20.685032 536.984802
7.080000 0.800000 3.080000 -15.991428 11.896338 397.248627
7.080000 0.800000 3.120000 -12.953334 6.317520 207.699921
7.080000 0.800000 3.160000 -10.302967 8.744434 182.616272
7.080000 0.800000 3.200000 -15.794239 12.879488 415.339203
7.080000 0.840000 2.800000 -25.690445 -17.019255 949.653992
7.080000 0.840000 2.840000 -19.534472 -28.960011 1220.277832
7.080000 0.840000 2.880000 -4.264378 -36.672253 1363.039062
7.080000 0.840000 2.920000 14.703796 -32.606815 1279.406006
7.080000 0.840000 2.960000 27.007561 -16.703358 1008.410522
7.080000 0.840000 3.000000 26.068291 2.615082 686.394409
7.080000 0.840000 3.040000 14.269711 15.420174 441.406433
7.080000 0.840000 3.080000 -0.263441 17.859673 319.037292
7.080000 0.840000 3.120000 -11.103548 13.086544 294.546417
7.080000 0.840000 3.160000 -17.314203 5.921844 334.849884
7.080000 0.840000 3.200000 -20.776861 -1.951263 435.485382
7.080000 0.880000 2.800000 -12.065443 -38.083309 1595.913330
7.080000 0.880000 2.840000 -3.914358 -52.922493 2816.112549
7.080000 0.880000 2.880000 20.082329 -64.091286 4510.992676
7.080000 0.880000 2.920000 53.340454 -55.553658 5931.413086
7.080000 0.880000 2.960000 76.013062 -23.148937 6313.858398
7.080000 0.880000 3.000000 71.332123 18.230927 5420.638672
7.080000 0.880000 3.040000 40.875519 45.132027 3707.707764
7.080000 0.880000 3.080000 3.928963 44.330791 1980.655884
7.080000 0.880000 3.120000 -18.423069 22.418087 841.980103
7.080000 0.880000 3.160000 -19.328239 -2.011464 377.626831
7.080000 0.880000 3.200000 -8.112650 -14.927898 288.657227
7.080000 0.920000 2.800000 17.317001 -44.703896 2298.316895
7.080000 0.920000 2.840000 32.087677 -61.378235 4796.906738
7.080000 0.920000 2.880000 69.965424 -66.190346 9276.322266
7.080000 0.920000 2.920000 112.764328 -36.697018 14062.464844
7.080000 0.920000 2.960000 126.887741 23.479935 16651.806641
7.080000 0.920000 3.000000 94.120567 81.332870 15473.716797
7.080000 0.920000 3.040000 31.340435 100.516785 11085.846680
7.080000 0.920000 3.080000 -21.659210 72.841782 5775.046875
7.080000 0.920000 3.120000 -35.681030 24.696178 1883.037109
7.080000 0.920000 3.160000 -15.015974 -7.649682 283.997101
7.080000 0.920000 3.200000 11.272697 -9.389454 215.235550
7.080000 0.960000 2.800000 45.884518 -26.729193 2819.838623
7.080000 0.960000 2.840000 69.382477 -39.209480 6351.311523
7.080000 0.960000 2.880000 114.625702 -25.091364 13768.627930
7.080000 0.960000 2.920000 146.730347 32.479733 22584.728516
7.080000 0.960000 2.960000 127.463898 109.571289 28252.912109
7.080000 0.960000 3.000000 54.868477 155.918640 27321.171875
7.080000 0.960000 3.040000 -28.589418 138.874390 20103.451172
7.080000 0.960000 3.080000 -70.731903 74.205612 10509.474609
7.080000 0.960000 3.120000 -54.749149 12.330158 3149.501953
7.080000 0.960000 3.160000 -10.843840 -7.119578 168.277252
7.080000 0.960000 3.200000 15.890570 12.131649 399.687134
7.080000 1.000000 2.800000 53.513229 8.065792 2928.722656
7.080000 1.000000 2.840000 81.521812 6.177935 6683.972656
7.080000 1.000000 2.880000 117.797379 42.314041 15666.701172
7.080000 1.000000 2.920000 118.217957 114.600082 27108.664062
7.080000 1.000000 2.960000 57.757233 178.431503 35173.699219
7.080000 1.000000 3.000000 -37.815521 183.130402 34966.757812
7.080000 1.000000 3.040000 -108.624252 120.447212 26306.759766
7.080000 1.000000 3.080000 -112.803329 35.439980 13980.583008
7.080000 1.000000 3.120000 -63.336834 -13.295618 4188.328125
7.080000 1.000000 3.160000 -12.902418 -5.482227 196.527222
7.080000 1.000000 3.200000 -2.654842 27.753149 777.285522
7.080000 1.040000 2.800000 33.741707 37.574444 2550.341797
7.080000 1.040000 2.840000 57.979019 47.216270 5590.942871
7.080000 1.040000 2.880000 71.384621 93.856705 13904.845703
7.080000 1.040000 2.920000 36.807552 154.118362 25107.265625
7.080000 1.040000 2.960000 -45.072166 177.562607 33559.980469
7.080000 1.040000 3.000000 -127.275665 134.121552 34187.683594
7.080000 1.040000 3.040000 -155.417023 46.852367 26349.595703
7.080000 1.040000 3.080000 -117.378517 -25.593231 14432.729492
7.080000 1.040000 3.120000 -53.759102 -41.401749 4604.145508
7.080000 1.040000 3.160000 -18.258745 -11.127982 457.213745
7.080000 1.040000 3.200000 -28.106749 18.230717 1122.348389
7.080000 1.080000 2.800000 0.704527 42.780991 1830.709473
7.080000 1.080000 2.840000 15.053423 58.383224 3635.206299
7.080000 1.080000 2.880000 5.327049 97.259445 9487.777344
7.080000 1.080000 2.920000 -45.669571 125.422577 17816.533203
7.080000 1.080000 2.960000 -115.039078 106.165230 24505.044922
7.080000 1.080000 3.000000 -155.382263 38.521286 25627.537109
7.080000 1.080000 3.040000 -137.917328 -36.865055 20380.222656
7.080000 1.080000 3.080000 -80.037781 -73.015213 11737.267578
7.080000 1.080000 3.120000 -28.770027 -58.611717 4263.047852
7.080000 1.080000 3.160000 -16.580662 -24.872322 893.550720
7.080000 1.080000 3.200000 -34.139404 -11.619839 1300.519531
7.080000 1.120000 2.800000 -22.029448 23.790165 1051.268555
7.080000 1.120000 2.840000 -17.563036 37.869026 1742.523315
7.080000 1.120000 2.880000 -37.501091 57.550056 4718.340820
7.080000 1.120000 2.920000 -78.860626 54.766853 9218.406250
7.080000 1.120000 2.960000 -113.195297 16.207123 13075.846680
7.080000 1.120000 3.000000 -111.835114 -40.254391 14127.508789
7.080000 1.120000 3.040000 -73.511909 -79.744003 11763.107422
7.080000 1.120000 3.080000 -26.002167 -81.860748 7377.294922
7.080000 1.120000 3.120000 0.085287 -57.791866 3339.907227
7.080000 1.120000 3.160000 -1.442043 -36.524368 1336.108887
7.080000 1.120000 3.200000 -11.043504 -35.586472 1388.355957
7.080000 1.160000 2.800000 -21.423820 -0.733337 459.517853
7.080000 1.160000 2.840000 -22.432297 7.607315 561.079163
7.080000 1.160000 2.880000 -37.564857 10.171474 1514.577393
7.080000 1.160000 2.920000 -55.092865 -4.987782 3060.101807
7.080000 1.160000 2.960000 -57.746483 -33.789898 4476.413574
7.080000 1.160000 3.000000 -39.409042 -59.076355 5043.088379
7.080000 1.160000 3.040000 -10.727562 -66.449341 4530.595703
7.080000 1.160000 3.080000 11.635479 -56.641869 3343.685547
7.080000 1.160000 3.120000 20.238604 -42.277420 2196.981445
7.080000 1.160000 3.160000 20.971657 -33.981331 1594.541260
7.080000 1.160000 3.200000 23.473667 -31.207449 1524.917969
7.080000 1.200000 2.800000 -5.321467 -10.787658 144.691574
7.080000 1.200000 2.840000 -7.483334 -8.263645 124.288116
7.080000 1.200000 2.880000 -11.214064 -12.450439 280.768677
7.080000 1.200000 2.920000 -9.485601 -20.905865 527.031799
7.080000 1.200000 2.960000 -1.518017 -26.804810 720.802185
7.080000 1.200000 3.000000 7.465424 -26.990700 784.230408
7.080000 1.200000 3.040000 13.398113 -24.641296 786.702942
7.080000 1.200000 3.080000 18.184605 -23.718729 893.257935
7.080000 1.200000 3.120000 26.029636 -22.660461 1191.038574
7.080000 1.200000 3.160000 36.041771 -15.853155 1550.331787
7.080000 1.200000 3.200000 41.005547 -1.676937 1684.266968
7.120000 0.800000 2.800000 -35.613739 -4.796779 1291.347412
7.120000 0.800000 2.840000 -25.457279 -22.227104 1142.117188
7.120000 0.800000 2.880000 -3.044010 -26.359369 704.082336
7.120000 0.800000 2.920000 15.100061 -11.117980 351.621338
7.120000 0.800000 2.960000 14.266022 12.074504 349.313019
7.120000 0.800000 3.000000 -3.672228 24.357307 606.763672
7.120000 0.800000 3.040000 -21.997181 17.540970 791.561646
7.120000 0.800000 3.080000 -25.869175 1.328087 670.978027
7.120000 0.800000 3.120000 -16.447144 -7.810013 331.504852
7.120000 0.800000 3.160000 -7.776381 -3.886578 75.577591
7.120000 0.800000 3.200000 -10.539551 3.590289 123.972305
7.120000 0.840000 2.800000 -24.884459 -31.162514 1590.338501
7.120000 0.840000 2.840000 -7.256901 -41.761833 1796.713257
7.120000 0.840000 2.880000 16.492661 -36.775402 1624.437988
7.120000 0.840000 2.920000 30.953737 -15.280558 1191.629272
7.120000 0.840000 2.960000 25.874632 9.740402 764.372009
7.120000 0.840000 3.000000 5.984202 22.173706 527.483948
7.120000 0.840000 3.040000 -13.424206 16.832870 463.554810
7.120000 0.840000 3.080000 -20.595814 2.623617 431.070892
7.120000 0.840000 3.120000 -16.667141 -7.719006 337.376617
7.120000 0.840000 3.160000 -11.384120 -9.964389 228.887238
7.120000 0.840000 3.200000 -11.113805 -10.127543 226.083801
7.120000 0.880000 2.800000 6.393412 -43.254353 1911.814697
7.120000 0.880000 2.840000 25.285801 -43.995815 2575.003418
7.120000 0.880000 2.880000 45.927135 -30.790859 3057.378906
7.120000 0.880000 2.920000 55.336910 -3.850149 3076.997314
7.120000 0.880000 2.960000 44.517464 24.640495 2588.958496
7.120000 0.880000 3.000000 17.762484 38.750389 1817.098511
7.120000 0.880000 3.040000 -9.429361 31.630989 1089.432373
7.120000 0.880000 3.080000 -22.436432 10.856619 621.259644
7.120000 0.880000 3.120000 -18.428692 -8.701762 415.337341
7.120000 0.880000 3.160000 -6.277872 -17.295950 338.561554
7.120000 0.880000 3.200000 3.272800 -16.376701 278.907562
7.120000 0.920000 2.800000 40.110474 -27.108849 2343.739746
7.120000 0.920000 2.840000 54.034882 -20.105701 3324.007568
7.120000 0.920000 2.880000 68.474434 -1.037661 4689.824707
7.120000 0.920000 2.920000 69.751282 30.688528 5807.026855
7.120000 0.920000 2.960000 47.593918 60.901512 5974.174805
7.120000 0.920000 3.000000 8.384851 69.924103 4959.686035
7.120000 0.920000 3.040000 -26.245800 50.239994 3212.898926
7.120000 0.920000 3.080000 -36.346207 15.057267 1547.768066
7.120000 0.920000 3.120000 -20.516529 -11.892290 562.354553
7.120000 0.920000 3.160000 3.752206 -16.342003 281.140106
7.120000 0.920000 3.200000 16.713470 -4.216887 297.122223
7.120000 0.960000 2.800000 52.073009 10.719019 2826.495850
7.120000 0.960000 2.840000 58.422951 20.115604 3817.878662
7.120000 0.960000 2.880000 64.658363 41.919037 5937.909668
7.120000 0.960000 2.920000 53.592793 74.432800 8412.429688
7.120000 0.960000 2.960000 16.584377 97.446869 9770.934570
7.120000 0.960000 3.000000 -31.609600 89.197845 8955.422852
7.120000 0.960000 3.040000 -61.391441 49.454517 6214.658203
7.120000 0.960000 3.080000 -54.414917 3.861591 2975.895020
7.120000 0.960000 3.120000 -21.377642 -17.444084 761.299683
7.120000 0.960000 3.160000 7.564333 -6.726269 102.461823
7.120000 0.960000 3.200000 11.031921 15.877507 373.798523
7.120000 1.000000 2.800000 32.207638 45.624161 3118.895996
7.120000 1.000000 2.840000 32.771130 52.702236 3851.472656
7.120000 1.000000 2.880000 30.060909 73.246170 6268.659668
7.120000 1.000000 2.920000 5.811032 98.257874 9688.377930
7.120000 1.000000 2.960000 -40.175163 102.597382 12140.266602
7.120000 1.000000 3.000000 -82.491394 70.814362 11819.503906
7.120000 1.000000 3.040000 -91.087662 17.401842 8599.786133
7.120000 1.000000 3.080000 -61.044483 -22.453094 4230.570312
7.120000 1.000000 3.120000 -19.454887 -24.815056 994.279663
7.120000 1.000000 3.160000 -0.370621 0.557116 0.447737
7.120000 1.000000 3.200000 -12.561810 20.977814 597.867737
7.120000 1.040000 2.800000 -5.625799 54.039108 2951.875000
7.120000 1.040000 2.840000 -7.159324 57.509956 3358.650879
7.120000 1.040000 2.880000 -17.413280 72.375053 5541.370605
7.120000 1.040000 2.920000 -48.550949 81.673103 9027.690430
7.120000 1.040000 2.960000 -88.623398 63.279236 11858.368164
7.120000 1.040000 3.000000 -108.344040 16.398407 12007.338867
7.120000 1.040000 3.040000 -89.700661 -31.860338 9061.290039
7.120000 1.040000 3.080000 -46.484009 -49.952721 4656.037598
7.120000 1.040000 3.120000 -13.147240 -32.463200 1226.709229
7.120000 1.040000 3.160000 -11.825479 -5.413066 169.143234
7.120000 1.040000 3.200000 -31.438824 0.328998 988.507874
7.120000 1.080000 2.800000 -34.285572 32.942520 2260.709961
7.120000 1.080000 2.840000 -35.812649 34.493690 2472.360352
7.120000 1.080000 2.880000 -49.669800 40.432926 4101.910645
7.120000 1.080000 2.920000 -76.170792 32.326561 6846.996094
7.120000 1.080000 2.960000 -95.939651 0.242329 9204.475586
7.120000 1.080000 3.000000 -88.080269 -42.182396 9537.488281
7.120000 1.080000 3.040000 -53.309174 -67.656898 7419.324219
7.120000 1.080000 3.080000 -16.122532 -61.614769 4056.315674
7.120000 1.080000 3.120000 -1.832698 -37.250931 1390.990601
7.120000 1.080000 3.160000 -11.840136 -22.289833 637.025513
7.120000 1.080000 3.200000 -23.407310 -30.676750 1488.965088
7.120000 1.120000 2.800000 -35.833183 1.965809 1287.881348
7.120000 1.120000 2.840000 -38.245377 3.207848 1472.999146
7.120000 1.120000 2.880000 -50.406525 -0.213070 2540.863037
7.120000 1.120000 2.920000 -62.485538 -18.533804 4247.944336
7.120000 1.120000 2.960000 -58.776577 -47.126091 5675.554688
7.120000 1.120000 3.000000 -34.916161 -68.269867 5879.913086
7.120000 1.120000 3.040000 -4.521368 -68.123444 4661.246582
7.120000 1.120000 3.080000 13.182114 -51.065323 2781.435303
7.120000 1.120000 3.120000 12.292997 -35.431904 1406.537598
7.120000 1.120000 3.160000 5.475931 -34.617805 1228.378296
7.120000 1.120000 3.200000 9.681583 -43.539467 1989.418213
7.120000 1.160000 2.800000 -15.811950 -14.164183 450.641846
7.120000 1.160000 2.840000 -21.005573 -14.425211 649.320801
7.120000 1.160000 2.880000 -26.925045 -24.535931 1326.969971
7.120000 1.160000 2.920000 -22.759373 -41.361267 2228.743408
7.120000 1.160000 2.960000 -5.787891 -52.985584 2840.971924
7.120000 1.160000 3.000000 14.649492 -50.672882 2782.348633
7.120000 1.160000 3.040000 26.271070 -38.069099 2139.425537
7.120000 1.160000 3.080000 26.363953 -27.249075 1437.570068
7.120000 1.160000 3.120000 23.971828 -25.697655 1235.018066
7.120000 1.160000 3.160000 29.269600 -28.499140 1668.910400
7.120000 1.160000 3.200000 41.837311 -24.342922 2342.938477
7.120000 1.200000 2.800000 3.593809 -6.936344 61.028336
7.120000 1.200000 2.840000 -3.744616 -12.192487 162.678879
7.120000 1.200000 2.880000 -1.247343 -24.440655 598.901428
7.120000 1.200000 2.920000 12.771074 -30.953417 1121.214355
7.120000 1.200000 2.960000 27.562695 -24.300995 1350.240479
7.120000 1.200000 3.000000 31.638058 -10.726650 1116.027710
7.120000 1.200000 3.040000 25.572163 -3.154690 663.887573
7.120000 1.200000 3.080000 21.246784 -6.432112 492.797913
7.120000 1.200000 3.120000 28.034754 -11.552669 919.411621
7.120000 1.200000 3.160000 41.424522 -5.809318 1749.739258
7.120000 1.200000 3.200000 47.313675 12.352009 2391.155762
7.160000 0.800000 2.800000 -38.457355 -21.193716 1928.141724
7.160000 0.800000 2.840000 -19.849672 -38.006821 1838.527954
7.160000 0.800000 2.880000 7.917921 -34.034645 1221.050537
7.160000 0.800000 2.920000 22.729460 -9.255613 602.294739
7.160000 0.800000 2.960000 12.306576 16.664829 429.168335
7.160000 0.800000 3.000000 -13.016042 22.512522 676.230957
7.160000 0.800000 3.040000 -30.009762 5.954338 936.039978
7.160000 0.800000 3.080000 -25.180714 -14.955520 857.735962
7.160000 0.800000 3.120000 -6.956077 -20.566149 471.353455
7.160000 0.800000 3.160000 4.680527 -8.937813 101.791824
7.160000 0.800000 3.200000 -0.572989 4.136233 17.436745
7.160000 0.840000 2.800000 -12.953366 -40.263794 1788.962769
7.160000 0.840000 2.840000 10.227027 -41.085911 1792.644165
7.160000 0.840000 2.880000 29.205050 -22.288601 1349.716675
7.160000 0.840000 2.920000 28.009916 5.912527 819.513428
7.160000 0.840000 2.960000 6.152439 23.295321 580.524414
7.160000 0.840000 3.000000 -19.526873 17.768139 697.005493
7.160000 0.840000 3.040000 -29.841934 -3.578663 903.347839
7.160000 0.840000 3.080000 -20.402533 -21.791912 891.150757
7.160000 0.840000 3.120000 -3.859261 -24.176739 599.408630
7.160000 0.840000 3.160000 4.202697 -14.822788 237.377716
7.160000 0.840000 3.200000 0.548567 -7.699092 59.576942
7.160000 0.880000 2.800000 22.202534 -32.917652 1576.524292
7.160000 0.880000 2.840000 35.886951 -19.005476 1649.081421
7.160000 0.880000 2.880000 37.777409 3.754717 1441.230469
7.160000 0.880000 2.920000 22.852768 23.537731 1076.273804
7.160000 0.880000 2.960000 -2.067058 27.706577 771.927124
7.160000 0.880000 3.000000 -21.992653 13.534412 666.857117
7.160000 0.880000 3.040000 -25.342297 -8.828154 720.168274
7.160000 0.880000 3.080000 -12.989820 -24.507717 769.363647
7.160000 0.880000 3.120000 3.579919 -25.899452 683.597412
7.160000 0.880000 3.160000 12.949945 -17.408945 470.772461
7.160000 0.880000 3.200000 12.966442 -9.291722 254.464722
7.160000 0.920000 2.800000 41.392818 0.946297 1714.260986
7.160000 0.920000 2.840000 37.484978 17.474144 1710.469238
7.160000 0.920000 2.880000 25.064245 30.959560 1586.710693
7.160000 0.920000 2.920000 6.000564 36.277710 1352.078979
7.160000 0.920000 2.960000 -13.827315 29.342783 1052.193604
7.160000 0.920000 3.000000 -25.554562 11.158680 777.551758
7.160000 0.920000 3.040000 -22.644772 -10.147676 615.761047
7.160000 0.920000 3.080000 -6.753830 -23.177412 582.806641
7.160000 0.920000 3.120000 11.963518 -21.400856 601.122437
7.160000 0.920000 3.160000 21.998253 -8.573388 557.426086
7.160000 0.920000 3.200000 19.539936 4.262112 399.974701
7.160000 0.960000 2.800000 28.096577 39.310226 2334.711426
7.160000 0.960000 2.840000 10.995873 44.726830 2121.398438
7.160000 0.960000 2.880000 -4.572553 42.816551 1854.165283
7.160000 0.960000 2.920000 -18.067770 36.132225 1631.982056
7.160000 0.960000 2.960000 -28.983936 23.712738 1402.362549
7.160000 0.960000 3.000000 -32.551331 5.208391 1086.716431
7.160000 0.960000 3.040000 -23.345379 -13.239161 720.282104
7.160000 0.960000 3.080000 -3.548624 -20.782043 444.486084
7.160000 0.960000 3.120000 14.831373 -11.807392 359.384155
7.160000 0.960000 3.160000 19.037304 6.417252 403.600067
7.160000 0.960000 3.200000 7.912797 18.474384 403.915253
7.160000 1.000000 2.800000 -9.605711 54.656059 3079.554688
7.160000 1.000000 2.840000 -27.060278 44.290661 2693.921387
7.160000 1.000000 2.880000 -35.228245 31.092644 2207.781738
7.160000 1.000000 2.920000 -39.104774 19.479309 1908.626831
7.160000 1.000000 2.960000 -41.263947 6.471244 1744.590210
7.160000 1.000000 3.000000 -37.085648 -9.566852 1466.869873
7.160000 1.000000 3.040000 -22.066074 -21.785324 961.511963
7.160000 1.000000 3.080000 -1.768313 -20.159588 409.535919
7.160000 1.000000 3.120000 9.628149 -4.191272 110.268013
7.160000 1.000000 3.160000 3.168928 12.616836 169.226639
7.160000 1.000000 3.200000 -13.592728 14.331193 390.145325
7.160000 1.040000 2.800000 -44.435322 36.939381 3339.015625
7.160000 1.040000 2.840000 -51.950005 17.655357 3010.514648
7.160000 1.040000 2.880000 -49.922340 2.129827 2496.776123
7.160000 1.040000 2.920000 -45.722290 -8.748013 2167.055664
7.160000 1.040000 2.960000 -40.408157 -19.450386 2011.136719
7.160000 1.040000 3.000000 -29.319458 -29.576963 1734.427368
7.160000 1.040000 3.040000 -12.109201 -31.687477 1150.729004
7.160000 1.040000 3.080000 1.852587 -21.014240 445.030365
7.160000 1.040000 3.120000 1.666653 -4.948771 27.268061
7.160000 1.040000 3.160000 -11.517342 1.237591 134.180786
7.160000 1.040000 3.200000 -22.299803 -9.785866 593.044373
7.160000 1.080000 2.800000 -52.491783 2.078577 2759.707764
7.160000 1.080000 2.840000 -50.061890 -15.405483 2743.521729
7.160000 1.080000 2.880000 -42.132751 -27.598843 2536.864746
7.160000 1.080000 2.920000 -32.694733 -35.963463 2362.316162
7.160000 1.080000 2.960000 -20.904903 -41.853447 2188.726074
7.160000 1.080000 3.000000 -6.179116 -42.110085 1811.440796
7.160000 1.080000 3.040000 6.246826 -33.422726 1156.101440
7.160000 1.080000 3.080000 8.476959 -19.892143 467.556213
7.160000 1.080000 3.120000 -0.218301 -12.666506 160.488022
7.160000 1.080000 3.160000 -9.069836 -19.218172 451.600037
7.160000 1.080000 3.200000 -4.570004 -33.333237 1131.989502
7.160000 1.120000 2.800000 -32.916840 -22.204475 1576.557007
7.160000 1.120000 2.840000 -28.426434 -33.462624 1927.809326
7.160000 1.120000 2.880000 -19.356846 -43.165131 2237.916016
7.160000 1.120000 2.920000 -5.509406 -48.843811 2416.071289
7.160000 1.120000 2.960000 10.626446 -46.625999 2286.905273
7.160000 1.120000 3.000000 22.417793 -35.435638 1758.241943
7.160000 1.120000 3.040000 23.527014 -21.086330 998.153687
7.160000 1.120000 3.080000 15.122381 -13.697390 416.304901
7.160000 1.120000 3.120000 7.429325 -18.606903 401.411682
7.160000 1.120000 3.160000 11.560352 -29.557774 1007.303711
7.160000 1.120000 3.200000 28.310116 -32.638721 1866.748779
7.160000 1.160000 2.800000 -6.911396 -20.363773 462.450653
7.160000 1.160000 2.840000 -6.599266 -30.142664 952.130493
7.160000 1.160000 2.880000 3.749659 -40.735287 1673.423462
7.160000 1.160000 2.920000 22.217558 -41.906609 2249.783691
7.160000 1.160000 2.960000 37.694340 -29.224583 2274.939453
7.160000 1.160000 3.000000 39.419422 -10.361401 1661.249512
7.160000 1.160000 3.040000 28.146690 0.563255 792.553467
7.160000 1.160000 3.080000 16.830486 -3.569418 296.006012
7.160000 1.160000 3.120000 18.717010 -15.126268 579.130493
7.160000 1.160000 3.160000 34.098827 -18.370846 1500.218018
7.160000 1.160000 3.200000 49.358727 -4.631394 2457.733643
7.160000 1.200000 2.800000 2.462971 -0.955489 6.979185
7.160000 1.200000 2.840000 0.877600 -16.520041 273.681915
7.160000 1.200000 2.880000 16.378733 -27.842133 1043.447266
7.160000 1.200000 2.920000 37.404575 -21.124754 1845.357544
7.160000 1.200000 2.960000 45.521492 0.300418 2072.296631
7.160000 1.200000 3.000000 34.373852 18.336372 1517.784180
7.160000 1.200000 3.040000 16.768650 18.481777 622.763672
7.160000 1.200000 3.080000 11.597587 5.017553 159.679855
7.160000 1.200000 3.120000 24.052668 -3.394293 590.052063
7.160000 1.200000 3.160000 40.156097 6.693108 1657.309937
7.160000 1.200000 3.200000 41.404640 29.516785 2585.584961
7.200000 0.800000 2.800000 -28.042231 -34.702438 1990.625977
7.200000 0.800000 2.840000 -4.161105 -44.060539 1958.645996
7.200000 0.800000 2.880000 20.696659 -30.050711 1331.396973
7.200000 0.800000 2.920000 25.342695 -1.186731 643.660522
7.200000 0.800000 2.960000 5.671462 18.933800 390.654236
7.200000 0.800000 3.000000 -20.012039 14.011345 596.799500
7.200000 0.800000 3.040000 -28.218361 -8.867295 874.904785
7.200000 0.800000 3.080000 -13.031390 -26.325565 862.852539
7.200000 0.800000 3.120000 8.890358 -21.963041 561.413635
7.200000 0.800000 3.160000 15.934774 -1.899857 257.526489
7.200000 0.800000 3.200000 3.214332 12.949519 178.021973
7.200000 0.840000 2.800000 0.746620 -38.452644 1479.163330
7.200000 0.840000 2.840000 20.023184 -30.053959 1304.168335
7.200000 0.840000 2.880000 26.916012 -7.159635 775.732056
7.200000 0.840000 2.920000 12.820720 13.895145 357.445923
7.200000 0.840000 2.960000 -12.698099 15.755289 409.470856
7.200000 0.840000 3.000000 -29.067011 -3.293086 855.735535
7.200000 0.840000 3.040000 -23.337315 -26.868656 1266.554932
7.200000 0.840000 3.080000 -2.014168 -35.472328 1262.342896
7.200000 0.840000 3.120000 15.781827 -24.292664 839.199524
7.200000 0.840000 3.160000 16.793552 -6.244201 321.013458
7.200000 0.840000 3.200000 5.128291 2.105305 30.731672
7.200000 0.880000 2.800000 24.280621 -16.683655 867.892822
7.200000 0.880000 2.840000 25.154734 -0.326406 632.867188
7.200000 0.880000 2.880000 12.544096 13.599100 342.289856
7.200000 0.880000 2.920000 -7.978441 14.143514 263.694519
7.200000 0.880000 2.960000 -23.120979 -1.344684 536.387878
7.200000 0.880000 3.000000 -21.879427 -23.517155 1031.765869
7.200000 0.880000 3.040000 -4.805967 -37.535690 1432.025391
7.200000 0.880000 3.080000 16.124634 -34.780468 1469.684692
7.200000 0.880000 3.120000 27.373301 -19.376852 1124.760010
7.200000 0.880000 3.160000 24.577049 -3.706104 617.766602
7.200000 0.880000 3.200000 14.605081 2.646469 220.312180
7.200000 0.920000 2.800000 22.310539 17.780745 813.915039
7.200000 0.920000 2.840000 4.226921 24.118187 599.553833
7.200000 0.920000 2.880000 -14.214003 16.365332 469.861938
7.200000 0.920000 2.920000 -23.109091 -1.877518 537.555176
7.200000 0.920000 2.960000 -18.113068 -21.446508 788.035950
7.200000 0.920000 3.000000 -2.140777 -33.161652 1104.278076
7.200000 0.920000 3.040000 17.007698 -32.361328 1336.517334
7.200000 0.920000 3.080000 30.852074 -20.522272 1373.014160
7.200000 0.920000 3.120000 34.184364 -4.004320 1184.605347
7.200000 0.920000 3.160000 27.364422 9.299664 835.295349
7.200000 0.920000 3.200000 15.906279 14.163778 453.622314
7.200000 0.960000 2.800000 -6.835670 39.292397 1590.618896
7.200000 0.960000 2.840000 -29.590563 24.017788 1452.455566
7.200000 0.960000 2.880000 -35.397121 -2.482738 1259.120117
7.200000 0.960000 2.920000 -22.858524 -24.648674 1130.069336
7.200000 0.960000 2.960000 -1.531961 -32.851673 1081.579346
7.200000 0.960000 3.000000 17.628433 -27.587715 1071.843750
7.200000 0.960000 3.040000 29.100338 -14.745707 1064.265503
7.200000 0.960000 3.080000 32.165546 0.386876 1034.772095
7.200000 0.960000 3.120000 27.344202 14.131386 947.401428
7.200000 0.960000 3.160000 16.006516 22.444572 759.967346
7.200000 0.960000 3.200000 2.779981 21.627460 475.475342
7.200000 1.000000 2.800000 -42.608616 30.708668 2758.516357
7.200000 1.000000 2.840000 -52.488251 -1.872898 2758.524170
7.200000 1.000000 2.880000 -36.994324 -31.452316 2357.828125
7.200000 1.000000 2.920000 -8.107155 -41.699387 1804.564819
7.200000 1.000000 2.960000 16.514187 -32.142609 1305.865723
7.200000 1.000000 3.000000 27.616428 -13.703229 950.445618
7.200000 1.000000 3.040000 26.943447 3.327157 737.019287
7.200000 1.000000 3.080000 19.755150 15.341240 625.619568
7.200000 1.000000 3.120000 8.800205 21.949551 559.226379
7.200000 1.000000 3.160000 -3.943556 21.327284 470.404663
7.200000 1.000000 3.200000 -13.074606 12.152768 318.635101
7.200000 1.040000 2.800000 -58.725761 -1.295233 3450.392822
7.200000 1.040000 2.840000 -49.175079 -35.548969 3681.917725
7.200000 1.040000 2.880000 -18.922506 -53.284420 3197.290771
7.200000 1.040000 2.920000 12.610003 -46.471535 2318.615723
7.200000 1.040000 2.960000 29.262587 -24.204666 1442.164795
7.200000 1.040000 3.000000 28.396822 -1.566209 808.832520
7.200000 1.040000 3.040000 17.274494 12.426582 452.828094
7.200000 1.040000 3.080000 3.592213 16.836205 296.361786
7.200000 1.040000 3.120000 -8.510340 13.388342 251.673584
7.200000 1.040000 3.160000 -15.631891 3.419828 256.051239
7.200000 1.040000 3.200000 -13.415033 -9.307270 266.588379
7.200000 1.080000 2.800000 -45.470795 -31.724487 3074.036377
7.200000 1.080000 2.840000 -24.565825 -54.836868 3610.561768
7.200000 1.080000 2.880000 6.791590 -57.771427 3383.663574
7.200000 1.080000 2.920000 30.893551 -40.317650 2579.924316
7.200000 1.080000 2.960000 37.200684 -14.546149 1595.481323
7.200000 1.080000 3.000000 27.262383 5.771161 776.543762
7.200000 1.080000 3.040000 10.029801 13.418387 280.650024
7.200000 1.080000 3.080000 -5.156105 8.632761 101.109978
7.200000 1.080000 3.120000 -11.895915 -3.914845 156.838791
7.200000 1.080000 3.160000 -7.324854 -17.174479 348.616180
7.200000 1.080000 3.200000 6.668765 -22.938276 570.636902
7.200000 1.120000 2.800000 -17.299538 -39.067173 1825.518066
7.200000 1.120000 2.840000 2.016418 -51.061234 2611.315430
7.200000 1.120000 2.880000 26.558228 -47.162834 2929.672363
7.200000 1.120000 2.920000 43.121246 -27.908934 2638.350586
7.200000 1.120000 2.960000 43.131069 -3.413686 1871.942383
7.200000 1.120000 3.000000 28.019350 13.239437 960.366699
7.200000 1.120000 3.040000 8.087589 14.105120 264.363525
7.200000 1.120000 3.080000 -3.918417 1.105107 16.575254
7.200000 1.120000 3.120000 -0.662007 -15.209084 231.754471
7.200000 1.120000 3.160000 15.045603 -22.215816 719.912659
7.200000 1.120000 3.200000 31.800972 -13.491348 1193.318359
7.200000 1.160000 2.800000 1.201847 -23.259308 542.439880
7.200000 1.160000 2.840000 13.969105 -33.779133 1336.165649
7.200000 1.160000 2.880000 34.516956 -31.209740 2165.468262
7.200000 1.160000 2.920000 48.917351 -12.584425 2551.274902
7.200000 1.160000 2.960000 45.589008 11.694222 2215.112549
7.200000 1.160000 3.000000 26.219433 25.116268 1318.285645
7.200000 1.160000 3.040000 5.807695 19.002775 394.834778
7.200000 1.160000 3.080000 0.516980 0.706720 0.766722
7.200000 1.160000 3.120000 13.667063 -12.144429 334.275757
7.200000 1.160000 3.160000 32.717308 -6.763490 1116.166992
7.200000 1.160000 3.200000 40.229370 13.917336 1812.094482
7.200000 1.200000 2.800000 -2.575928 -3.539313 19.162144
7.200000 1.200000 2.840000 9.882856 -19.776619 488.785522
7.200000 1.200000 2.880000 33.460854 -18.233604 1452.093018
7.200000 1.200000 2.920000 47.743980 3.578480 2292.292969
7.200000 1.200000 2.960000 39.275154 28.974499 2382.059326
7.200000 1.200000 3.000000 15.305737 37.272400 1623.497314
7.200000 1.200000 3.040000 -2.608045 23.824402 574.403992
7.200000 1.200000 3.080000 0.541221 4.597794 21.432625
7.200000 1.200000 3.120000 18.790266 0.353123 353.198792
7.200000 1.200000 3.160000 31.651134 16.404839 1270.913086
7.200000 1.200000 3.200000 24.517071 38.264099 2065.228027
