#kx 	ky 	kz 	real 	imag 	intensity
4.800000 6.800000 4.800000 -2.018608 -22.466164 508.803284
4.800000 6.800000 4.840000 0.816166 -10.655495 114.205696
4.800000 6.800000 4.880000 -6.993057 -6.045751 85.453949
4.800000 6.800000 4.920000 -12.733730 -13.781246 352.070618
4.800000 6.800000 4.960000 -5.818027 -25.051397 661.421936
4.800000 6.800000 5.000000 11.094336 -26.126717 805.689636
4.800000 6.800000 5.040000 24.631962 -12.369366 759.734741
4.800000 6.800000 5.080000 23.991663 7.310182 629.038696
4.800000 6.800000 5.120000 10.904329 19.715891 507.620728
4.800000 6.800000 5.160000 -3.747395 19.911983 410.530060
4.800000 6.800000 5.200000 -11.823581 13.691549 327.255585
4.800000 6.840000 4.800000 7.303251 -22.175758 545.101746
4.800000 6.840000 4.840000 2.516368 -11.207377 131.937408
4.800000 6.840000 4.880000 -6.312139 -13.512870 222.440750
4.800000 6.840000 4.920000 -4.822271 -24.292130 613.361816
4.800000 6.840000 4.960000 9.049784 -28.819202 912.445007
4.800000 6.840000 5.000000 23.174332 -18.619617 883.739746
4.800000 6.840000 5.040000 24.478270 -0.378303 599.328796
4.800000 6.840000 5.080000 12.565468 11.662914 293.914551
4.800000 6.840000 5.120000 -1.005777 10.827350 118.243088
4.800000 6.840000 5.160000 -6.175284 3.707354 51.878601
4.800000 6.840000 5.200000 -4.801884 0.725368 23.584246
4.800000 6.880000 4.800000 15.146538 -19.109024 594.572388
4.800000 6.880000 4.840000 6.836772 -13.746279 235.701630
4.800000 6.880000 4.880000 2.962551 -20.497646 428.930206
4.800000 6.880000 4.920000 11.326570 -27.246471 870.661377
4.800000 6.880000 4.960000 24.472303 -22.390041 1100.207520
4.800000 6.880000 5.000000 29.113983 -7.793829 908.367798
4.800000 6.880000 5.040000 21.392788 4.084744 474.336487
4.800000 6.880000 5.080000 10.563511 4.853209 135.141403
4.800000 6.880000 5.120000 7.414339 -0.629213 55.368332
4.800000 6.880000 5.160000 11.329045 -1.068121 129.488159
4.800000 6.880000 5.200000 11.388222 6.697506 174.548172
4.800000 6.920000 4.800000 22.738371 -13.091305 688.415771
4.800000 6.920000 4.840000 15.810705 -12.347306 402.434387
4.800000 6.920000 4.880000 17.354912 -17.717009 615.085327
4.800000 6.920000 4.920000 26.525520 -17.358440 1004.918701
4.800000 6.920000 4.960000 33.000870 -7.971357 1152.599854
4.800000 6.920000 5.000000 30.454967 2.555951 934.037964
4.800000 6.920000 5.040000 23.858561 6.060950 605.966003
4.800000 6.920000 5.080000 22.226978 4.661767 515.770630
4.800000 6.920000 5.120000 26.108631 7.905430 744.156494
4.800000 6.920000 5.160000 25.524273 19.657297 1037.897827
4.800000 6.920000 5.200000 11.868563 30.719234 1084.534180
4.800000 6.960000 4.800000 28.186115 -1.628829 797.110168
4.800000 6.960000 4.840000 23.295568 -1.923100 546.381836
4.800000 6.960000 4.880000 25.640625 -3.450096 669.344788
4.800000 6.960000 4.920000 30.419277 0.343081 925.450073
4.800000 6.960000 4.960000 31.447792 7.345905 1042.925903
4.800000 6.960000 5.000000 29.465645 12.177657 1016.519592
4.800000 6.960000 5.040000 29.631149 15.209225 1109.325562
4.800000 6.960000 5.080000 32.087532 22.705338 1545.142090
4.800000 6.960000 5.120000 28.662724 37.225266 2207.271973
4.800000 6.960000 5.160000 11.627305 50.313065 2666.598877
4.800000 6.960000 5.200000 -14.715317 48.206783 2540.434570
4.800000 7.000000 4.800000 25.774639 14.395087 871.550537
4.800000 7.000000 4.840000 20.174276 13.816943 597.909363
4.800000 7.000000 4.880000 19.707066 12.791008 551.978333
4.800000 7.000000 4.920000 21.158295 14.111052 646.795227
4.800000 7.000000 4.960000 22.965977 16.987871 816.023865
4.800000 7.000000 5.000000 25.840012 22.213810 1161.159546
4.800000 7.000000 5.040000 27.633553 33.105358 1859.577881
4.800000 7.000000 5.080000 21.192907 49.467667 2896.189453
4.800000 7.000000 5.120000 0.819435 62.471329 3903.338379
4.800000 7.000000 5.160000 -28.540211 59.298725 4330.882324
4.800000 7.000000 5.200000 -50.948563 35.421551 3850.442383
4.800000 7.040000 4.800000 11.780588 27.691059 905.577026
4.800000 7.040000 4.840000 4.432796 23.604778 576.835205
4.800000 7.040000 4.880000 3.251355 18.333143 346.675446
4.800000 7.040000 4.920000 7.197739 15.816015 301.953766
4.800000 7.040000 4.960000 13.759490 19.488037 569.107178
4.800000 7.040000 5.000000 17.434742 31.578814 1301.191650
4.800000 7.040000 5.040000 10.350055 49.132294 2521.105713
4.800000 7.040000 5.080000 -11.681317 61.728642 3946.878418
4.800000 7.040000 5.120000 -42.194878 56.895012 5017.450195
4.800000 7.040000 5.160000 -65.019882 31.004608 5188.870605
4.800000 7.040000 5.200000 -65.481926 -4.628105 4309.302246
4.800000 7.080000 4.800000 -9.548700 29.176212 942.429016
4.800000 7.080000 4.840000 -15.003090 18.627806 572.087891
4.800000 7.080000 4.880000 -10.993290 9.090277 203.485565
4.800000 7.080000 4.920000 -0.620556 7.693357 59.572830
4.800000 7.080000 4.960000 7.761773 18.122684 388.676819
4.800000 7.080000 5.000000 3.962126 36.252243 1329.923584
4.800000 7.080000 5.040000 -16.524357 49.730320 2746.159180
4.800000 7.080000 5.080000 -46.247181 45.108074 4173.540039
4.800000 7.080000 5.120000 -68.158020 18.950016 5004.618652
4.800000 7.080000 5.160000 -67.406662 -16.923756 4830.071777
4.800000 7.080000 5.200000 -43.569920 -42.595016 3712.673340
4.800000 7.120000 4.800000 -27.361656 16.234343 1012.214111
4.800000 7.120000 4.840000 -25.364017 1.084854 644.510254
4.800000 7.120000 4.880000 -12.780575 -6.992455 212.237518
4.800000 7.120000 4.920000 1.450345 -0.971305 3.046935
4.800000 7.120000 4.960000 4.515684 16.583006 295.387512
4.800000 7.120000 5.000000 -10.615479 32.567398 1173.323730
4.800000 7.120000 5.040000 -37.480980 31.604485 2403.667236
4.800000 7.120000 5.080000 -58.490795 8.641376 3495.846436
4.800000 7.120000 5.120000 -57.639389 -25.024364 3948.517822
4.800000 7.120000 5.160000 -33.709358 -49.070667 3544.251221
4.800000 7.120000 5.200000 -1.968868 -49.806396 2484.553711
4.800000 7.160000 4.800000 -32.604698 -4.095767 1079.841553
4.800000 7.160000 4.840000 -21.056320 -17.709450 756.993225
4.800000 7.160000 4.880000 -2.834932 -17.921230 329.207336
4.800000 7.160000 4.920000 8.330113 -3.122321 79.139679
4.800000 7.160000 4.960000 1.700735 15.533209 244.173080
4.800000 7.160000 5.000000 -19.980787 21.240116 850.374390
4.800000 7.160000 5.040000 -40.403774 5.534492 1663.095581
4.800000 7.160000 5.080000 -42.062469 -23.086319 2302.229492
4.800000 7.160000 5.120000 -21.169598 -44.813530 2456.404297
4.800000 7.160000 5.160000 8.491528 -44.586708 2060.080566
4.800000 7.160000 5.200000 26.852962 -24.467022 1319.716797
4.800000 7.200000 4.800000 -25.261856 -20.892902 1074.674805
4.800000 7.200000 4.840000 -7.476142 -27.533310 813.975830
4.800000 7.200000 4.880000 9.706850 -18.367956 431.604736
4.800000 7.200000 4.920000 12.806454 0.542487 164.299545
4.800000 7.200000 4.960000 -1.189230 13.371031 180.198730
4.800000 7.200000 5.000000 -20.214001 7.871605 470.567993
4.800000 7.200000 5.040000 -26.511436 -12.795124 866.571472
4.800000 7.200000 5.080000 -12.397497 -31.640396 1154.812622
4.800000 7.200000 5.120000 12.265690 -32.407063 1200.664795
4.800000 7.200000 5.160000 28.432899 -13.998014 1004.374146
4.800000 7.200000 5.200000 24.517918 8.710512 677.001343
4.840000 6.800000 4.800000 6.386966 -7.573032 98.144157
4.840000 6.800000 4.840000 0.308168 -1.524682 2.419623
4.840000 6.800000 4.880000 -7.137123 -6.029665 87.295387
4.840000 6.800000 4.920000 -5.316613 -16.970121 316.251404
4.840000 6.800000 4.960000 7.641425 -22.768478 576.794983
4.840000 6.800000 5.000000 22.703659 -15.608758 759.089478
4.840000 6.800000 5.040000 28.508564 1.241968 814.280701
4.840000 6.800000 5.080000 21.529997 17.155174 757.840820
4.840000 6.800000 5.120000 7.701051 24.136684 641.885742
4.840000 6.800000 5.160000 -4.921103 22.394815 525.744995
4.840000 6.800000 5.200000 -13.377073 16.659321 456.479065
4.840000 6.840000 4.800000 9.710698 -5.875340 128.817276
4.840000 6.840000 4.840000 4.057391 -3.486307 28.616756
4.840000 6.840000 4.880000 2.417737 -7.854744 67.542450
4.840000 6.840000 4.920000 8.258287 -10.872233 186.404770
4.840000 6.840000 4.960000 15.932631 -6.141071 291.561493
4.840000 6.840000 5.000000 17.395273 4.146890 319.792206
4.840000 6.840000 5.040000 11.023523 12.140652 268.913483
4.840000 6.840000 5.080000 2.621639 13.237743 182.110840
4.840000 6.840000 5.120000 -2.019681 10.422218 112.701744
4.840000 6.840000 5.160000 -3.789709 9.224181 99.447411
4.840000 6.840000 5.200000 -7.967579 9.702500 157.620819
4.840000 6.880000 4.800000 13.770643 -3.763034 203.791046
4.840000 6.880000 4.840000 11.483862 -1.365846 133.744629
4.840000 6.880000 4.880000 12.049627 0.498881 145.442398
4.840000 6.880000 4.920000 12.069326 5.389800 174.718582
4.840000 6.880000 4.960000 7.258053 10.356845 159.943573
4.840000 6.880000 5.000000 -0.381915 9.545021 91.253288
4.840000 6.880000 5.040000 -3.498543 2.615207 19.079109
4.840000 6.880000 5.080000 1.805031 -2.834155 11.290571
4.840000 6.880000 5.120000 9.667138 0.947773 94.351837
4.840000 6.880000 5.160000 9.302670 11.977566 230.001770
4.840000 6.880000 5.200000 -2.953476 18.467804 349.782806
4.840000 6.920000 4.800000 18.447510 2.282079 345.518494
4.840000 6.920000 4.840000 16.405851 8.824776 347.028625
4.840000 6.920000 4.880000 11.180079 15.914923 378.278931
4.840000 6.920000 4.920000 0.400795 19.042055 362.760498
4.840000 6.920000 4.960000 -10.841448 12.169522 265.634277
4.840000 6.920000 5.000000 -12.096233 -2.639728 153.287018
4.840000 6.920000 5.040000 1.153618 -12.998503 170.291916
4.840000 6.920000 5.080000 19.379150 -6.738752 420.962280
4.840000 6.920000 5.120000 25.242750 14.405654 844.719299
4.840000 6.920000 5.160000 10.100483 33.392426 1217.073853
4.840000 6.920000 5.200000 -15.728893 32.556347 1307.313843
4.840000 6.960000 4.800000 18.399519 13.643141 524.677612
4.840000 6.960000 4.840000 10.649752 22.489365 619.188721
4.840000 6.960000 4.880000 -3.458552 26.110281 693.708374
4.840000 6.960000 4.920000 -18.420599 17.510292 645.928833
4.840000 6.960000 4.960000 -21.651646 -1.963606 472.649506
4.840000 6.960000 5.000000 -5.791860 -17.945780 355.596680
4.840000 6.960000 5.040000 19.767706 -13.578736 575.144287
4.840000 6.960000 5.080000 33.064888 12.989272 1262.008057
4.840000 6.960000 5.120000 18.808449 42.863811 2191.064209
4.840000 6.960000 5.160000 -15.520905 51.130768 2855.253906
4.840000 6.960000 5.200000 -44.142899 29.569002 2822.921387
4.840000 7.000000 4.800000 8.378727 24.772442 683.876953
4.840000 7.000000 4.840000 -6.258316 28.451740 848.668030
4.840000 7.000000 4.880000 -22.496185 20.724426 935.580200
4.840000 7.000000 4.920000 -28.737656 0.957094 826.768860
4.840000 7.000000 4.960000 -15.355780 -18.468704 576.893005
4.840000 7.000000 5.000000 11.800220 -18.975716 499.322968
4.840000 7.000000 5.040000 30.843891 6.228318 990.137573
4.840000 7.000000 5.080000 21.365122 41.215996 2155.226807
4.840000 7.000000 5.120000 -15.155764 57.754349 3565.261963
4.840000 7.000000 5.160000 -53.376492 39.960159 4445.864258
4.840000 7.000000 5.200000 -65.000610 -0.293466 4225.165527
4.840000 7.040000 4.800000 -9.471904 26.439575 788.768127
4.840000 7.040000 4.840000 -24.248175 19.303396 960.595093
4.840000 7.040000 4.880000 -31.428686 1.833019 991.122314
4.840000 7.040000 4.920000 -22.110920 -17.388391 791.248962
4.840000 7.040000 4.960000 1.657247 -22.240202 497.373047
4.840000 7.040000 5.000000 22.366060 -3.157014 510.207397
4.840000 7.040000 5.040000 19.000698 29.704372 1243.376221
4.840000 7.040000 5.080000 -12.885700 50.437393 2709.971924
4.840000 7.040000 5.120000 -53.191826 38.694191 4326.610840
4.840000 7.040000 5.160000 -72.149300 -0.837998 5206.223633
4.840000 7.040000 5.200000 -55.937881 -40.728493 4787.856934
4.840000 7.080000 4.800000 -25.176044 14.508738 844.336670
4.840000 7.080000 4.840000 -30.815819 -0.758551 950.190063
4.840000 7.080000 4.880000 -23.783405 -17.409382 868.736938
4.840000 7.080000 4.920000 -4.833001 -23.758289 587.814209
4.840000 7.080000 4.960000 13.822646 -11.164876 315.720001
4.840000 7.080000 5.000000 14.866714 14.977805 445.353821
4.840000 7.080000 5.040000 -8.722975 34.764984 1284.694458
4.840000 7.080000 5.080000 -43.668491 28.569889 2723.175781
4.840000 7.080000 5.120000 -64.249069 -4.660690 4149.665039
4.840000 7.080000 5.160000 -53.536247 -43.815578 4785.934570
4.840000 7.080000 5.200000 -18.656101 -62.328018 4232.832031
4.840000 7.120000 4.800000 -28.953831 -5.077750 864.107910
4.840000 7.120000 4.840000 -22.159283 -19.168926 858.481567
4.840000 7.120000 4.880000 -6.452085 -24.879000 660.593994
4.840000 7.120000 4.920000 9.175890 -16.275160 349.077789
4.840000 7.120000 4.960000 12.145517 3.080537 157.003296
4.840000 7.120000 5.000000 -3.602847 19.044147 375.660065
4.840000 7.120000 5.040000 -29.629396 16.195515 1140.195801
4.840000 7.120000 5.080000 -46.660271 -8.500026 2249.431396
4.840000 7.120000 5.120000 -39.476624 -40.518764 3200.174072
4.840000 7.120000 5.160000 -10.585563 -58.014709 3477.760742
4.840000 7.120000 5.200000 20.813366 -49.748459 2908.105469
4.840000 7.160000 4.800000 -19.837454 -21.057003 836.921936
4.840000 7.160000 4.840000 -5.876755 -26.262493 724.254822
4.840000 7.160000 4.880000 8.020999 -19.777256 455.476288
4.840000 7.160000 4.920000 12.137714 -4.762741 170.007812
4.840000 7.160000 4.960000 2.092762 8.046188 69.120804
4.840000 7.160000 5.000000 -15.904905 7.252445 305.563965
4.840000 7.160000 5.040000 -27.800955 -9.599672 865.046753
4.840000 7.160000 5.080000 -22.161327 -32.236469 1530.314331
4.840000 7.160000 5.120000 -0.140675 -44.486641 1979.081055
4.840000 7.160000 5.160000 24.340256 -37.139545 1971.793945
4.840000 7.160000 5.200000 35.502876 -15.725377 1507.741699
4.840000 7.200000 4.800000 -5.834003 -26.720951 748.044800
4.840000 7.200000 4.840000 7.291157 -22.918205 578.405090
4.840000 7.200000 4.880000 13.540351 -10.909384 302.355774
4.840000 7.200000 4.920000 8.372520 0.879319 70.872299
4.840000 7.200000 4.960000 -3.950336 2.991281 24.552912
4.840000 7.200000 5.000000 -12.602989 -7.013742 208.027924
4.840000 7.200000 5.040000 -8.705891 -21.496916 537.909912
4.840000 7.200000 5.080000 6.846725 -28.283785 846.850098
4.840000 7.200000 5.120000 23.446054 -20.678303 977.309692
4.840000 7.200000 5.160000 29.280102 -3.282581 868.099670
4.840000 7.200000 5.200000 21.069277 11.760838 582.231750
4.880000 6.800000 4.800000 -0.646714 7.662974 59.139408
4.880000 6.800000 4.840000 -7.356060 2.888552 62.455349
4.880000 6.800000 4.880000 -6.934387 -7.215071 100.142975
4.880000 6.800000 4.920000 2.870869 -14.273623 211.978210
4.880000 6.800000 4.960000 16.212225 -11.468268 394.357422
4.880000 6.800000 5.000000 24.256039 0.426613 588.537415
4.880000 6.800000 5.040000 22.658302 14.401785 720.810059
4.880000 6.800000 5.080000 13.873986 23.839380 760.803528
4.880000 6.800000 5.120000 2.951488 27.034225 739.560669
4.880000 6.800000 5.160000 -7.423124 25.515377 706.137268
4.880000 6.800000 5.200000 -16.775227 19.712822 670.003540
4.880000 6.840000 4.800000 -0.545156 4.938148 24.682497
4.880000 6.840000 4.840000 0.347969 3.577671 12.920813
4.880000 6.840000 4.880000 2.972208 5.173335 35.597416
4.880000 6.840000 4.920000 2.975552 9.750824 103.932472
4.880000 6.840000 4.960000 -1.406912 12.955933 169.835587
4.880000 6.840000 5.000000 -6.520293 11.147491 166.780792
4.880000 6.840000 5.040000 -7.090710 6.426529 91.578438
4.880000 6.840000 5.080000 -2.910789 5.081521 34.294552
4.880000 6.840000 5.120000 -0.386295 10.250490 105.221771
4.880000 6.840000 5.160000 -5.988119 16.788799 317.721344
4.880000 6.840000 5.200000 -17.850994 15.187191 549.308777
4.880000 6.880000 4.800000 3.323310 4.645583 32.625832
4.880000 6.880000 4.840000 4.837284 13.861174 215.531464
4.880000 6.880000 4.880000 -3.893103 24.893551 634.845154
4.880000 6.880000 4.920000 -22.098801 25.923122 1160.365234
4.880000 6.880000 4.960000 -37.048882 10.482265 1482.497559
4.880000 6.880000 5.000000 -34.547771 -12.995684 1362.436279
4.880000 6.880000 5.040000 -13.839802 -26.161907 875.985474
4.880000 6.880000 5.080000 9.014343 -17.485615 387.005127
4.880000 6.880000 5.120000 14.659073 5.528584 245.453644
4.880000 6.880000 5.160000 -1.183146 21.956726 483.497650
4.880000 6.880000 5.200000 -22.884903 16.755913 804.479431
4.880000 6.920000 4.800000 5.878048 10.346685 141.605347
4.880000 6.920000 4.840000 -3.398037 26.982466 739.600098
4.880000 6.920000 4.880000 -29.146114 32.553658 1909.236572
4.880000 6.920000 4.920000 -55.564514 12.922905 3254.416748
4.880000 6.920000 4.960000 -58.448711 -25.173714 4049.967773
4.880000 6.920000 5.000000 -28.844837 -54.666405 3820.440430
4.880000 6.920000 5.040000 14.375500 -50.774731 2784.728271
4.880000 6.920000 5.080000 38.360386 -15.057407 1698.244629
4.880000 6.920000 5.120000 25.408451 23.801487 1212.100220
4.880000 6.920000 5.160000 -10.623779 35.121853 1346.409180
4.880000 6.920000 5.200000 -37.253094 13.689189 1575.186890
4.880000 6.960000 4.800000 0.586572 18.126926 328.929504
4.880000 6.960000 4.840000 -23.173290 29.174507 1388.153320
4.880000 6.960000 4.880000 -55.224953 14.975092 3274.048828
4.880000 6.960000 4.920000 -67.926712 -26.234390 5302.281250
4.880000 6.960000 4.960000 -41.582314 -68.410316 6409.060059
4.880000 6.960000 5.000000 12.102880 -76.592728 6012.925293
4.880000 6.960000 5.040000 54.683365 -39.491325 4549.835449
4.880000 6.960000 5.080000 53.287159 16.627533 3115.996094
4.880000 6.960000 5.120000 10.723006 49.022003 2518.139648
4.880000 6.960000 5.160000 -36.593185 36.045128 2638.312500
4.880000 6.960000 5.200000 -51.754047 -4.835982 2701.868164
4.880000 7.000000 4.800000 -12.077253 18.962826 505.448822
4.880000 7.000000 4.840000 -40.566040 13.241660 1820.945190
4.880000 7.000000 4.880000 -59.693771 -19.736410 3952.872314
4.880000 7.000000 4.920000 -44.738338 -63.746353 6065.116699
4.880000 7.000000 4.960000 4.772646 -83.860764 7055.405762
4.880000 7.000000 5.000000 56.722309 -57.094090 6477.155273
4.880000 7.000000 5.040000 70.503204 2.400710 4976.464844
4.880000 7.000000 5.080000 33.598602 51.163422 3746.562012
4.880000 7.000000 5.120000 -25.150608 53.282501 3471.578125
4.880000 7.000000 5.160000 -60.319702 11.875456 3779.492920
4.880000 7.000000 5.200000 -49.796925 -35.311523 3726.637207
4.880000 7.040000 4.800000 -23.006435 8.099542 594.898682
4.880000 7.040000 4.840000 -40.775284 -12.513114 1819.201782
4.880000 7.040000 4.880000 -36.501450 -47.436882 3582.613770
4.880000 7.040000 4.920000 -1.388005 -71.616875 5130.903320
4.880000 7.040000 4.960000 46.054676 -59.414196 5651.080078
4.880000 7.040000 5.000000 69.799278 -11.155534 4996.385254
4.880000 7.040000 5.040000 47.164696 40.822273 3890.966553
4.880000 7.040000 5.080000 -7.992321 57.057495 3319.435059
4.880000 7.040000 5.120000 -54.497658 25.625103 3626.640625
4.880000 7.040000 5.160000 -59.083988 -26.863848 4212.583984
4.880000 7.040000 5.200000 -24.583138 -59.424244 4135.571289
4.880000 7.080000 4.800000 -22.601997 -8.817868 588.605103
4.880000 7.080000 4.840000 -22.404434 -30.576084 1436.855591
4.880000 7.080000 4.880000 -2.298189 -49.550278 2460.511719
4.880000 7.080000 4.920000 30.872765 -47.131523 3174.507812
4.880000 7.080000 4.960000 54.028954 -16.733646 3199.142822
4.880000 7.080000 5.000000 45.272953 24.592731 2654.442871
4.880000 7.080000 5.040000 5.526421 46.020126 2148.393311
4.880000 7.080000 5.080000 -37.923481 28.834698 2269.630371
4.880000 7.080000 5.120000 -52.711552 -15.466685 3017.725830
4.880000 7.080000 5.160000 -29.236744 -53.722073 3740.848145
4.880000 7.080000 5.200000 11.540926 -59.654152 3691.810791
4.880000 7.120000 4.800000 -10.447362 -20.326191 522.301392
4.880000 7.120000 4.840000 0.888567 -30.223562 914.253235
4.880000 7.120000 4.880000 19.203979 -29.540167 1241.414307
4.880000 7.120000 4.920000 33.732544 -13.604771 1322.974365
4.880000 7.120000 4.960000 31.540943 10.908424 1113.824829
4.880000 7.120000 5.000000 9.356109 27.067455 820.183899
4.880000 7.120000 5.040000 -19.837000 20.130041 798.725098
4.880000 7.120000 5.080000 -34.533310 -8.376842 1262.720947
4.880000 7.120000 5.120000 -22.287792 -39.267731 2038.700439
4.880000 7.120000 5.160000 8.750896 -50.555588 2632.445557
4.880000 7.120000 5.200000 36.218449 -35.873978 2598.718262
4.880000 7.160000 4.800000 4.136577 -20.134392 422.505005
4.880000 7.160000 4.840000 13.623142 -16.898987 471.165771
4.880000 7.160000 4.880000 18.996937 -7.615183 418.874603
4.880000 7.160000 4.920000 16.389751 3.563837 281.324890
4.880000 7.160000 4.960000 5.695396 9.968534 131.809219
4.880000 7.160000 5.000000 -7.569321 5.937438 92.547791
4.880000 7.160000 5.040000 -14.195575 -8.294909 270.319855
4.880000 7.160000 5.080000 -7.517124 -24.665638 664.900818
4.880000 7.160000 5.120000 10.394684 -31.880707 1124.428955
4.880000 7.160000 5.160000 28.864239 -24.068733 1412.448242
4.880000 7.160000 5.200000 36.392975 -6.067881 1361.267822
4.880000 7.200000 4.800000 11.677058 -12.841514 301.258179
4.880000 7.200000 4.840000 12.961354 -5.272697 195.798035
4.880000 7.200000 4.880000 8.647529 0.202854 74.820908
4.880000 7.200000 4.920000 2.366903 0.248167 5.663818
4.880000 7.200000 4.960000 -1.296906 -4.633958 23.155529
4.880000 7.200000 5.000000 0.271177 -11.029345 121.719978
4.880000 7.200000 5.040000 6.626152 -14.931296 266.849487
4.880000 7.200000 5.080000 14.913717 -13.741774 411.255310
4.880000 7.200000 5.120000 21.314091 -7.341527 508.188477
4.880000 7.200000 5.160000 22.818140 1.824968 523.998047
4.880000 7.200000 5.200000 18.869017 9.812916 452.333130
4.920000 6.800000 4.800000 -17.239504 11.666302 433.303101
4.920000 6.800000 4.840000 -16.229321 -0.266434 263.461823
4.920000 6.800000 4.880000 -6.701279 -8.346856 114.577141
4.920000 6.800000 4.920000 5.803902 -7.510115 90.087097
4.920000 6.800000 4.960000 14.131409 1.111454 200.932053
4.920000 6.800000 5.000000 15.139692 11.883141 370.419312
4.920000 6.800000 5.040000 10.896147 20.103859 522.891113
4.920000 6.800000 5.080000 4.707375 25.147961 654.579285
4.920000 6.800000 5.120000 -2.802343 28.185192 802.258179
4.920000 6.800000 5.160000 -12.609416 28.027821 944.556091
4.920000 6.800000 5.200000 -22.694691 21.239773 966.177002
4.920000 6.840000 4.800000 -14.923189 4.211721 240.440170
4.920000 6.840000 4.840000 -8.811165 6.906214 125.332413
4.920000 6.840000 4.880000 -10.502434 14.514877 320.982788
4.920000 6.840000 4.920000 -20.615511 16.493374 697.030640
4.920000 6.840000 4.960000 -29.341896 7.056709 910.743958
4.920000 6.840000 5.000000 -26.063786 -7.374985 733.711304
4.920000 6.840000 5.040000 -11.184612 -13.289944 301.718140
4.920000 6.840000 5.080000 2.497513 -3.703772 19.955494
4.920000 6.840000 5.120000 1.563560 13.505379 184.839966
4.920000 6.840000 5.160000 -14.223104 21.915310 682.577515
4.920000 6.840000 5.200000 -30.341284 12.333681 1072.713135
4.920000 6.880000 4.800000 -9.483122 3.200181 100.170761
4.920000 6.880000 4.840000 -15.029612 20.273439 636.901611
4.920000 6.880000 4.880000 -40.137115 26.053493 2289.772461
4.920000 6.880000 4.920000 -65.790123 4.684242 4350.282227
4.920000 6.880000 4.960000 -65.777153 -34.765881 5535.300293
4.920000 6.880000 5.000000 -33.038254 -62.791428 5034.289551
4.920000 6.880000 5.040000 10.356827 -55.846359 3226.079834
4.920000 6.880000 5.080000 31.536034 -19.366150 1369.569214
4.920000 6.880000 5.120000 16.703484 16.119762 538.853149
4.920000 6.880000 5.160000 -16.467903 22.861126 793.822937
4.920000 6.880000 5.200000 -36.266083 0.859125 1315.966797
4.920000 6.920000 4.800000 -8.998083 7.307559 134.365906
4.920000 6.920000 4.840000 -35.972176 22.548965 1802.453247
4.920000 6.920000 4.880000 -74.981911 4.249447 5640.344727
4.920000 6.920000 4.920000 -88.299477 -48.436527 10142.894531
4.920000 6.920000 4.960000 -52.361706 -100.216209 12785.037109
4.920000 6.920000 5.000000 15.069527 -108.390137 11975.512695
4.920000 6.920000 5.040000 66.267242 -62.972256 8356.852539
4.920000 6.920000 5.080000 65.200706 1.761412 4254.234863
4.920000 6.920000 5.120000 19.686089 37.281231 1777.432251
4.920000 6.920000 5.160000 -27.369825 23.861881 1318.496826
4.920000 6.920000 5.200000 -38.573112 -14.762890 1705.827881
4.920000 6.960000 4.800000 -15.598793 7.935822 306.299622
4.920000 6.960000 4.840000 -55.029594 2.763709 3035.894531
4.920000 6.960000 4.880000 -81.863785 -44.385826 8671.781250
4.920000 6.960000 4.920000 -58.516212 -107.817741 15048.812500
4.920000 6.960000 4.960000 13.964184 -136.199280 18745.242188
4.920000 6.960000 5.000000 88.733948 -98.935898 17662.025391
4.920000 6.960000 5.040000 111.184494 -18.028055 12687.002930
4.920000 6.960000 5.080000 67.721687 48.255089 6914.780762
4.920000 6.960000 5.120000 -2.265416 56.201630 3163.755371
4.920000 6.960000 5.160000 -43.207901 13.412990 2046.831055
4.920000 6.960000 5.200000 -32.732746 -33.150932 2170.416992
4.920000 7.000000 4.800000 -21.590216 -0.966242 467.071045
4.920000 7.000000 4.840000 -52.037243 -29.645714 3586.743164
4.920000 7.000000 4.880000 -46.972954 -85.893066 9584.077148
4.920000 7.000000 4.920000 9.998368 -126.624939 16133.842773
4.920000 7.000000 4.960000 88.651138 -109.235771 19791.478516
4.920000 7.000000 5.000000 131.885132 -34.271904 18568.250000
4.920000 7.000000 5.040000 105.349503 48.810608 13480.993164
4.920000 7.000000 5.080000 29.760368 82.317657 7661.876465
4.920000 7.000000 5.120000 -36.755573 50.148865 3865.880859
4.920000 7.000000 5.160000 -50.105259 -10.861458 2628.508057
4.920000 7.000000 5.200000 -16.004374 -47.923267 2552.779541
4.920000 7.040000 4.800000 -17.131107 -14.674787 508.824219
4.920000 7.040000 4.840000 -23.820747 -50.799469 3148.013916
4.920000 7.040000 4.880000 8.283467 -88.440292 7890.301270
4.920000 7.040000 4.920000 69.733994 -89.350693 12846.376953
4.920000 7.040000 4.960000 118.386375 -37.665157 15433.998047
4.920000 7.040000 5.000000 113.122971 38.875710 14308.126953
4.920000 7.040000 5.040000 52.294353 87.625572 10412.940430
4.920000 7.040000 5.080000 -21.414906 75.560928 6168.052246
4.920000 7.040000 5.120000 -56.800755 17.902409 3546.822021
4.920000 7.040000 5.160000 -37.529545 -36.908127 2770.676514
4.920000 7.040000 5.200000 7.856878 -51.065460 2669.411621
4.920000 7.080000 4.800000 -1.705060 -21.209002 452.728973
4.920000 7.080000 4.840000 10.572504 -44.284084 2072.857910
4.920000 7.080000 4.880000 45.235722 -51.882156 4738.028320
4.920000 7.080000 4.920000 81.615143 -26.142387 7344.456055
4.920000 7.080000 4.960000 88.821228 25.459717 8537.407227
4.920000 7.080000 5.000000 53.180973 70.083015 7739.844727
4.920000 7.080000 5.040000 -5.633368 74.790909 5625.415039
4.920000 7.080000 5.080000 -47.936451 35.546440 3561.452637
4.920000 7.080000 5.120000 -46.783234 -18.033546 2513.879639
4.920000 7.080000 5.160000 -10.028364 -47.949402 2399.713135
4.920000 7.080000 5.200000 29.058498 -39.640736 2415.784180
4.920000 7.120000 4.800000 13.795233 -13.806946 380.940186
4.920000 7.120000 4.840000 26.858067 -17.144991 1015.306396
4.920000 7.120000 4.880000 42.885979 -7.356535 1893.325806
4.920000 7.120000 4.920000 48.759003 16.166061 2638.781982
4.920000 7.120000 4.960000 33.966362 41.319859 2861.044434
4.920000 7.120000 5.000000 2.014145 49.702415 2474.386963
4.920000 7.120000 5.040000 -28.417673 31.599077 1806.065918
4.920000 7.120000 5.080000 -36.625244 -3.612305 1354.457275
4.920000 7.120000 5.120000 -17.038761 -32.961922 1376.807617
4.920000 7.120000 5.160000 15.526885 -38.011944 1685.991943
4.920000 7.120000 5.200000 38.315605 -19.443901 1846.150879
4.920000 7.160000 4.800000 17.701691 1.156342 314.686981
4.920000 7.160000 4.840000 18.212582 6.998367 380.675262
4.920000 7.160000 4.880000 15.114684 12.750341 391.024902
4.920000 7.160000 4.920000 8.844292 16.693176 356.883636
4.920000 7.160000 4.960000 0.009220 16.951750 287.361908
4.920000 7.160000 5.000000 -9.085365 11.115767 206.104126
4.920000 7.160000 5.040000 -13.341702 -1.207167 179.458237
4.920000 7.160000 5.080000 -7.677359 -15.331079 293.983826
4.920000 7.160000 5.120000 7.661756 -22.722233 575.002380
4.920000 7.160000 5.160000 25.003757 -17.308640 924.776855
4.920000 7.160000 5.200000 34.042831 -1.302780 1160.611694
4.920000 7.200000 4.800000 9.989841 10.238270 204.619110
4.920000 7.200000 4.840000 0.549093 11.141840 124.442101
4.920000 7.200000 4.880000 -6.238203 3.975401 54.718994
4.920000 7.200000 4.920000 -4.867077 -5.430535 53.179150
4.920000 7.200000 4.960000 2.402733 -9.729677 100.439743
4.920000 7.200000 5.000000 8.661829 -7.528666 131.708084
4.920000 7.200000 5.040000 10.154835 -3.796049 117.530655
4.920000 7.200000 5.080000 9.782879 -3.221974 106.085838
4.920000 7.200000 5.120000 12.636884 -4.470241 179.673874
4.920000 7.200000 5.160000 19.028008 -1.921036 365.755432
4.920000 7.200000 5.200000 23.221096 7.262369 591.961304
4.960000 6.800000 4.800000 -31.630302 2.171982 1005.193542
4.960000 6.800000 4.840000 -21.263145 -9.040762 533.856750
4.960000 6.800000 4.880000 -7.375908 -10.487152 164.384384
4.960000 6.800000 4.920000 2.556665 -3.569664 19.279039
4.960000 6.800000 4.960000 5.394816 5.793129 62.664391
4.960000 6.800000 5.000000 3.555008 12.814037 176.837631
4.960000 6.800000 5.040000 0.851608 17.436386 304.752808
4.960000 6.800000 5.080000 -2.341873 22.199360 498.295959
4.960000 6.800000 5.120000 -8.906054 27.001848 808.417603
4.960000 6.800000 5.160000 -19.717072 27.390427 1138.998413
4.960000 6.800000 5.200000 -29.708963 19.287222 1254.619385
4.960000 6.840000 4.800000 -24.965317 -6.248682 662.313049
4.960000 6.840000 4.840000 -20.740133 1.796883 433.381927
4.960000 6.840000 4.880000 -29.991436 6.980965 948.220093
4.960000 6.840000 4.920000 -42.093044 -2.690399 1779.062622
4.960000 6.840000 4.960000 -40.439423 -23.083599 2168.199463
4.960000 6.840000 5.000000 -20.184467 -36.340080 1728.014160
4.960000 6.840000 5.040000 4.849495 -28.140314 815.394836
4.960000 6.840000 5.080000 14.057915 -2.841724 205.700363
4.960000 6.840000 5.120000 -0.275958 19.163410 367.312439
4.960000 6.840000 5.160000 -25.038168 20.110638 1031.347656
4.960000 6.840000 5.200000 -38.329102 1.463489 1471.261841
4.960000 6.880000 4.800000 -18.785852 -7.121109 403.618469
4.960000 6.880000 4.840000 -37.273102 6.738319 1434.688965
4.960000 6.880000 4.880000 -67.781052 -7.863205 4656.101074
4.960000 6.880000 4.920000 -76.352295 -51.711655 8503.767578
4.960000 6.880000 4.960000 -43.064896 -93.209732 10542.638672
4.960000 6.880000 5.000000 14.893440 -95.961746 9430.470703
4.960000 6.880000 5.040000 55.755394 -53.920223 6016.054688
4.960000 6.880000 5.080000 50.689724 1.142460 2570.753174
4.960000 6.880000 5.120000 9.816185 28.122578 887.236877
4.960000 6.880000 5.160000 -28.610138 13.419542 998.624084
4.960000 6.880000 5.200000 -34.571316 -19.565428 1577.981934
4.960000 6.920000 4.800000 -18.373240 -6.832516 384.259186
4.960000 6.920000 4.840000 -56.883663 -10.508633 3346.182617
4.960000 6.920000 4.880000 -82.495453 -58.929268 10278.158203
4.960000 6.920000 4.920000 -55.140690 -123.198929 18218.470703
4.960000 6.920000 4.960000 21.767544 -148.880157 22639.126953
4.960000 6.920000 5.000000 97.514397 -106.719574 20898.125000
4.960000 6.920000 5.040000 117.311142 -23.054192 14293.400391
4.960000 6.920000 5.080000 71.652405 41.841782 6884.801758
4.960000 6.920000 5.120000 3.616903 47.324532 2252.693359
4.960000 6.920000 5.160000 -32.512768 5.927101 1092.210571
4.960000 6.920000 5.200000 -19.713142 -34.232765 1560.490234
4.960000 6.960000 4.800000 -19.276789 -12.559032 529.323853
4.960000 6.960000 4.840000 -55.397301 -45.097736 5102.666504
4.960000 6.960000 4.880000 -47.686592 -112.145149 14850.544922
4.960000 6.960000 4.920000 23.052214 -158.979340 25805.833984
4.960000 6.960000 4.960000 117.592644 -134.833237 32008.031250
4.960000 6.960000 5.000000 167.299652 -43.896801 29916.103516
4.960000 6.960000 5.040000 135.122406 53.073093 21074.818359
4.960000 6.960000 5.080000 49.485130 90.955185 10721.624023
4.960000 6.960000 5.120000 -22.419186 56.480030 3692.613770
4.960000 6.960000 5.160000 -35.340488 -5.291859 1276.953857
4.960000 6.960000 5.200000 -1.500331 -37.862980 1435.856201
4.960000 7.000000 4.800000 -12.272593 -22.176678 642.421570
4.960000 7.000000 4.840000 -23.377970 -70.929733 5577.556152
4.960000 7.000000 4.880000 21.468109 -123.106567 15616.106445
4.960000 7.000000 4.920000 107.609642 -123.105026 26734.683594
4.960000 7.000000 4.960000 174.665619 -50.330910 33041.277344
4.960000 7.000000 5.000000 167.574219 54.556587 31057.541016
4.960000 7.000000 5.040000 87.689728 120.738831 22267.353516
4.960000 7.000000 5.080000 -6.667768 108.286514 11770.427734
4.960000 7.000000 5.120000 -51.786072 40.922050 4356.411133
4.960000 7.000000 5.160000 -32.406021 -20.088198 1453.685791
4.960000 7.000000 5.200000 12.832395 -33.163845 1264.510986
4.960000 7.040000 4.800000 4.569024 -24.656599 628.823853
4.960000 7.040000 4.840000 20.698563 -63.961998 4519.567871
4.960000 7.040000 4.880000 77.379242 -78.854828 12205.630859
4.960000 7.040000 4.920000 138.516998 -37.542969 20596.433594
4.960000 7.040000 4.960000 152.154449 46.681431 25330.132812
4.960000 7.040000 5.000000 97.583839 119.864548 23890.115234
4.960000 7.040000 5.040000 7.567602 131.681503 17397.287109
4.960000 7.040000 5.080000 -57.865852 78.930923 9578.547852
4.960000 7.040000 5.120000 -62.300507 6.713602 3926.425537
4.960000 7.040000 5.160000 -20.504503 -33.181168 1521.424561
4.960000 7.040000 5.200000 21.645287 -25.786839 1133.479492
4.960000 7.080000 4.800000 20.733532 -12.072188 575.617065
4.960000 7.080000 4.840000 44.926895 -26.539633 2722.778076
4.960000 7.080000 4.880000 81.946533 -11.777958 6853.954590
4.960000 7.080000 4.920000 99.847000 36.328335 11289.171875
4.960000 7.080000 4.960000 74.000717 91.075546 13770.861328
4.960000 7.080000 5.000000 11.949375 113.591263 13045.761719
4.960000 7.080000 5.040000 -48.878880 85.623436 9720.517578
4.960000 7.080000 5.080000 -70.843880 26.175791 5704.027344
4.960000 7.080000 5.120000 -46.574913 -24.332354 2761.285889
4.960000 7.080000 5.160000 -2.332054 -37.773766 1432.295898
4.960000 7.080000 5.200000 27.553532 -18.557571 1103.580566
4.960000 7.120000 4.800000 22.490461 9.658214 599.101929
4.960000 7.120000 4.840000 33.382126 12.891560 1280.558594
4.960000 7.120000 4.880000 40.466042 29.475803 2506.323486
4.960000 7.120000 4.920000 31.503948 52.836189 3784.161621
4.960000 7.120000 4.960000 3.646511 66.953140 4496.020020
4.960000 7.120000 5.000000 -31.007191 57.833107 4306.114258
4.960000 7.120000 5.040000 -52.151806 25.901533 3390.700195
4.960000 7.120000 5.080000 -46.333942 -12.072807 2292.586914
4.960000 7.120000 5.120000 -17.823038 -34.640083 1517.596069
4.960000 7.120000 5.160000 14.615561 -31.574236 1210.546997
4.960000 7.120000 5.200000 32.446720 -10.350348 1159.919434
4.960000 7.160000 4.800000 7.720747 24.368172 653.417725
4.960000 7.160000 4.840000 1.074235 25.894653 671.687073
4.960000 7.160000 4.880000 -5.871883 23.759521 598.993835
4.960000 7.160000 4.920000 -11.018036 19.491207 501.304291
4.960000 7.160000 4.960000 -15.192970 14.507998 441.308350
4.960000 7.160000 5.000000 -19.259909 7.262379 423.686249
4.960000 7.160000 5.040000 -20.317661 -4.379543 431.987762
4.960000 7.160000 5.080000 -12.993522 -17.922308 490.040741
4.960000 7.160000 5.120000 4.117407 -25.253901 654.712585
4.960000 7.160000 5.160000 24.013378 -18.844450 931.755615
4.960000 7.160000 5.200000 34.884960 0.330499 1217.069702
4.960000 7.200000 4.800000 -10.041725 21.424843 559.860107
4.960000 7.200000 4.840000 -21.169353 10.304268 554.319458
4.960000 7.200000 4.880000 -20.445587 -7.138634 468.982117
4.960000 7.200000 4.920000 -7.103725 -18.008408 374.765656
4.960000 7.200000 4.960000 7.701683 -15.069733 286.412781
4.960000 7.200000 5.000000 12.366309 -4.551304 173.639969
4.960000 7.200000 5.040000 7.161563 0.754208 51.856812
4.960000 7.200000 5.080000 3.563316 -4.195061 30.295757
4.960000 7.200000 5.120000 10.978262 -10.809635 237.370453
4.960000 7.200000 5.160000 25.327835 -6.223124 680.226501
4.960000 7.200000 5.200000 32.223549 12.033968 1183.173462
5.000000 6.800000 4.800000 -35.840866 -13.861307 1476.703491
5.000000 6.800000 4.840000 -20.536549 -19.660528 808.286194
5.000000 6.800000 4.880000 -7.164835 -15.509785 291.888275
5.000000 6.800000 4.920000 -0.585709 -6.463852 42.124439
5.000000 6.800000 4.960000 -0.058731 1.682793 2.835241
5.000000 6.800000 5.000000 -1.581299 7.013280 51.686604
5.000000 6.800000 5.040000 -2.901642 11.746574 146.401535
5.000000 6.800000 5.080000 -5.950775 17.932276 356.978241
5.000000 6.800000 5.120000 -13.857019 23.398544 739.508850
5.000000 6.800000 5.160000 -25.696789 22.919451 1185.626221
5.000000 6.800000 5.200000 -35.199814 14.019355 1435.569214
5.000000 6.840000 4.800000 -26.890509 -20.912016 1160.411865
5.000000 6.840000 4.840000 -27.791744 -13.755173 961.585815
5.000000 6.840000 4.880000 -37.386986 -17.808636 1714.934204
5.000000 6.840000 4.920000 -38.522999 -35.698864 2758.430420
5.000000 6.840000 4.960000 -20.202530 -52.292957 3142.695801
5.000000 6.840000 5.000000 9.182564 -48.963215 2481.716064
5.000000 6.840000 5.040000 27.781567 -22.783012 1290.881104
5.000000 6.840000 5.080000 20.375980 8.779942 492.267944
5.000000 6.840000 5.120000 -7.016623 22.871677 572.346619
5.000000 6.840000 5.160000 -32.397274 11.700573 1186.486816
5.000000 6.840000 5.200000 -37.794937 -11.356839 1557.435059
5.000000 6.880000 4.800000 -20.001968 -23.194607 938.068542
5.000000 6.880000 4.840000 -43.090355 -24.255598 2445.112793
5.000000 6.880000 4.880000 -57.970383 -57.294941 6643.275391
5.000000 6.880000 4.920000 -34.832859 -100.788696 11371.689453
5.000000 6.880000 4.960000 22.774715 -114.534485 13636.835938
5.000000 6.880000 5.000000 76.374451 -78.455826 11988.373047
5.000000 6.880000 5.040000 86.201019 -14.272141 7634.309570
5.000000 6.880000 5.080000 47.688953 32.492119 3329.974121
5.000000 6.880000 5.120000 -5.002846 33.100548 1120.674683
5.000000 6.880000 5.160000 -31.384487 -0.727119 985.514709
5.000000 6.880000 5.200000 -20.446688 -31.885069 1434.724609
5.000000 6.920000 4.800000 -14.859386 -26.523722 924.309204
5.000000 6.920000 4.840000 -44.104790 -53.604774 4818.704102
5.000000 6.920000 4.880000 -34.088684 -111.171692 13521.183594
5.000000 6.920000 4.920000 31.519951 -148.738861 23116.755859
5.000000 6.920000 4.960000 115.256241 -121.706863 28096.562500
5.000000 6.920000 5.000000 155.365051 -37.093159 25514.201172
5.000000 6.920000 5.040000 121.816147 48.457668 17187.320312
5.000000 6.920000 5.080000 43.919571 78.296608 8059.287598
5.000000 6.920000 5.120000 -17.576191 44.878357 2322.989258
5.000000 6.920000 5.160000 -25.655317 -8.744010 734.653015
5.000000 6.920000 5.200000 4.629216 -33.683662 1156.018799
5.000000 6.960000 4.800000 -5.319517 -31.313723 1008.846436
5.000000 6.960000 4.840000 -15.605680 -80.441925 6714.440430
5.000000 6.960000 4.880000 33.339687 -132.468582 18659.460938
5.000000 6.960000 4.920000 123.929977 -128.057831 31757.449219
5.000000 6.960000 4.960000 191.027634 -48.205601 38815.339844
5.000000 6.960000 5.000000 179.098404 61.104210 35809.960938
5.000000 6.960000 5.040000 94.313698 126.214897 24825.273438
5.000000 6.960000 5.080000 -0.261271 110.386658 12185.282227
5.000000 6.960000 5.120000 -41.786819 43.106190 3604.281738
5.000000 6.960000 5.160000 -20.782600 -12.625466 591.318848
5.000000 6.960000 5.200000 19.768019 -19.860798 785.225830
5.000000 7.000000 4.800000 11.114491 -29.788002 1010.856995
5.000000 7.000000 4.840000 30.714432 -77.175148 6899.379883
5.000000 7.000000 4.880000 100.898491 -93.639343 18948.832031
5.000000 7.000000 4.920000 174.682404 -40.291649 32137.359375
5.000000 7.000000 4.960000 188.168564 63.293056 39413.421875
5.000000 7.000000 5.000000 119.968246 149.577164 36765.707031
5.000000 7.000000 5.040000 13.809391 160.846161 26062.187500
5.000000 7.000000 5.080000 -59.149437 99.249046 13349.029297
5.000000 7.000000 5.120000 -61.935310 21.048624 4279.027344
5.000000 7.000000 5.160000 -18.113174 -17.165722 622.749146
5.000000 7.000000 5.200000 19.178154 -6.189065 406.106140
5.000000 7.040000 4.800000 26.360895 -14.516858 905.635986
5.000000 7.040000 4.840000 62.250378 -37.947548 5315.125977
5.000000 7.040000 4.880000 118.638344 -16.112759 14334.677734
5.000000 7.040000 4.920000 145.142181 56.068272 24209.902344
5.000000 7.040000 4.960000 106.292023 135.947968 29779.843750
5.000000 7.040000 5.000000 17.351917 166.745972 28105.308594
5.000000 7.040000 5.040000 -65.581253 127.070503 20447.814453
5.000000 7.040000 5.080000 -93.080841 49.023216 11067.318359
5.000000 7.040000 5.120000 -62.396816 -11.923691 4035.537109
5.000000 7.040000 5.160000 -13.203995 -24.980160 798.353821
5.000000 7.040000 5.200000 13.184017 -4.168748 191.196777
5.000000 7.080000 4.800000 27.163322 10.471712 847.502808
5.000000 7.080000 4.840000 54.413994 11.927406 3103.145752
5.000000 7.080000 4.880000 75.476807 45.801483 7794.524414
5.000000 7.080000 4.920000 61.047798 95.992569 12941.407227
5.000000 7.080000 4.960000 7.163490 126.040260 15937.462891
5.000000 7.080000 5.000000 -57.441742 109.603996 15312.589844
5.000000 7.080000 5.040000 -93.463516 53.813545 11631.326172
5.000000 7.080000 5.080000 -82.833313 -6.396437 6902.272461
5.000000 7.080000 5.120000 -41.227814 -37.412239 3099.408203
5.000000 7.080000 5.160000 -1.297482 -32.184616 1037.532959
5.000000 7.080000 5.200000 15.575768 -9.737563 337.424683
5.000000 7.120000 4.800000 9.063381 29.501379 952.476257
5.000000 7.120000 4.840000 14.525471 36.955120 1576.670166
5.000000 7.120000 4.880000 9.213223 52.769913 2869.547119
5.000000 7.120000 4.920000 -12.050953 64.203064 4267.258789
5.000000 7.120000 4.960000 -41.784317 58.125809 5124.539062
5.000000 7.120000 5.000000 -63.957638 31.585327 5088.212402
5.000000 7.120000 5.040000 -65.092186 -4.900455 4261.007324
5.000000 7.120000 5.080000 -43.750107 -34.028408 3072.004395
5.000000 7.120000 5.120000 -11.272015 -43.101887 1984.830933
5.000000 7.120000 5.160000 16.283283 -31.476255 1255.899902
5.000000 7.120000 5.200000 28.267292 -9.132250 882.437805
5.000000 7.160000 4.800000 -16.133099 28.844681 1092.292480
5.000000 7.160000 4.840000 -24.102604 23.597565 1137.780518
5.000000 7.160000 4.880000 -29.009315 13.697595 1029.164551
5.000000 7.160000 4.920000 -28.338387 3.275513 813.793152
5.000000 7.160000 4.960000 -24.768234 -4.124584 630.477661
5.000000 7.160000 5.000000 -21.848774 -10.091087 579.198975
5.000000 7.160000 5.040000 -18.053764 -18.493252 667.938782
5.000000 7.160000 5.080000 -7.603083 -28.264713 856.700928
5.000000 7.160000 5.120000 11.588935 -31.230160 1109.626221
5.000000 7.160000 5.160000 31.788893 -19.336197 1384.422241
5.000000 7.160000 5.200000 39.554932 5.371463 1593.445312
5.000000 7.200000 4.800000 -29.358112 11.056445 984.143738
5.000000 7.200000 4.840000 -33.074306 -8.229750 1161.638550
5.000000 7.200000 4.880000 -20.460648 -27.227619 1159.981323
5.000000 7.200000 4.920000 2.257083 -31.352783 988.091431
5.000000 7.200000 4.960000 18.353363 -18.676762 685.667358
5.000000 7.200000 5.000000 17.832928 -3.114410 327.712860
5.000000 7.200000 5.040000 8.363091 0.128374 69.957764
5.000000 7.200000 5.080000 6.954302 -8.623992 122.735550
5.000000 7.200000 5.120000 20.609180 -13.339102 602.669922
5.000000 7.200000 5.160000 37.118229 0.069616 1377.767822
5.000000 7.200000 5.200000 36.815002 26.945652 2081.412598
5.040000 6.800000 4.800000 -30.335621 -27.594238 1681.691895
5.040000 6.800000 4.840000 -14.450998 -28.836914 1040.398926
5.040000 6.800000 4.880000 -2.358728 -22.006584 489.853333
5.040000 6.800000 4.920000 3.013321 -11.868816 149.948914
5.040000 6.800000 4.960000 2.892906 -2.946136 17.048626
5.040000 6.800000 5.000000 0.554214 3.424112 12.031699
5.040000 6.800000 5.040000 -2.349794 8.885117 84.466827
5.040000 6.800000 5.080000 -7.289125 14.700489 269.235748
5.040000 6.800000 5.120000 -16.397043 18.841637 623.870300
5.040000 6.800000 5.160000 -28.485771 17.079840 1103.160034
5.040000 6.800000 5.200000 -38.181061 7.526254 1514.437988
5.040000 6.840000 4.800000 -20.839663 -34.877144 1650.706665
5.040000 6.840000 4.840000 -21.532652 -33.902512 1613.035400
5.040000 6.840000 4.880000 -21.151020 -43.104973 2305.404297
5.040000 6.840000 4.920000 -7.766685 -55.049866 3090.809082
5.040000 6.840000 4.960000 17.214294 -54.077999 3220.761963
5.040000 6.840000 5.000000 37.851254 -32.564407 2493.158203
5.040000 6.840000 5.040000 37.510147 -0.400047 1407.171143
5.040000 6.840000 5.080000 14.509569 22.083874 698.225098
5.040000 6.840000 5.120000 -15.610737 21.351931 699.600037
5.040000 6.840000 5.160000 -33.380905 1.718847 1117.239258
5.040000 6.840000 5.200000 -31.446632 -19.844177 1382.682129
5.040000 6.880000 4.800000 -10.050856 -39.398872 1653.290771
5.040000 6.880000 4.840000 -21.771736 -53.651062 3352.445068
5.040000 6.880000 4.880000 -10.574585 -84.670296 7280.880859
5.040000 6.880000 4.920000 32.706440 -101.413483 11354.405273
5.040000 6.880000 4.960000 83.684639 -77.485443 13007.112305
5.040000 6.880000 5.000000 103.971237 -19.460091 11188.713867
5.040000 6.880000 5.040000 76.529198 35.597164 7123.876465
5.040000 6.880000 5.080000 22.042727 52.188160 3209.485840
5.040000 6.880000 5.120000 -19.837524 26.933113 1118.919922
5.040000 6.880000 5.160000 -25.596498 -11.502898 787.497375
5.040000 6.880000 5.200000 -5.218117 -31.316666 1007.962280
5.040000 6.920000 4.800000 3.751641 -40.980721 1693.494263
5.040000 6.920000 4.840000 0.320526 -75.101410 5640.324219
5.040000 6.920000 4.880000 41.015518 -109.590080 13692.257812
5.040000 6.920000 4.920000 110.624168 -99.315453 22101.265625
5.040000 6.920000 4.960000 158.092850 -32.157280 26027.439453
5.040000 6.920000 5.000000 142.386246 53.658363 23153.064453
5.040000 6.920000 5.040000 71.866684 100.971115 15359.986328
5.040000 6.920000 5.080000 -2.320644 84.113770 7080.511719
5.040000 6.920000 5.120000 -32.368286 29.244549 1902.949585
5.040000 6.920000 5.160000 -13.885778 -13.850818 384.660004
5.040000 6.920000 5.200000 17.768417 -18.398529 654.222534
5.040000 6.960000 4.800000 20.630390 -35.107483 1658.148438
5.040000 6.960000 4.840000 40.631546 -74.260559 7165.553223
5.040000 6.960000 4.880000 105.022415 -83.957008 18078.488281
5.040000 6.960000 4.920000 169.303436 -30.186218 29574.861328
5.040000 6.960000 4.960000 175.841644 66.075996 35286.320312
5.040000 6.960000 5.000000 108.838928 141.782608 31948.220703
5.040000 6.960000 5.040000 11.867525 146.947479 21734.400391
5.040000 6.960000 5.080000 -50.434116 88.415756 10360.946289
5.040000 6.960000 5.120000 -48.815891 19.971270 2781.842773
5.040000 6.960000 5.160000 -9.346046 -9.385963 175.444901
5.040000 6.960000 5.200000 19.393829 3.382556 387.562286
5.040000 7.000000 4.800000 34.045166 -17.457203 1463.827271
5.040000 7.000000 4.840000 73.095764 -39.991909 6942.343750
5.040000 7.000000 4.880000 132.776733 -13.068094 17800.435547
5.040000 7.000000 4.920000 157.707214 66.718658 29322.945312
5.040000 7.000000 4.960000 111.883682 150.859589 35276.574219
5.040000 7.000000 5.000000 15.992965 179.222504 32376.480469
5.040000 7.000000 5.040000 -68.106247 133.864349 22558.125000
5.040000 7.000000 5.080000 -91.435463 53.790955 11253.911133
5.040000 7.000000 5.120000 -57.790588 -2.736591 3347.241211
5.040000 7.000000 5.160000 -12.509013 -9.678605 250.150818
5.040000 7.000000 5.200000 4.745894 11.378090 151.984451
5.040000 7.040000 4.800000 33.543198 8.218077 1192.682861
5.040000 7.040000 4.840000 70.973022 10.696851 5151.592773
5.040000 7.040000 4.880000 99.295937 57.336693 13147.178711
5.040000 7.040000 4.920000 78.845734 124.376251 21686.101562
5.040000 7.040000 4.960000 7.330135 161.847595 26248.375000
5.040000 7.040000 5.000000 -73.776260 137.885147 24455.250000
5.040000 7.040000 5.040000 -114.108101 67.638351 17595.605469
5.040000 7.040000 5.080000 -96.998642 -1.020914 9409.778320
5.040000 7.040000 5.120000 -49.420986 -29.959591 3340.010986
5.040000 7.040000 5.160000 -12.471229 -19.785028 546.978882
5.040000 7.040000 5.200000 -4.213974 0.009612 17.757668
5.040000 7.080000 4.800000 14.836269 28.608448 1038.558228
5.040000 7.080000 4.840000 32.658218 43.872826 2991.384033
5.040000 7.080000 4.880000 28.107996 79.250275 7070.665527
5.040000 7.080000 4.920000 -10.553024 106.368217 11425.563477
5.040000 7.080000 4.960000 -65.344406 97.778320 13830.491211
5.040000 7.080000 5.000000 -102.333557 51.884781 13164.187500
5.040000 7.080000 5.040000 -99.915031 -5.306728 10011.174805
5.040000 7.080000 5.080000 -65.131554 -42.435829 6042.918945
5.040000 7.080000 5.120000 -24.281282 -47.204536 2817.849121
5.040000 7.080000 5.160000 0.741258 -31.121874 969.120483
5.040000 7.080000 5.200000 7.145389 -13.677217 238.122833
5.040000 7.120000 4.800000 -12.836915 30.371368 1087.206421
5.040000 7.120000 4.840000 -14.272716 38.017548 1649.044434
5.040000 7.120000 4.880000 -28.546320 44.339520 2780.885498
5.040000 7.120000 4.920000 -49.969223 37.403866 3895.972656
5.040000 7.120000 4.960000 -65.306328 14.742844 4482.268066
5.040000 7.120000 5.000000 -64.383987 -15.045654 4371.669434
5.040000 7.120000 5.040000 -46.748917 -39.361229 3734.767578
5.040000 7.120000 5.080000 -20.075806 -49.799786 2883.056641
5.040000 7.120000 5.120000 5.898551 -45.169262 2075.055176
5.040000 7.120000 5.160000 23.907131 -29.415251 1436.807861
5.040000 7.120000 5.200000 30.167660 -8.717292 986.078857
5.040000 7.160000 4.800000 -31.727497 12.910940 1173.326416
5.040000 7.160000 4.840000 -36.674809 3.409906 1356.669067
5.040000 7.160000 4.880000 -35.759701 -10.822195 1395.876099
5.040000 7.160000 4.920000 -26.388245 -22.715141 1212.317139
5.040000 7.160000 4.960000 -13.957407 -26.862274 916.390991
5.040000 7.160000 5.000000 -5.157837 -25.936180 699.288696
5.040000 7.160000 5.040000 0.578667 -26.570164 706.308411
5.040000 7.160000 5.080000 10.186954 -29.474283 972.507446
5.040000 7.160000 5.120000 26.715034 -26.450535 1413.323853
5.040000 7.160000 5.160000 41.894821 -9.530987 1846.015747
5.040000 7.160000 5.200000 41.876556 17.250572 2051.228271
5.040000 7.200000 4.800000 -30.595459 -9.011108 1017.282166
5.040000 7.200000 4.840000 -25.013657 -27.985888 1408.892944
5.040000 7.200000 4.880000 -3.871268 -40.544209 1658.819580
5.040000 7.200000 4.920000 21.429482 -34.265053 1633.316528
5.040000 7.200000 4.960000 33.148911 -13.406071 1278.572998
5.040000 7.200000 5.000000 26.290674 3.863132 706.123291
5.040000 7.200000 5.040000 14.720135 4.697265 238.746674
5.040000 7.200000 5.080000 16.013742 -3.913223 271.753265
5.040000 7.200000 5.120000 31.035683 -2.532311 969.626221
5.040000 7.200000 5.160000 41.334267 18.331451 2044.563721
5.040000 7.200000 5.200000 28.617302 45.343712 2875.002197
5.080000 6.800000 4.800000 -20.754044 -35.112003 1663.583130
5.080000 6.800000 4.840000 -4.597573 -34.129730 1185.976196
5.080000 6.800000 4.880000 7.698570 -24.710079 669.856018
5.080000 6.800000 4.920000 12.008247 -11.428270 274.803345
5.080000 6.800000 4.960000 8.912117 -0.203568 79.467270
5.080000 6.800000 5.000000 2.780773 6.181805 45.947411
5.080000 6.800000 5.040000 -2.793387 9.544880 98.907753
5.080000 6.800000 5.080000 -8.441395 12.828117 235.817749
5.080000 6.800000 5.120000 -17.285089 15.364852 534.853027
5.080000 6.800000 5.160000 -29.597130 12.529119 1032.968994
5.080000 6.800000 5.200000 -40.013138 0.834995 1601.748413
5.080000 6.840000 4.800000 -8.404050 -44.724091 2070.872314
5.080000 6.840000 4.840000 -1.069624 -46.433811 2157.242920
5.080000 6.840000 4.880000 10.602646 -48.510628 2465.697021
5.080000 6.840000 4.920000 27.392258 -43.595936 2650.941406
5.080000 6.840000 4.960000 41.532513 -26.384125 2421.071533
5.080000 6.840000 5.000000 42.409733 -0.913300 1799.419556
5.080000 6.840000 5.040000 26.179138 20.575138 1108.683594
5.080000 6.840000 5.080000 0.180971 26.579655 706.510803
5.080000 6.840000 5.120000 -22.052116 15.102786 714.390015
5.080000 6.840000 5.160000 -30.609093 -5.467422 966.809265
5.080000 6.840000 5.200000 -25.262711 -23.509953 1190.922363
5.080000 6.880000 4.800000 10.072231 -47.807777 2387.033447
5.080000 6.880000 4.840000 16.975260 -59.462574 3823.957031
5.080000 6.880000 4.880000 42.302521 -67.606110 6360.089355
5.080000 6.880000 4.920000 76.836105 -52.235786 8632.364258
5.080000 6.880000 4.960000 95.365295 -10.368111 9202.038086
5.080000 6.880000 5.000000 79.407196 36.757767 7656.636230
5.080000 6.880000 5.040000 35.695038 60.072060 4882.788086
5.080000 6.880000 5.080000 -8.143127 47.517448 2324.218506
5.080000 6.880000 5.120000 -26.919271 13.490189 906.632324
5.080000 6.880000 5.160000 -17.702353 -15.558523 555.440918
5.080000 6.880000 5.200000 1.947999 -24.363310 597.365540
5.080000 6.920000 4.800000 30.397299 -39.509319 2484.982178
5.080000 6.920000 4.840000 48.171211 -56.733116 5539.112305
5.080000 6.920000 4.880000 89.694458 -53.428719 10899.723633
5.080000 6.920000 4.920000 126.083336 -10.924936 16016.362305
5.080000 6.920000 4.960000 122.308830 54.532608 17933.255859
5.080000 6.920000 5.000000 71.584770 101.733017 15473.986328
5.080000 6.920000 5.040000 4.682873 100.266907 10075.381836
5.080000 6.920000 5.080000 -36.161507 57.357231 4597.506836
5.080000 6.920000 5.120000 -33.430420 9.598648 1209.727051
5.080000 6.920000 5.160000 -5.622291 -11.215755 157.403320
5.080000 6.920000 5.200000 15.213422 -3.907877 246.719696
5.080000 6.960000 4.800000 44.007477 -18.678400 2285.540527
5.080000 6.960000 4.840000 74.597404 -28.268520 6363.882324
5.080000 6.960000 4.880000 116.814316 -0.514385 13645.848633
5.080000 6.960000 4.920000 129.051636 64.442474 20807.156250
5.080000 6.960000 4.960000 86.684769 127.752151 23834.861328
5.080000 6.960000 5.000000 9.180920 144.461609 20953.445312
5.080000 6.960000 5.040000 -54.493176 104.467941 13883.056641
5.080000 6.960000 5.080000 -68.686584 41.149918 6411.162109
5.080000 6.960000 5.120000 -40.134048 -0.335007 1610.854004
5.080000 6.960000 5.160000 -5.970565 -2.812467 43.557621
5.080000 6.960000 5.200000 4.496857 13.835276 211.636581
5.080000 7.000000 4.800000 42.137894 8.303854 1844.556030
5.080000 7.000000 4.840000 74.406731 15.671054 5781.943359
5.080000 7.000000 4.880000 95.790436 61.668289 12978.785156
5.080000 7.000000 4.920000 71.515182 122.684341 20165.869141
5.080000 7.000000 4.960000 2.728196 152.898956 23385.535156
5.080000 7.000000 5.000000 -70.095970 126.185295 20836.173828
5.080000 7.000000 5.040000 -101.984764 60.807980 14098.502930
5.080000 7.000000 5.080000 -82.406372 2.343513 6796.302246
5.080000 7.000000 5.120000 -40.498436 -17.477121 1945.572998
5.080000 7.000000 5.160000 -13.703182 -5.033518 213.113510
5.080000 7.000000 5.200000 -13.396598 9.428350 268.362640
5.080000 7.040000 4.800000 22.935476 28.759535 1353.146973
5.080000 7.040000 4.840000 42.184704 48.645206 4145.905273
5.080000 7.040000 4.880000 34.881660 90.408585 9390.442383
5.080000 7.040000 4.920000 -11.231602 120.492714 14644.642578
5.080000 7.040000 4.960000 -73.067444 108.290390 17065.660156
5.080000 7.040000 5.000000 -110.963646 55.599060 15404.185547
5.080000 7.040000 5.040000 -103.657120 -4.439520 10764.507812
5.080000 7.040000 5.080000 -65.060791 -37.272606 5622.153809
5.080000 7.040000 5.120000 -27.859488 -35.472794 2034.470215
5.080000 7.040000 5.160000 -12.607277 -19.007944 520.245361
5.080000 7.040000 5.200000 -13.557495 -10.552727 295.165710
5.080000 7.080000 4.800000 -4.545888 31.509193 1013.494385
5.080000 7.080000 4.840000 -3.032862 49.039452 2414.066162
5.080000 7.080000 4.880000 -25.253599 66.697205 5086.261230
5.080000 7.080000 4.920000 -62.635887 61.401787 7693.433594
5.080000 7.080000 4.960000 -90.048447 27.538967 8867.117188
5.080000 7.080000 5.000000 -88.391014 -17.283356 8111.685547
5.080000 7.080000 5.040000 -60.591766 -48.259548 6000.345703
5.080000 7.080000 5.080000 -26.377876 -54.146729 3627.660645
5.080000 7.080000 5.120000 -3.330242 -42.879448 1849.737549
5.080000 7.080000 5.160000 5.875378 -29.307201 893.432129
5.080000 7.080000 5.200000 9.316861 -20.350533 500.948059
5.080000 7.120000 4.800000 -24.909597 15.999646 876.476685
5.080000 7.120000 4.840000 -31.896885 19.170368 1384.914307
5.080000 7.120000 4.880000 -45.638329 12.172026 2231.015137
5.080000 7.120000 4.920000 -53.351406 -7.517986 2902.892578
5.080000 7.120000 4.960000 -46.397129 -30.396400 3076.634766
5.080000 7.120000 5.000000 -27.700544 -44.823067 2776.427490
5.080000 7.120000 5.040000 -6.861488 -47.103642 2265.833008
5.080000 7.120000 5.080000 9.697182 -41.479309 1814.568359
5.080000 7.120000 5.120000 22.013756 -32.390327 1533.738770
5.080000 7.120000 5.160000 31.204773 -19.767115 1364.476685
5.080000 7.120000 5.200000 34.217552 -2.806959 1178.719849
5.080000 7.160000 4.800000 -27.707815 -5.874663 802.234680
5.080000 7.160000 4.840000 -29.245760 -16.330427 1121.997314
5.080000 7.160000 4.880000 -21.556219 -30.714109 1408.027100
5.080000 7.160000 4.920000 -3.934134 -37.999416 1459.433105
5.080000 7.160000 4.960000 13.477972 -32.544395 1240.793457
5.080000 7.160000 5.000000 21.222088 -20.935331 888.665100
5.080000 7.160000 5.040000 21.395679 -13.907810 651.202271
5.080000 7.160000 5.080000 24.322239 -12.962284 759.592102
5.080000 7.160000 5.120000 34.463406 -8.246319 1255.728149
5.080000 7.160000 5.160000 42.652687 8.679202 1894.580322
5.080000 7.160000 5.200000 35.216915 31.809319 2252.063965
5.080000 7.200000 4.800000 -16.062777 -18.697117 607.594971
5.080000 7.200000 4.840000 -5.999935 -32.292339 1078.794434
5.080000 7.200000 4.880000 16.976379 -36.139561 1594.265381
5.080000 7.200000 4.920000 38.476856 -20.887094 1916.739258
5.080000 7.200000 4.960000 42.246731 4.339128 1803.614258
5.080000 7.200000 5.000000 28.697618 20.207968 1231.915283
5.080000 7.200000 5.040000 15.268986 18.257250 566.469116
5.080000 7.200000 5.080000 16.926468 10.586843 398.586548
5.080000 7.200000 5.120000 28.460720 16.000881 1066.040771
5.080000 7.200000 5.160000 29.494682 37.292656 2260.678467
5.080000 7.200000 5.200000 7.937104 55.671806 3162.347656
5.120000 6.800000 4.800000 -11.646759 -37.942669 1575.293091
5.120000 6.800000 4.840000 6.246901 -34.031281 1197.151855
5.120000 6.800000 4.880000 17.778990 -19.723238 705.098572
5.120000 6.800000 4.920000 17.563087 -2.799358 316.298431
5.120000 6.800000 4.960000 8.552466 7.950294 136.351868
5.120000 6.800000 5.000000 -1.136908 10.321129 107.818268
5.120000 6.800000 5.040000 -6.570730 9.496456 133.357178
5.120000 6.800000 5.080000 -10.524097 10.920007 230.003174
5.120000 6.800000 5.120000 -18.929657 13.013818 527.691345
5.120000 6.800000 5.160000 -32.030140 8.260097 1094.159058
5.120000 6.800000 5.200000 -41.369823 -7.845606 1773.015869
5.120000 6.840000 4.800000 7.774384 -47.619499 2328.057617
5.120000 6.840000 4.840000 23.405481 -42.186665 2327.531250
5.120000 6.840000 4.880000 35.526299 -29.309252 2121.150146
5.120000 6.840000 4.920000 40.117367 -11.510109 1741.885742
5.120000 6.840000 4.960000 35.300434 6.451588 1287.743530
5.120000 6.840000 5.000000 22.301842 19.543728 879.329468
5.120000 6.840000 5.040000 4.794189 24.308470 613.885925
5.120000 6.840000 5.080000 -12.465504 19.632469 540.822632
5.120000 6.840000 5.120000 -24.725842 6.773844 657.252197
5.120000 6.840000 5.160000 -28.194710 -10.686245 909.137451
5.120000 6.840000 5.200000 -21.349854 -27.211224 1196.266968
5.120000 6.880000 4.800000 32.971466 -42.197071 2867.710449
5.120000 6.880000 4.840000 48.437870 -36.124077 3651.176270
5.120000 6.880000 4.880000 63.754265 -19.915071 4461.216309
5.120000 6.880000 4.920000 69.367416 7.071693 4861.847168
5.120000 6.880000 4.960000 57.040684 35.817516 4536.534180
5.120000 6.880000 5.000000 28.554413 52.193878 3539.555420
5.120000 6.880000 5.040000 -3.318485 47.566597 2273.593506
5.120000 6.880000 5.080000 -23.401688 25.839497 1215.318604
5.120000 6.880000 5.120000 -24.883125 0.337996 619.284180
5.120000 6.880000 5.160000 -12.747957 -16.482813 434.193512
5.120000 6.880000 5.200000 2.431441 -21.063499 449.582916
5.120000 6.920000 4.800000 50.905327 -19.824844 2984.376709
5.120000 6.920000 4.840000 67.242004 -10.598818 4633.822266
5.120000 6.920000 4.880000 81.088638 14.659303 6790.262207
5.120000 6.920000 4.920000 75.938828 51.559677 8425.105469
5.120000 6.920000 4.960000 44.876217 80.877472 8555.040039
5.120000 6.920000 5.000000 0.523575 83.516678 6975.309570
5.120000 6.920000 5.040000 -33.051254 57.701935 4421.898438
5.120000 6.920000 5.080000 -39.753609 21.292158 2033.705322
5.120000 6.920000 5.120000 -23.791992 -3.471493 578.110168
5.120000 6.920000 5.160000 -3.390623 -7.984387 75.246765
5.120000 6.920000 5.200000 6.928317 -1.008879 49.019417
5.120000 6.960000 4.800000 50.377754 10.290216 2643.806885
5.120000 6.960000 4.840000 64.436157 25.390511 4796.696777
5.120000 6.960000 4.880000 67.138321 58.203629 7895.216797
5.120000 6.960000 4.920000 42.470203 93.160782 10482.649414
5.120000 6.960000 4.960000 -4.770137 105.055786 11059.471680
5.120000 6.960000 5.000000 -49.179321 82.272186 9187.318359
5.120000 6.960000 5.040000 -65.635376 38.918442 5822.647461
5.120000 6.960000 5.080000 -50.823425 2.957621 2591.768066
5.120000 6.960000 5.120000 -24.172220 -8.132342 650.431213
5.120000 6.960000 5.160000 -8.026669 -0.173565 64.457535
5.120000 6.960000 5.200000 -7.702692 7.976603 122.957657
5.120000 7.000000 4.800000 30.543888 32.790806 2008.166016
5.120000 7.000000 4.840000 36.769764 52.018166 4057.905273
5.120000 7.000000 4.880000 22.927523 81.505524 7168.821777
5.120000 7.000000 4.920000 -15.998322 97.921448 9844.556641
5.120000 7.000000 4.960000 -61.138287 82.522797 10547.902344
5.120000 7.000000 5.000000 -84.745941 40.565609 8827.443359
5.120000 7.000000 5.040000 -75.029709 -2.009470 5633.495117
5.120000 7.000000 5.080000 -45.864525 -21.704878 2574.656494
5.120000 7.000000 5.120000 -22.054260 -17.100210 778.807556
5.120000 7.000000 5.160000 -15.934106 -5.929195 289.051086
5.120000 7.000000 5.200000 -19.139669 -4.410449 385.778992
5.120000 7.040000 4.800000 2.491412 36.452648 1335.002686
5.120000 7.040000 4.840000 -1.568315 52.965618 2807.816406
5.120000 7.040000 4.880000 -25.815332 66.520027 5091.345703
5.120000 7.040000 4.920000 -60.748306 57.718517 7021.784180
5.120000 7.040000 4.960000 -83.140152 24.180820 7496.996582
5.120000 7.040000 5.000000 -77.629578 -15.466088 6265.551270
5.120000 7.040000 5.040000 -50.807491 -38.445358 4059.446777
5.120000 7.040000 5.080000 -23.677298 -37.988632 2003.750732
5.120000 7.040000 5.120000 -11.204716 -26.503677 827.990540
5.120000 7.040000 5.160000 -10.482924 -20.078436 513.035278
5.120000 7.040000 5.200000 -8.419086 -22.044979 556.862122
5.120000 7.080000 4.800000 -18.176580 22.142092 820.660278
5.120000 7.080000 4.840000 -28.300423 28.880241 1634.982300
5.120000 7.080000 4.880000 -48.175297 23.125370 2855.641846
5.120000 7.080000 4.920000 -61.603504 -0.205956 3795.034180
5.120000 7.080000 4.960000 -55.424980 -29.233225 3926.509766
5.120000 7.080000 5.000000 -32.670204 -46.509212 3230.449219
5.120000 7.080000 5.040000 -8.742018 -45.519302 2148.429688
5.120000 7.080000 5.080000 4.237409 -34.817719 1230.229248
5.120000 7.080000 5.120000 7.574979 -26.665310 768.419067
5.120000 7.080000 5.160000 10.667731 -23.999041 689.754456
5.120000 7.080000 5.200000 17.923605 -19.930851 718.494446
5.120000 7.120000 4.800000 -22.413599 1.815598 505.665802
5.120000 7.120000 4.840000 -30.185352 -2.654068 918.199585
5.120000 7.120000 4.880000 -33.524330 -18.275494 1457.874390
5.120000 7.120000 4.920000 -22.822611 -35.742371 1798.388672
5.120000 7.120000 4.960000 -2.045422 -41.880718 1758.178223
5.120000 7.120000 5.000000 15.567461 -33.860054 1388.849121
5.120000 7.120000 5.040000 21.866852 -21.270370 930.587891
5.120000 7.120000 5.080000 21.374397 -14.256475 660.111938
5.120000 7.120000 5.120000 23.730387 -12.190722 711.744934
5.120000 7.120000 5.160000 30.665882 -6.201128 978.850281
5.120000 7.120000 5.200000 33.471355 7.925028 1183.137695
5.120000 7.160000 4.800000 -13.679196 -11.002733 308.180542
5.120000 7.160000 4.840000 -12.798303 -21.495775 625.864929
5.120000 7.160000 4.880000 0.754542 -32.268459 1041.822754
5.120000 7.160000 4.920000 21.943829 -29.859711 1373.133911
5.120000 7.160000 4.960000 35.556595 -12.838706 1429.103882
5.120000 7.160000 5.000000 33.235176 5.631890 1136.295044
5.120000 7.160000 5.040000 22.892515 12.463634 679.409424
5.120000 7.160000 5.080000 19.104626 9.433676 453.980957
5.120000 7.160000 5.120000 25.477871 10.382565 756.919556
5.120000 7.160000 5.160000 29.965401 23.686546 1458.977783
5.120000 7.160000 5.200000 19.381439 40.565971 2021.238281
5.120000 7.200000 4.800000 -3.786220 -11.575809 148.334824
5.120000 7.200000 4.840000 5.933651 -20.978504 475.305847
5.120000 7.200000 4.880000 26.257427 -18.427862 1029.038574
5.120000 7.200000 4.920000 40.387829 1.835556 1634.546021
5.120000 7.200000 4.960000 34.843510 26.503748 1916.518799
5.120000 7.200000 5.000000 15.427063 36.953773 1603.575684
5.120000 7.200000 5.040000 1.304320 29.982258 900.637024
5.120000 7.200000 5.080000 3.305362 21.259125 462.875793
5.120000 7.200000 5.120000 11.418650 26.748817 845.884766
5.120000 7.200000 5.160000 6.637100 43.179363 1908.508545
5.120000 7.200000 5.200000 -15.760351 50.649628 2813.773438
5.160000 6.800000 4.800000 -3.739328 -38.872391 1525.045288
5.160000 6.800000 4.840000 14.439507 -29.209274 1061.681030
5.160000 6.800000 4.880000 20.925665 -10.088261 539.656433
5.160000 6.800000 4.920000 13.308880 6.278069 216.540436
5.160000 6.800000 4.960000 -0.036433 11.455366 131.226746
5.160000 6.800000 5.000000 -8.660244 7.993740 138.899704
5.160000 6.800000 5.040000 -10.512904 5.104058 136.572571
5.160000 6.800000 5.080000 -12.843668 7.388783 219.553925
5.160000 6.800000 5.120000 -22.349630 8.992007 580.362183
5.160000 6.800000 5.160000 -35.307724 0.165480 1246.662720
5.160000 6.800000 5.200000 -39.160797 -20.365185 1948.308716
5.160000 6.840000 4.800000 23.123093 -42.200699 2315.576416
5.160000 6.840000 4.840000 37.650497 -24.092503 1998.008545
5.160000 6.840000 4.880000 37.401653 -1.791550 1402.093262
5.160000 6.840000 4.920000 25.092628 13.530607 812.717346
5.160000 6.840000 4.960000 9.968954 17.828211 417.225128
5.160000 6.840000 5.000000 -1.127743 15.331882 236.338425
5.160000 6.840000 5.040000 -8.592040 11.735186 211.537735
5.160000 6.840000 5.080000 -16.283491 7.376667 319.567291
5.160000 6.840000 5.120000 -24.101147 -1.990863 584.828857
5.160000 6.840000 5.160000 -25.807901 -17.945343 988.083130
5.160000 6.840000 5.200000 -15.173875 -34.138527 1395.685425
5.160000 6.880000 4.800000 47.690590 -23.892498 2845.243652
5.160000 6.880000 4.840000 53.365456 -0.627240 2848.265137
5.160000 6.880000 4.880000 44.764088 21.042227 2446.598877
5.160000 6.880000 4.920000 27.220924 33.205502 1843.583984
5.160000 6.880000 4.960000 8.655815 34.392406 1257.760742
5.160000 6.880000 5.000000 -5.829309 27.977009 816.693848
5.160000 6.880000 5.040000 -15.141350 17.694181 542.344482
5.160000 6.880000 5.080000 -19.479643 5.267548 407.203552
5.160000 6.880000 5.120000 -17.877771 -8.151026 386.053955
5.160000 6.880000 5.160000 -9.102230 -19.478226 462.251862
5.160000 6.880000 5.200000 5.389355 -23.925926 601.495117
5.160000 6.920000 4.800000 53.429707 8.120476 2920.675781
5.160000 6.920000 4.840000 48.439293 30.461569 3274.272217
5.160000 6.920000 4.880000 32.032322 47.032776 3238.151855
5.160000 6.920000 4.920000 9.907679 52.434742 2847.564209
5.160000 6.920000 4.960000 -10.532443 46.014824 2228.296387
5.160000 6.920000 5.000000 -23.474640 31.462559 1540.951294
5.160000 6.920000 5.040000 -26.706738 14.634451 927.416992
5.160000 6.920000 5.080000 -21.775555 0.853738 474.903656
5.160000 6.920000 5.120000 -12.437834 -7.041830 204.287079
5.160000 6.920000 5.160000 -2.449765 -8.991249 86.843910
5.160000 6.920000 5.200000 5.911822 -6.431482 76.313606
5.160000 6.960000 4.800000 35.869617 35.403454 2540.034180
5.160000 6.960000 4.840000 22.645208 51.042328 3118.124756
5.160000 6.960000 4.880000 1.519443 58.427284 3416.056152
5.160000 6.960000 4.920000 -21.182587 53.307400 3290.380859
5.160000 6.960000 4.960000 -37.028862 36.887817 2731.847656
5.160000 6.960000 5.000000 -40.494473 16.291594 1905.218262
5.160000 6.960000 5.040000 -32.861099 0.434251 1080.040405
5.160000 6.960000 5.080000 -21.161926 -5.990492 483.713104
5.160000 6.960000 5.120000 -12.497716 -5.175087 182.974426
5.160000 6.960000 5.160000 -8.711796 -2.936389 84.517769
5.160000 6.960000 5.200000 -6.409964 -2.625690 47.981884
5.160000 7.000000 4.800000 6.432566 42.844147 1876.998779
5.160000 7.000000 4.840000 -9.840802 48.907570 2488.791748
5.160000 7.000000 4.880000 -30.140242 45.047508 2937.712158
5.160000 7.000000 4.920000 -46.069218 29.090012 2968.601562
5.160000 7.000000 4.960000 -49.426437 6.922417 2490.892578
5.160000 7.000000 5.000000 -39.581020 -10.623275 1679.511230
5.160000 7.000000 5.040000 -24.741276 -16.383715 880.556885
5.160000 7.000000 5.080000 -14.977478 -12.723738 386.218353
5.160000 7.000000 5.120000 -13.378782 -8.497866 251.205536
5.160000 7.000000 5.160000 -14.287665 -9.881999 301.791290
5.160000 7.000000 5.200000 -10.365932 -14.422699 315.466797
5.160000 7.040000 4.800000 -16.652449 29.893717 1170.938354
5.160000 7.040000 4.840000 -30.684288 27.100044 1675.937988
5.160000 7.040000 4.880000 -43.674961 13.728259 2095.967285
5.160000 7.040000 4.920000 -45.949013 -7.227150 2163.543457
5.160000 7.040000 4.960000 -34.234444 -24.703659 1782.267944
5.160000 7.040000 5.000000 -16.325020 -29.219673 1120.295654
5.160000 7.040000 5.040000 -4.470962 -22.081280 507.572418
5.160000 7.040000 5.080000 -3.759633 -13.965819 209.178955
5.160000 7.040000 5.120000 -7.739248 -13.915795 253.545319
5.160000 7.040000 5.160000 -6.032503 -20.259052 446.820282
5.160000 7.040000 5.200000 4.168806 -23.084885 550.290894
5.160000 7.080000 4.800000 -22.586901 9.599472 602.317932
5.160000 7.080000 4.840000 -31.034075 1.041990 964.199524
5.160000 7.080000 4.880000 -32.274803 -16.034086 1298.754883
5.160000 7.080000 4.920000 -19.851702 -31.761227 1402.865601
5.160000 7.080000 4.960000 0.249331 -34.467255 1188.053833
5.160000 7.080000 5.000000 14.213090 -23.287739 744.330688
5.160000 7.080000 5.040000 14.229167 -9.784584 298.207275
5.160000 7.080000 5.080000 6.419673 -6.101738 78.443413
5.160000 7.080000 5.120000 3.864830 -12.390169 168.453201
5.160000 7.080000 5.160000 12.209394 -17.302303 448.438995
5.160000 7.080000 5.200000 23.720882 -10.997618 683.627808
5.160000 7.120000 4.800000 -15.082033 -3.283067 238.246262
5.160000 7.120000 4.840000 -16.998632 -14.099659 487.753876
5.160000 7.120000 4.880000 -6.723241 -27.300224 790.504211
5.160000 7.120000 4.920000 13.486726 -29.225620 1036.028687
5.160000 7.120000 4.960000 29.263868 -15.185364 1086.969238
5.160000 7.120000 5.000000 29.038750 3.975669 859.054932
5.160000 7.120000 5.040000 16.772303 12.743698 443.711975
5.160000 7.120000 5.080000 7.742695 7.441488 115.325058
5.160000 7.120000 5.120000 11.713879 -0.254918 137.279938
5.160000 7.120000 5.160000 22.415440 3.073759 511.899933
5.160000 7.120000 5.200000 25.208359 17.290749 934.431396
5.160000 7.160000 4.800000 -6.685900 -4.261666 62.863056
5.160000 7.160000 4.840000 -2.574718 -14.679964 222.130508
5.160000 7.160000 4.880000 14.220997 -18.483944 543.892944
5.160000 7.160000 4.920000 31.153099 -5.511967 1000.897339
5.160000 7.160000 4.960000 32.523209 17.075867 1349.344360
5.160000 7.160000 5.000000 17.333817 31.418079 1287.556885
5.160000 7.160000 5.040000 0.991922 28.301582 801.963440
5.160000 7.160000 5.080000 -1.675625 17.124529 296.057190
5.160000 7.160000 5.120000 7.221330 14.767017 270.212402
5.160000 7.160000 5.160000 11.744589 26.009216 814.414673
5.160000 7.160000 5.200000 1.237806 38.109295 1453.850464
5.160000 7.200000 4.800000 -6.317805 -0.733748 40.453053
5.160000 7.200000 4.840000 2.962626 -8.899174 87.972443
5.160000 7.200000 4.880000 19.448793 -2.510357 384.557434
5.160000 7.200000 4.920000 25.067085 18.443108 968.506958
5.160000 7.200000 4.960000 11.537901 37.074966 1507.676270
5.160000 7.200000 5.000000 -9.638536 38.135956 1547.252441
5.160000 7.200000 5.040000 -19.862850 25.018154 1020.440796
5.160000 7.200000 5.080000 -14.327932 15.458306 444.248871
5.160000 7.200000 5.120000 -6.878700 20.697496 475.702850
5.160000 7.200000 5.160000 -13.038696 32.374577 1218.120728
5.160000 7.200000 5.200000 -30.934408 32.651020 2023.026733
5.200000 6.800000 4.800000 4.056573 -38.699394 1514.098877
5.200000 6.800000 4.840000 17.767590 -23.333855 860.156006
5.200000 6.800000 4.880000 16.364891 -4.352798 286.756531
5.200000 6.800000 4.920000 3.991226 5.731070 48.775043
5.200000 6.800000 4.960000 -7.521519 3.993313 72.519791
5.200000 6.800000 5.000000 -10.795498 -1.553343 118.955650
5.200000 6.800000 5.040000 -9.705067 -2.001930 98.196037
5.200000 6.800000 5.080000 -13.516187 1.919470 186.371674
5.200000 6.800000 5.120000 -24.659801 0.484473 608.340576
5.200000 6.800000 5.160000 -33.765526 -13.383041 1319.216553
5.200000 6.800000 5.200000 -28.214991 -33.858753 1942.500854
5.200000 6.840000 4.800000 32.533188 -30.916412 2014.232910
5.200000 6.840000 4.840000 35.871567 -5.746706 1319.793945
5.200000 6.840000 4.880000 21.437252 12.094063 605.822144
5.200000 6.840000 4.920000 2.705217 13.535318 190.523056
5.200000 6.840000 4.960000 -7.074935 4.488234 70.198944
5.200000 6.840000 5.000000 -6.879092 -2.580419 53.980476
5.200000 6.840000 5.040000 -6.156930 -2.583180 44.580612
5.200000 6.840000 5.080000 -12.043962 -2.291753 150.309174
5.200000 6.840000 5.120000 -20.003967 -10.954250 520.154297
5.200000 6.840000 5.160000 -18.216524 -27.740021 1101.350464
5.200000 6.840000 5.200000 -1.125676 -40.006653 1601.799316
5.200000 6.880000 4.800000 47.723255 -2.874940 2285.774414
5.200000 6.880000 4.840000 34.673378 22.041048 1688.051025
5.200000 6.880000 4.880000 10.364920 28.762165 934.693726
5.200000 6.880000 4.920000 -7.103663 17.988483 374.047577
5.200000 6.880000 4.960000 -9.688704 3.633891 107.076141
5.200000 6.880000 5.000000 -4.358228 -2.452453 25.008673
5.200000 6.880000 5.040000 -2.675981 -1.335751 8.945107
5.200000 6.880000 5.080000 -7.270042 -2.912627 61.336903
5.200000 6.880000 5.120000 -9.675303 -12.652779 253.704285
5.200000 6.880000 5.160000 -1.015049 -24.119850 582.797485
5.200000 6.880000 5.200000 16.687399 -25.166399 911.816895
5.200000 6.920000 4.800000 38.193436 28.293709 2259.272461
5.200000 6.920000 4.840000 12.474057 41.118835 1846.360718
5.200000 6.920000 4.880000 -11.836753 31.992241 1163.612183
5.200000 6.920000 4.920000 -19.780144 12.064793 536.813293
5.200000 6.920000 4.960000 -12.390125 -1.954218 157.334167
5.200000 6.920000 5.000000 -2.510519 -3.311085 17.265987
5.200000 6.920000 5.040000 -0.372584 1.123518 1.401111
5.200000 6.920000 5.080000 -4.257853 0.912701 18.962336
5.200000 6.920000 5.120000 -4.792154 -5.975626 58.672852
5.200000 6.920000 5.160000 3.297978 -11.706997 147.930435
5.200000 6.920000 5.200000 14.939838 -7.877638 285.255951
5.200000 6.960000 4.800000 10.516308 42.985531 1958.348633
5.200000 6.960000 4.840000 -16.554258 38.448280 1752.313721
5.200000 6.960000 4.880000 -30.641926 17.231857 1235.864502
5.200000 6.960000 4.920000 -25.227859 -3.957213 652.104431
5.200000 6.960000 4.960000 -9.576903 -11.378096 221.178131
5.200000 6.960000 5.000000 1.442238 -5.128336 28.379879
5.200000 6.960000 5.040000 0.971656 3.710532 14.712165
5.200000 6.960000 5.080000 -5.653106 5.157041 58.552673
5.200000 6.960000 5.120000 -8.526117 -0.785880 73.312286
5.200000 6.960000 5.160000 -3.594302 -6.171577 51.007374
5.200000 6.960000 5.200000 4.273809 -4.261633 36.426956
5.200000 7.000000 4.800000 -16.322651 34.744843 1473.633057
5.200000 7.000000 4.840000 -33.795025 17.339775 1442.771484
5.200000 7.000000 4.880000 -33.312874 -6.685637 1154.445312
5.200000 7.000000 4.920000 -16.825033 -21.136639 729.839233
5.200000 7.000000 4.960000 1.838203 -18.225658 335.553619
5.200000 7.000000 5.000000 9.019238 -4.309176 99.915649
5.200000 7.000000 5.040000 2.303027 6.815680 51.757420
5.200000 7.000000 5.080000 -9.039156 6.238142 120.620758
5.200000 7.000000 5.120000 -13.572717 -3.369000 195.568802
5.200000 7.000000 5.160000 -7.770044 -11.864547 201.141052
5.200000 7.000000 5.200000 2.191139 -11.566628 138.587982
5.200000 7.040000 4.800000 -26.917755 14.289547 928.756714
5.200000 7.040000 4.840000 -31.171562 -6.145366 1009.431763
5.200000 7.040000 4.880000 -19.008104 -24.422142 957.749084
5.200000 7.040000 4.920000 2.362132 -27.897488 783.849487
5.200000 7.040000 4.960000 17.822357 -14.787536 536.307617
5.200000 7.040000 5.000000 16.883389 3.540574 297.584473
5.200000 7.040000 5.040000 2.733808 12.077177 153.331909
5.200000 7.040000 5.080000 -10.820311 5.087391 142.960678
5.200000 7.040000 5.120000 -11.823268 -9.456657 229.218018
5.200000 7.040000 5.160000 -0.401183 -17.885063 320.036438
5.200000 7.040000 5.200000 12.543554 -13.324005 334.869873
5.200000 7.080000 4.800000 -21.265169 -1.399958 454.167297
5.200000 7.080000 4.840000 -16.344793 -17.372648 568.961182
5.200000 7.080000 4.880000 1.063070 -26.344963 695.187195
5.200000 7.080000 4.920000 20.847466 -19.099762 799.417725
5.200000 7.080000 4.960000 28.240824 0.755066 798.114258
5.200000 7.080000 5.000000 17.624146 17.989317 634.226013
5.200000 7.080000 5.040000 -1.111711 19.059711 364.508514
5.200000 7.080000 5.080000 -11.138173 4.871464 147.790054
5.200000 7.080000 5.120000 -4.325678 -10.112859 120.981407
5.200000 7.080000 5.160000 11.567641 -11.845577 274.128021
5.200000 7.080000 5.200000 21.295462 0.287125 453.579102
5.200000 7.120000 4.800000 -12.002187 -4.310064 162.629150
5.200000 7.120000 4.840000 -3.934737 -14.706125 231.752289
5.200000 7.120000 4.880000 13.428852 -15.443262 418.828400
5.200000 7.120000 4.920000 27.159374 -0.614367 738.009033
5.200000 7.120000 4.960000 24.302620 20.570272 1013.753418
5.200000 7.120000 5.000000 6.193218 31.062359 1003.226074
5.200000 7.120000 5.040000 -11.304817 22.886621 651.596313
5.200000 7.120000 5.080000 -13.077181 5.658610 203.032532
5.200000 7.120000 5.120000 0.195098 -2.991076 8.984599
5.200000 7.120000 5.160000 13.363827 4.767817 201.323929
5.200000 7.120000 5.200000 12.966135 19.900478 564.149719
5.200000 7.160000 4.800000 -10.620200 -0.680985 113.252388
5.200000 7.160000 4.840000 -1.828645 -8.294280 72.139023
5.200000 7.160000 4.880000 13.166693 -3.259706 183.987488
5.200000 7.160000 4.920000 18.783813 14.936205 575.921875
5.200000 7.160000 4.960000 6.836401 31.681602 1050.460327
5.200000 7.160000 5.000000 -13.296286 32.152306 1210.562012
5.200000 7.160000 5.040000 -23.776295 17.457232 870.067139
5.200000 7.160000 5.080000 -17.124838 3.715173 307.062592
5.200000 7.160000 5.120000 -3.865271 4.692708 36.961834
5.200000 7.160000 5.160000 -0.388717 17.338938 300.789856
5.200000 7.160000 5.200000 -10.904906 26.296724 810.434692
5.200000 7.200000 4.800000 -16.543728 -2.244539 278.732910
5.200000 7.200000 4.840000 -5.463340 -8.402567 100.451218
5.200000 7.200000 4.880000 6.390527 0.842114 41.547989
5.200000 7.200000 4.920000 4.011735 18.096184 343.565887
5.200000 7.200000 4.960000 -12.611010 26.312679 851.394653
5.200000 7.200000 5.000000 -28.185375 17.800976 1111.290161
5.200000 7.200000 5.040000 -29.174953 2.672097 858.317993
5.200000 7.200000 5.080000 -18.674747 -2.917980 357.260803
5.200000 7.200000 5.120000 -12.109256 4.891943 170.565186
5.200000 7.200000 5.160000 -18.941860 13.981672 554.281250
5.200000 7.200000 5.200000 -31.931889 11.210068 1145.311157
