#kx 	ky 	kz 	real 	imag 	intensity
3.800000 7.800000 3.800000 4.762875 -26.909719 746.817993
3.800000 7.800000 3.840000 7.570722 -12.075042 203.122467
3.800000 7.800000 3.880000 -2.262922 -5.406793 34.354221
3.800000 7.800000 3.920000 -10.599728 -13.219053 287.097595
3.800000 7.800000 3.960000 -4.999846 -26.306087 717.008728
3.800000 7.800000 4.000000 12.678846 -29.177217 1012.063110
3.800000 7.800000 4.040000 28.068348 -15.525057 1028.859497
3.800000 7.800000 4.080000 28.422255 5.820112 841.698242
3.800000 7.800000 4.120000 14.359394 20.044571 607.977051
3.800000 7.800000 4.160000 -2.389503 20.393284 421.595734
3.800000 7.800000 4.200000 -11.644967 12.484917 291.478394
3.800000 7.840000 3.800000 12.644761 -21.266045 612.134644
3.800000 7.840000 3.840000 6.930737 -8.597406 121.950516
3.800000 7.840000 3.880000 -4.287838 -10.471634 128.040680
3.800000 7.840000 3.920000 -4.787369 -23.188154 560.609375
3.800000 7.840000 3.960000 9.708761 -30.717230 1037.808228
3.800000 7.840000 4.000000 27.031025 -21.619568 1198.082031
3.800000 7.840000 4.040000 31.223345 -0.935834 975.773071
3.800000 7.840000 4.080000 18.707607 15.287525 583.682983
3.800000 7.840000 4.120000 0.943425 16.408203 270.119171
3.800000 7.840000 4.160000 -8.441607 6.743923 116.741219
3.800000 7.840000 4.200000 -7.302620 -1.340023 55.123920
3.800000 7.880000 3.800000 16.474838 -16.104181 530.764954
3.800000 7.880000 3.840000 7.449507 -10.216547 159.872986
3.800000 7.880000 3.880000 1.878181 -17.820967 321.114410
3.800000 7.880000 3.920000 9.959517 -27.374401 848.549805
3.800000 7.880000 3.960000 25.978462 -24.797180 1289.780640
3.800000 7.880000 4.000000 34.845791 -8.759346 1290.955322
3.800000 7.880000 4.040000 28.396757 8.193363 873.507019
3.800000 7.880000 4.080000 13.544288 13.339321 361.385193
3.800000 7.880000 4.120000 3.887879 6.842071 61.929535
3.800000 7.880000 4.160000 4.756265 -0.035854 22.623339
3.800000 7.880000 4.200000 8.592509 1.203357 75.279282
3.800000 7.920000 3.800000 20.892895 -11.409492 566.689575
3.800000 7.920000 3.840000 13.919085 -10.554633 305.141205
3.800000 7.920000 3.880000 14.853902 -17.140127 514.422363
3.800000 7.920000 3.920000 25.348822 -19.017635 1004.233154
3.800000 7.920000 3.960000 35.558853 -9.828159 1361.024658
3.800000 7.920000 4.000000 35.878868 4.547811 1307.975830
3.800000 7.920000 4.040000 27.321682 13.480364 928.194519
3.800000 7.920000 4.080000 19.204838 13.670848 555.717896
3.800000 7.920000 4.120000 17.542711 11.844525 448.039490
3.800000 7.920000 4.160000 18.119972 15.399687 565.483765
3.800000 7.920000 4.200000 12.404512 22.385715 654.992188
3.800000 7.960000 3.800000 25.830044 -2.344333 672.687073
3.800000 7.960000 3.840000 21.297344 -2.312572 458.924866
3.800000 7.960000 3.880000 23.732056 -4.668963 585.009644
3.800000 7.960000 3.920000 30.310993 -1.825188 922.087585
3.800000 7.960000 3.960000 34.093601 6.702739 1207.300415
3.800000 7.960000 4.000000 32.392017 15.736500 1296.880249
3.800000 7.960000 4.040000 28.360355 21.890842 1283.518799
3.800000 7.960000 4.080000 24.956894 27.229382 1364.285767
3.800000 7.960000 4.120000 19.840816 34.707352 1598.258179
3.800000 7.960000 4.160000 8.266920 41.668610 1804.614990
3.800000 7.960000 4.200000 -9.068485 40.444973 1718.033325
3.800000 8.000000 3.800000 24.740681 12.559214 769.835083
3.800000 8.000000 3.840000 19.439131 12.609716 536.884766
3.800000 8.000000 3.880000 19.080946 11.256894 490.800171
3.800000 8.000000 3.920000 21.717125 12.446978 626.560791
3.800000 8.000000 3.960000 24.623913 16.953920 893.772522
3.800000 8.000000 4.000000 26.198633 24.648285 1293.906372
3.800000 8.000000 4.040000 24.276392 35.674019 1861.978760
3.800000 8.000000 4.080000 15.171476 48.080647 2541.922119
3.800000 8.000000 4.120000 -2.983615 55.629601 3103.554199
3.800000 8.000000 4.160000 -25.545288 50.790817 3232.268799
3.800000 8.000000 4.200000 -41.712395 31.872318 2755.768555
3.800000 8.040000 3.800000 11.937273 26.398155 839.361084
3.800000 8.040000 3.840000 4.641062 22.999922 550.535828
3.800000 8.040000 3.880000 3.221545 17.532660 317.772522
3.800000 8.040000 3.920000 7.561415 14.696680 273.167389
3.800000 8.040000 3.960000 14.489962 18.783438 562.776489
3.800000 8.040000 4.000000 17.458424 31.328283 1286.257935
3.800000 8.040000 4.040000 9.163863 47.819935 2370.722412
3.800000 8.040000 4.080000 -12.410314 57.786472 3493.292236
3.800000 8.040000 4.120000 -39.506008 51.199722 4182.136230
3.800000 8.040000 4.160000 -57.734081 27.268669 4076.804443
3.800000 8.040000 4.200000 -56.321411 -2.687454 3179.323730
3.800000 8.080000 3.800000 -9.248799 28.831367 916.788025
3.800000 8.080000 3.840000 -14.806909 18.939655 577.955078
3.800000 8.080000 3.880000 -11.313704 8.968187 208.428284
3.800000 8.080000 3.920000 -0.682191 6.487334 42.550892
3.800000 8.080000 3.960000 8.790379 16.213413 340.145508
3.800000 8.080000 4.000000 6.187785 34.351807 1218.335327
3.800000 8.080000 4.040000 -13.335034 48.103500 2491.770020
3.800000 8.080000 4.080000 -41.914818 43.838436 3678.660400
3.800000 8.080000 4.120000 -62.302887 18.790176 4234.720215
3.800000 8.080000 4.160000 -60.554901 -14.536794 3878.214355
3.800000 8.080000 4.200000 -37.719501 -36.837479 2779.760742
3.800000 8.120000 3.800000 -27.241798 16.290249 1007.487793
3.800000 8.120000 3.840000 -25.534664 1.914712 655.685181
3.800000 8.120000 3.880000 -13.559296 -6.915328 231.676254
3.800000 8.120000 3.920000 1.469288 -2.517172 8.494963
3.800000 8.120000 3.960000 6.942618 14.377325 254.907425
3.800000 8.120000 4.000000 -5.668305 31.710535 1037.687744
3.800000 8.120000 4.040000 -31.513424 33.410664 2109.368408
3.800000 8.120000 4.080000 -53.238396 12.846107 2999.349121
3.800000 8.120000 4.120000 -53.831383 -19.543833 3279.779297
3.800000 8.120000 4.160000 -31.117731 -43.074146 2823.695312
3.800000 8.120000 4.200000 -0.391336 -43.327667 1877.439941
3.800000 8.160000 3.800000 -32.069176 -3.625907 1041.579224
3.800000 8.160000 3.840000 -21.372219 -16.311754 722.845093
3.800000 8.160000 3.880000 -3.857768 -17.594494 324.448608
3.800000 8.160000 3.920000 8.742296 -4.441474 96.154434
3.800000 8.160000 3.960000 5.232440 14.533914 238.613083
3.800000 8.160000 4.000000 -14.243719 23.353897 748.288025
3.800000 8.160000 4.040000 -35.450195 11.637735 1392.153198
3.800000 8.160000 4.080000 -40.319138 -14.885896 1847.222656
3.800000 8.160000 4.120000 -22.490818 -37.344311 1900.434448
3.800000 8.160000 4.160000 6.241589 -39.042820 1563.299194
3.800000 8.160000 4.200000 25.408813 -19.709845 1034.085693
3.800000 8.200000 3.800000 -24.214441 -18.803185 939.898926
3.800000 8.200000 3.840000 -8.276932 -24.846523 685.857300
3.800000 8.200000 3.880000 8.052787 -17.329128 365.146057
3.800000 8.200000 3.920000 12.947206 0.058622 167.633560
3.800000 8.200000 3.960000 1.886023 14.139172 203.473251
3.800000 8.200000 4.000000 -16.300827 12.510198 422.221985
3.800000 8.200000 4.040000 -25.337307 -4.710712 664.169922
3.800000 8.200000 4.080000 -15.594995 -23.408859 791.178589
3.800000 8.200000 4.120000 6.553576 -27.104073 777.580078
3.800000 8.200000 4.160000 23.606401 -11.617172 692.220886
3.800000 8.200000 4.200000 22.133808 11.023125 611.414734
3.840000 7.800000 3.800000 16.501152 -8.310797 341.357361
3.840000 7.800000 3.840000 8.522282 0.278957 72.707108
3.840000 7.800000 3.880000 -1.331570 -3.374959 13.163431
3.840000 7.800000 3.920000 -1.289773 -14.708113 217.992096
3.840000 7.800000 3.960000 10.837823 -21.203148 567.031860
3.840000 7.800000 4.000000 25.600449 -14.399399 862.725708
3.840000 7.800000 4.040000 31.017853 2.450576 968.112488
3.840000 7.800000 4.080000 23.336926 18.236715 877.189941
3.840000 7.800000 4.120000 8.845663 24.573492 682.102295
3.840000 7.800000 4.160000 -3.812591 21.833109 491.220490
3.840000 7.800000 4.200000 -11.471861 15.461296 370.655273
3.840000 7.840000 3.800000 15.055592 -1.365217 228.534653
3.840000 7.840000 3.840000 7.171664 1.067192 52.571671
3.840000 7.840000 3.880000 4.078325 -4.531490 37.167141
3.840000 7.840000 3.920000 9.940922 -9.037602 180.500183
3.840000 7.840000 3.960000 18.732738 -4.743144 373.412903
3.840000 7.840000 4.000000 21.005852 6.677254 485.831543
3.840000 7.840000 4.040000 13.777938 16.422411 459.527161
3.840000 7.840000 4.080000 2.886135 18.040159 333.777130
3.840000 7.840000 4.120000 -4.145271 13.415045 197.146698
3.840000 7.840000 4.160000 -6.119511 8.954306 117.627998
3.840000 7.840000 4.200000 -7.826549 7.153980 112.434303
3.840000 7.880000 3.800000 12.926150 0.418775 167.260727
3.840000 7.880000 3.840000 9.994731 1.029545 100.954605
3.840000 7.880000 3.880000 11.325361 1.030001 129.324707
3.840000 7.880000 3.920000 13.462193 5.235111 208.637009
3.840000 7.880000 3.960000 10.764482 11.719535 253.221588
3.840000 7.880000 4.000000 3.160984 14.070065 207.958542
3.840000 7.880000 4.040000 -2.948904 9.526791 99.455780
3.840000 7.880000 4.080000 -2.012566 3.139816 13.908863
3.840000 7.880000 4.120000 3.528915 2.505781 18.732182
3.840000 7.880000 4.160000 5.222046 8.606536 101.342224
3.840000 7.880000 4.200000 -1.733013 13.541384 186.372421
3.840000 7.920000 3.800000 14.760807 2.081169 222.212692
3.840000 7.920000 3.840000 14.351503 6.909027 253.700317
3.840000 7.920000 3.880000 11.694193 13.456914 317.842682
3.840000 7.920000 3.920000 3.618084 18.071222 339.659607
3.840000 7.920000 3.960000 -6.608382 14.744385 261.067596
3.840000 7.920000 4.000000 -10.156178 3.647453 116.451859
3.840000 7.920000 4.040000 -1.892317 -5.895256 38.334908
3.840000 7.920000 4.080000 12.018668 -3.324268 155.499146
3.840000 7.920000 4.120000 17.981285 11.618945 458.326477
3.840000 7.920000 4.160000 8.028502 26.509901 767.231689
3.840000 7.920000 4.200000 -11.088633 27.175219 861.450256
3.840000 7.960000 3.800000 16.530121 9.475697 363.033722
3.840000 7.960000 3.840000 11.668292 18.334124 472.289124
3.840000 7.960000 3.880000 0.091551 23.552481 554.727722
3.840000 7.960000 3.920000 -13.616423 18.105198 513.205139
3.840000 7.960000 3.960000 -18.155464 2.378904 335.280060
3.840000 7.960000 4.000000 -6.438669 -11.569344 175.306183
3.840000 7.960000 4.040000 14.224195 -9.097761 285.096985
3.840000 7.960000 4.080000 25.549379 11.981360 796.323792
3.840000 7.960000 4.120000 14.516722 36.381081 1534.318237
3.840000 7.960000 4.160000 -13.078403 43.611713 2073.026123
3.840000 7.960000 4.200000 -36.331894 26.831123 2039.915649
3.840000 8.000000 3.800000 10.236622 20.229633 514.026489
3.840000 8.000000 3.840000 -2.079337 25.848436 672.465332
3.840000 8.000000 3.880000 -17.494059 20.858177 741.105652
3.840000 8.000000 3.920000 -24.623304 3.933977 621.783325
3.840000 8.000000 3.960000 -13.977156 -13.587782 379.988708
3.840000 8.000000 4.000000 9.395742 -14.573924 300.679230
3.840000 8.000000 4.040000 25.819332 7.171830 718.073059
3.840000 8.000000 4.080000 17.268299 37.375984 1695.158447
3.840000 8.000000 4.120000 -14.539109 51.260189 2838.992676
3.840000 8.000000 4.160000 -47.184151 35.558331 3490.738770
3.840000 8.000000 4.200000 -56.591896 1.366916 3204.510986
3.840000 8.040000 3.800000 -5.612271 24.487556 631.138062
3.840000 8.040000 3.840000 -19.763353 20.030033 791.792358
3.840000 8.040000 3.880000 -27.963295 4.622089 803.309570
3.840000 8.040000 3.920000 -20.454966 -13.673503 605.370300
3.840000 8.040000 3.960000 1.335683 -18.816357 355.839325
3.840000 8.040000 4.000000 20.537903 -1.318021 423.542633
3.840000 8.040000 4.040000 17.117729 28.996655 1133.822632
3.840000 8.040000 4.080000 -12.639955 47.571400 2422.806641
3.840000 8.040000 4.120000 -49.327969 35.958130 3726.235596
3.840000 8.040000 4.160000 -65.523491 -0.325835 4293.433594
3.840000 8.040000 4.200000 -49.855465 -35.346947 3734.974121
3.840000 8.080000 3.800000 -22.067425 15.170866 717.126404
3.840000 8.080000 3.840000 -28.553305 1.954343 819.110657
3.840000 8.080000 3.880000 -23.118343 -14.324180 739.639954
3.840000 8.080000 3.920000 -5.027033 -21.524893 488.592072
3.840000 8.080000 3.960000 13.824096 -9.843416 287.998474
3.840000 8.080000 4.000000 15.524303 15.916860 494.350403
3.840000 8.080000 4.040000 -7.372980 35.684677 1327.757080
3.840000 8.080000 4.080000 -41.454277 29.729790 2602.317383
3.840000 8.080000 4.120000 -60.995842 -2.529507 3726.891113
3.840000 8.080000 4.160000 -49.880402 -39.585838 4055.093018
3.840000 8.080000 4.200000 -16.384365 -55.544239 3353.610107
3.840000 8.120000 3.800000 -27.506514 -3.587016 769.474976
3.840000 8.120000 3.840000 -22.084496 -16.713341 767.060669
3.840000 8.120000 3.880000 -7.292587 -23.322092 597.101807
3.840000 8.120000 3.920000 9.195800 -15.893414 337.163330
3.840000 8.120000 3.960000 14.010775 3.797915 210.725967
3.840000 8.120000 4.000000 -0.781073 21.690399 471.083496
3.840000 8.120000 4.040000 -27.601036 20.819374 1195.263550
3.840000 8.120000 4.080000 -46.247375 -3.195183 2149.029053
3.840000 8.120000 4.120000 -40.064140 -35.556873 2869.426758
3.840000 8.120000 4.160000 -11.312286 -53.106060 2948.221436
3.840000 8.120000 4.200000 19.636162 -43.962875 2318.313232
3.840000 8.160000 3.800000 -19.056938 -19.552721 745.475830
3.840000 8.160000 3.840000 -6.469629 -24.499893 642.100830
3.840000 8.160000 3.880000 7.352053 -19.223236 423.585480
3.840000 8.160000 3.920000 13.317002 -4.595377 198.460037
3.840000 8.160000 3.960000 5.152753 10.230880 131.221771
3.840000 8.160000 4.000000 -13.319837 12.821107 341.798828
3.840000 8.160000 4.040000 -28.266590 -1.975559 802.902954
3.840000 8.160000 4.080000 -26.003452 -25.429190 1322.823242
3.840000 8.160000 4.120000 -5.250910 -40.182205 1642.181641
3.840000 8.160000 4.160000 20.202204 -34.418095 1592.734253
3.840000 8.160000 4.200000 32.406361 -12.369680 1203.181274
3.840000 8.200000 3.800000 -5.237128 -24.110233 608.730835
3.840000 8.200000 3.840000 6.265978 -20.519855 460.326965
3.840000 8.200000 3.880000 12.670231 -9.825681 257.078735
3.840000 8.200000 3.920000 9.364711 2.136993 92.264542
3.840000 8.200000 3.960000 -1.942594 6.941018 51.951401
3.840000 8.200000 4.000000 -12.641991 0.162099 159.846207
3.840000 8.200000 4.040000 -13.098686 -13.671513 358.485840
3.840000 8.200000 4.080000 -0.980602 -23.320087 544.788086
3.840000 8.200000 4.120000 15.605844 -19.716309 632.275208
3.840000 8.200000 4.160000 24.076752 -4.092548 596.438965
3.840000 8.200000 4.200000 17.858944 12.447954 473.893433
3.880000 7.800000 3.800000 8.612928 13.247433 249.677002
3.880000 7.800000 3.840000 -0.895783 8.807097 78.367393
3.880000 7.800000 3.880000 -2.035648 -1.604507 6.718308
3.880000 7.800000 3.920000 6.626328 -8.436479 115.082382
3.880000 7.800000 3.960000 18.075590 -5.317045 354.997925
3.880000 7.800000 4.000000 23.632399 5.672915 590.672180
3.880000 7.800000 4.040000 20.441528 17.114008 710.745361
3.880000 7.800000 4.080000 12.202413 23.653530 708.388367
3.880000 7.800000 4.120000 3.525278 25.462864 660.785034
3.880000 7.800000 4.160000 -4.731526 24.785934 636.729858
3.880000 7.800000 4.200000 -13.686975 21.007288 628.639465
3.880000 7.840000 3.800000 0.587456 12.442321 155.156448
3.880000 7.840000 3.840000 0.439825 8.516029 72.716202
3.880000 7.840000 3.880000 4.049679 8.907629 95.745758
3.880000 7.840000 3.920000 4.713144 14.376380 228.894028
3.880000 7.840000 3.960000 -0.981249 18.948734 360.017395
3.880000 7.840000 4.000000 -8.756931 16.865231 361.119843
3.880000 7.840000 4.040000 -11.246561 9.722185 221.006012
3.880000 7.840000 4.080000 -6.762346 5.311037 73.936447
3.880000 7.840000 4.120000 -2.129547 8.715836 80.500763
3.880000 7.840000 4.160000 -5.504844 15.494555 270.384521
3.880000 7.840000 4.200000 -16.396925 15.307433 503.176666
3.880000 7.880000 3.800000 -1.439271 7.076874 52.153645
3.880000 7.880000 3.840000 2.648285 13.219749 181.775192
3.880000 7.880000 3.880000 -2.546911 24.720493 617.589539
3.880000 7.880000 3.920000 -19.525375 28.929611 1218.162720
3.880000 7.880000 3.960000 -36.690239 16.299099 1611.834229
3.880000 7.880000 4.000000 -38.046078 -7.313562 1500.992188
3.880000 7.880000 4.040000 -19.858734 -23.609743 951.789307
3.880000 7.880000 4.080000 3.493275 -18.848701 367.476532
3.880000 7.880000 4.120000 12.010708 1.904531 147.884354
3.880000 7.880000 4.160000 -0.630284 18.638084 347.775452
3.880000 7.880000 4.200000 -20.538916 15.490759 661.810669
3.880000 7.920000 3.800000 1.945077 5.681778 36.065926
3.880000 7.920000 3.840000 -1.962076 21.843634 480.994049
3.880000 7.920000 3.880000 -23.937317 31.205624 1546.786133
3.880000 7.920000 3.920000 -50.918190 16.843761 2876.374512
3.880000 7.920000 3.960000 -58.203369 -18.369427 3725.067871
3.880000 7.920000 4.000000 -33.602985 -49.318336 3561.458984
3.880000 7.920000 4.040000 7.408470 -50.004307 2555.316162
3.880000 7.920000 4.080000 33.125267 -18.829762 1451.843262
3.880000 7.920000 4.120000 24.339859 18.211712 924.095154
3.880000 7.920000 4.160000 -7.793183 31.031013 1023.657532
3.880000 7.920000 4.200000 -32.800278 13.023077 1245.458862
3.880000 7.960000 3.800000 2.558251 10.564787 118.159370
3.880000 7.960000 3.840000 -16.070171 24.997911 883.145996
3.880000 7.960000 3.880000 -46.959290 16.950275 2492.486572
3.880000 7.960000 3.920000 -63.284309 -19.191246 4373.207520
3.880000 7.960000 3.960000 -42.963001 -60.522648 5508.810547
3.880000 7.960000 4.000000 6.150278 -72.325073 5268.741699
3.880000 7.960000 4.040000 48.220551 -40.713394 3982.801758
3.880000 7.960000 4.080000 50.203159 11.493389 2652.455078
3.880000 7.960000 4.120000 12.471443 43.611771 2057.523438
3.880000 7.960000 4.160000 -31.449894 33.672276 2122.917969
3.880000 7.960000 4.200000 -46.286461 -2.899568 2150.843994
3.880000 8.000000 3.800000 -4.898407 14.514691 234.670654
3.880000 8.000000 3.840000 -31.270937 14.419203 1185.784912
3.880000 8.000000 3.880000 -52.754547 -12.963100 2951.084229
3.880000 8.000000 3.920000 -43.270378 -54.586662 4852.029297
3.880000 8.000000 3.960000 0.880488 -76.670769 5879.182129
3.880000 8.000000 4.000000 50.492577 -54.719692 5543.745117
3.880000 8.000000 4.040000 65.848755 0.075552 4336.064453
3.880000 8.000000 4.080000 33.058163 46.786873 3281.853516
3.880000 8.000000 4.120000 -21.586473 50.300529 2996.119141
3.880000 8.000000 4.160000 -54.875359 12.659072 3171.557129
3.880000 8.000000 4.200000 -45.562523 -30.502285 3006.333008
3.880000 8.040000 3.800000 -15.482510 9.132955 323.118958
3.880000 8.040000 3.840000 -34.494057 -6.606705 1233.488525
3.880000 8.040000 3.880000 -34.330406 -38.851082 2687.983398
3.880000 8.040000 3.920000 -3.795397 -63.759338 4079.658203
3.880000 8.040000 3.960000 40.958305 -54.855396 4686.697266
3.880000 8.040000 4.000000 64.868576 -10.429936 4316.715820
3.880000 8.040000 4.040000 44.655685 39.077103 3521.150146
3.880000 8.040000 4.080000 -7.306547 55.148689 3094.763672
3.880000 8.040000 4.120000 -51.435814 25.738407 3308.108643
3.880000 8.040000 4.160000 -55.652153 -23.531673 3650.901855
3.880000 8.040000 4.200000 -23.192352 -53.213799 3369.593506
3.880000 8.080000 3.800000 -18.640709 -4.777757 370.303009
3.880000 8.080000 3.840000 -21.089781 -24.201965 1030.513916
3.880000 8.080000 3.880000 -4.151628 -43.340714 1895.653442
3.880000 8.080000 3.920000 27.147148 -42.872349 2575.005859
3.880000 8.080000 3.960000 50.229420 -14.660337 2737.920166
3.880000 8.080000 4.000000 42.516792 25.317806 2448.668945
3.880000 8.080000 4.040000 4.097898 46.386723 2168.520752
3.880000 8.080000 4.080000 -38.153297 29.647339 2334.638672
3.880000 8.080000 4.120000 -52.163383 -13.421442 2901.153564
3.880000 8.080000 4.160000 -28.930199 -49.803566 3317.351562
3.880000 8.080000 4.200000 9.977596 -54.050884 3021.050537
3.880000 8.120000 3.800000 -9.873394 -16.971451 385.514069
3.880000 8.120000 3.840000 -0.469597 -26.550928 705.172302
3.880000 8.120000 3.880000 16.815226 -26.920380 1007.458618
3.880000 8.120000 3.920000 31.660130 -11.907405 1144.150146
3.880000 8.120000 3.960000 30.122156 12.747340 1069.838989
3.880000 8.120000 4.000000 7.827950 29.624083 938.863037
3.880000 8.120000 4.040000 -22.177608 22.904469 1016.460999
3.880000 8.120000 4.080000 -37.407352 -6.128015 1436.862671
3.880000 8.120000 4.120000 -24.918129 -37.395432 2019.331543
3.880000 8.120000 4.160000 6.353729 -48.085735 2352.607910
3.880000 8.120000 4.200000 32.777470 -32.343765 2120.481689
3.880000 8.160000 3.800000 3.886551 -18.417927 354.325317
3.880000 8.160000 3.840000 12.534901 -15.280334 390.612305
3.880000 8.160000 3.880000 18.106941 -6.394107 368.745941
3.880000 8.160000 3.920000 16.198303 5.425695 291.823212
3.880000 8.160000 3.960000 5.189313 13.470858 208.392975
3.880000 8.160000 4.000000 -10.038598 10.549131 212.057617
3.880000 8.160000 4.040000 -19.104033 -4.462433 384.877350
3.880000 8.160000 4.080000 -13.474088 -23.096243 714.987488
3.880000 8.160000 4.120000 5.341644 -32.151901 1062.277954
3.880000 8.160000 4.160000 25.215515 -24.338486 1228.184082
3.880000 8.160000 4.200000 32.667057 -5.120003 1093.351074
3.880000 8.200000 3.800000 11.578646 -10.953302 254.039856
3.880000 8.200000 3.840000 12.051613 -3.340785 156.402222
3.880000 8.200000 3.880000 7.844620 2.073529 65.837593
3.880000 8.200000 3.920000 1.770854 3.149477 13.055130
3.880000 8.200000 3.960000 -3.153356 -0.084370 9.950769
3.880000 8.200000 4.000000 -4.535411 -6.128767 58.131737
3.880000 8.200000 4.040000 -0.976017 -12.239511 150.758255
3.880000 8.200000 4.080000 6.917031 -14.751164 265.442169
3.880000 8.200000 4.120000 15.594549 -10.889230 361.765289
3.880000 8.200000 4.160000 19.829073 -1.419432 395.206940
3.880000 8.200000 4.200000 16.410824 8.651348 344.160950
3.920000 7.800000 3.800000 -14.185833 21.313068 655.484741
3.920000 7.800000 3.840000 -14.565931 7.237322 264.545166
3.920000 7.800000 3.880000 -4.921577 -1.135379 25.511009
3.920000 7.800000 3.920000 6.166737 0.993216 39.015118
3.920000 7.800000 3.960000 10.712152 9.483868 204.693970
3.920000 7.800000 4.000000 8.261933 16.586151 343.359955
3.920000 7.800000 4.040000 4.315365 19.211052 387.686890
3.920000 7.800000 4.080000 2.490593 20.844296 440.687714
3.920000 7.800000 4.120000 -0.098648 25.175579 633.819458
3.920000 7.800000 4.160000 -8.468596 29.366165 934.088745
3.920000 7.800000 4.200000 -21.351292 25.765190 1119.722656
3.920000 7.840000 3.800000 -20.010180 9.894633 498.311066
3.920000 7.840000 3.840000 -11.260687 9.398762 215.139801
3.920000 7.840000 3.880000 -10.280769 18.405083 444.441284
3.920000 7.840000 3.920000 -21.797050 23.534378 1028.978394
3.920000 7.840000 3.960000 -35.285892 14.096748 1443.812500
3.920000 7.840000 4.000000 -35.386597 -5.087009 1278.088867
3.920000 7.840000 4.040000 -18.801353 -17.026871 643.405273
3.920000 7.840000 4.080000 0.420471 -9.773281 95.693817
3.920000 7.840000 4.120000 4.014814 10.159840 119.341080
3.920000 7.840000 4.160000 -11.738832 22.978004 665.788879
3.920000 7.840000 4.200000 -31.199738 15.070386 1200.540161
3.920000 7.880000 3.800000 -15.828739 -0.034396 250.550171
3.920000 7.880000 3.840000 -14.897924 16.652203 499.243988
3.920000 7.880000 3.880000 -36.983326 27.562344 2127.449219
3.920000 7.880000 3.920000 -66.002472 11.067177 4478.808594
3.920000 7.880000 3.960000 -72.260818 -29.120689 6069.640625
3.920000 7.880000 4.000000 -42.462372 -63.148491 5790.785156
3.920000 7.880000 4.040000 4.064579 -62.099709 3872.894531
3.920000 7.880000 4.080000 31.314047 -26.579971 1687.064453
3.920000 7.880000 4.120000 20.149485 12.593189 564.590149
3.920000 7.880000 4.160000 -13.939490 23.279558 736.247192
3.920000 7.880000 4.200000 -36.702293 1.889165 1350.627319
3.920000 7.920000 3.800000 -8.747370 -1.868613 80.008194
3.920000 7.920000 3.840000 -28.858181 18.149887 1162.213013
3.920000 7.920000 3.880000 -67.868622 8.075096 4671.356934
3.920000 7.920000 3.920000 -87.828896 -40.143181 9325.389648
3.920000 7.920000 3.960000 -59.083870 -94.838829 12485.306641
3.920000 7.920000 4.000000 6.706089 -110.239159 12197.643555
3.920000 7.920000 4.040000 62.420189 -69.962914 8791.088867
3.920000 7.920000 4.080000 67.333374 -4.734226 4556.196289
3.920000 7.920000 4.120000 24.386900 34.957783 1816.767578
3.920000 7.920000 4.160000 -24.129511 24.869240 1200.712402
3.920000 7.920000 4.200000 -37.673557 -13.510595 1601.833008
3.920000 7.960000 3.800000 -6.966630 0.781303 49.144367
3.920000 7.960000 3.840000 -43.279438 4.184461 1890.619507
3.920000 7.960000 3.880000 -74.778809 -34.994488 6816.484375
3.920000 7.960000 3.920000 -60.289597 -97.049805 13053.500000
3.920000 7.960000 3.960000 6.019054 -131.091537 17221.218750
3.920000 7.960000 4.000000 81.360245 -101.358742 16893.083984
3.920000 7.960000 4.040000 109.294083 -24.062271 12524.189453
3.920000 7.960000 4.080000 71.014740 44.012787 6980.218750
3.920000 7.960000 4.120000 2.419243 56.085278 3151.411133
3.920000 7.960000 4.160000 -40.232121 15.983401 1874.092651
3.920000 7.960000 4.200000 -31.700279 -30.256495 1920.363159
3.920000 8.000000 3.800000 -9.941916 -0.531713 99.124405
3.920000 8.000000 3.840000 -42.418129 -20.916061 2236.779297
3.920000 8.000000 3.880000 -44.971931 -72.861664 7331.296875
3.920000 8.000000 3.920000 3.926449 -116.165176 13509.765625
3.920000 8.000000 3.960000 79.334854 -105.840118 17496.150391
3.920000 8.000000 4.000000 125.301163 -37.076309 17075.035156
3.920000 8.000000 4.040000 104.170670 44.378876 12821.012695
3.920000 8.000000 4.080000 32.359142 80.394608 7510.407227
3.920000 8.000000 4.120000 -33.749718 51.742046 3816.282715
3.920000 8.000000 4.160000 -48.798370 -7.207304 2433.226318
3.920000 8.000000 4.200000 -16.567614 -43.788303 2191.901367
3.920000 8.040000 3.800000 -9.447794 -7.969463 152.773163
3.920000 8.040000 3.840000 -21.035179 -39.430962 1997.279541
3.920000 8.040000 3.880000 4.151146 -77.110970 5963.333496
3.920000 8.040000 3.920000 60.837860 -82.660080 10533.933594
3.920000 8.040000 3.960000 109.325508 -36.971939 13318.990234
3.920000 8.040000 4.000000 107.556282 35.858059 12854.154297
3.920000 8.040000 4.040000 50.832340 84.545197 9731.816406
3.920000 8.040000 4.080000 -20.649818 74.784081 6019.073730
3.920000 8.040000 4.120000 -56.133881 19.649572 3537.118164
3.920000 8.040000 4.160000 -38.326836 -33.634346 2600.215576
3.920000 8.040000 4.200000 5.111055 -47.336861 2266.901123
3.920000 8.080000 3.800000 -0.323184 -14.033798 197.051941
3.920000 8.080000 3.840000 7.795954 -36.163982 1368.610474
3.920000 8.080000 3.880000 38.681473 -45.792564 3593.215332
3.920000 8.080000 3.920000 73.589355 -23.803989 5982.022949
3.920000 8.080000 3.960000 81.905304 24.448235 7306.195312
3.920000 8.080000 4.000000 48.718166 67.532753 6934.132812
3.920000 8.080000 4.040000 -7.867161 72.541672 5324.186035
3.920000 8.080000 4.080000 -49.017941 34.600716 3599.968018
3.920000 8.080000 4.120000 -47.892410 -17.500340 2599.944824
3.920000 8.080000 4.160000 -12.184896 -46.297470 2291.927490
3.920000 8.080000 4.200000 25.021444 -37.757889 2051.730957
3.920000 8.120000 3.800000 12.028059 -10.327839 251.338470
3.920000 8.120000 3.840000 23.357437 -13.936619 739.799194
3.920000 8.120000 3.880000 38.222839 -5.342335 1489.526001
3.920000 8.120000 3.920000 43.787483 16.746111 2197.775879
3.920000 8.120000 3.960000 29.300091 40.722782 2516.840332
3.920000 8.120000 4.000000 -2.046383 48.269695 2334.151123
3.920000 8.120000 4.040000 -31.680439 29.678787 1884.480591
3.920000 8.120000 4.080000 -39.009644 -5.508814 1552.099365
3.920000 8.120000 4.120000 -18.910608 -34.209839 1527.924194
3.920000 8.120000 4.160000 13.223326 -38.397675 1649.237793
3.920000 8.120000 4.200000 34.559429 -19.739269 1583.992920
3.920000 8.160000 3.800000 16.831478 1.672363 286.095428
3.920000 8.160000 3.840000 16.892143 8.116131 351.216095
3.920000 8.160000 3.880000 13.065866 14.198243 372.306976
3.920000 8.160000 3.920000 5.821434 18.100313 361.510437
3.920000 8.160000 3.960000 -4.067432 17.706785 330.074249
3.920000 8.160000 4.000000 -13.800631 10.508900 300.894379
3.920000 8.160000 4.040000 -17.734638 -3.442333 326.367065
3.920000 8.160000 4.080000 -10.809565 -18.597103 462.698914
3.920000 8.160000 4.120000 5.909864 -25.843712 702.823975
3.920000 8.160000 4.160000 23.673038 -19.492790 940.381653
3.920000 8.160000 4.200000 31.868618 -3.007837 1024.655884
3.920000 8.200000 3.800000 10.470859 10.918888 228.860992
3.920000 8.200000 3.840000 -0.005879 12.948208 167.656113
3.920000 8.200000 3.880000 -8.128383 6.177308 104.229736
3.920000 8.200000 3.920000 -8.189434 -3.445386 78.937515
3.920000 8.200000 3.960000 -2.339134 -8.715549 81.432335
3.920000 8.200000 4.000000 3.029159 -8.429464 80.231674
3.920000 8.200000 4.040000 4.963892 -7.109352 75.183113
3.920000 8.200000 4.080000 6.566877 -8.233579 110.915695
3.920000 8.200000 4.120000 11.903028 -9.387208 229.801758
3.920000 8.200000 4.160000 19.603456 -5.187952 411.210358
3.920000 8.200000 4.200000 23.119982 5.523991 565.048035
3.960000 7.800000 3.800000 -36.289558 9.591146 1408.922119
3.960000 7.800000 3.840000 -24.075853 -4.348387 598.555176
3.960000 7.800000 3.880000 -8.874756 -4.498184 98.994949
3.960000 7.800000 3.920000 -1.654549 4.308887 21.304043
3.960000 7.800000 3.960000 -3.720124 11.431801 144.525391
3.960000 7.800000 4.000000 -7.228439 11.738922 190.052628
3.960000 7.800000 4.040000 -5.378410 10.211591 133.203888
3.960000 7.800000 4.080000 -0.925148 14.768226 218.956390
3.960000 7.800000 4.120000 -3.193510 25.331095 651.862854
3.960000 7.800000 4.160000 -16.423634 31.864887 1285.106812
3.960000 7.800000 4.200000 -32.524036 24.637787 1664.833496
3.960000 7.840000 3.800000 -32.914574 -7.411163 1138.294434
3.960000 7.840000 3.840000 -22.729462 0.487329 516.865906
3.960000 7.840000 3.880000 -30.574995 10.608067 1047.361450
3.960000 7.840000 3.920000 -47.769348 3.776886 2296.175537
3.960000 7.840000 3.960000 -52.082436 -20.877693 3148.458252
3.960000 7.840000 4.000000 -31.504333 -42.710918 2816.745605
3.960000 7.840000 4.040000 1.066864 -39.598907 1569.211670
3.960000 7.840000 4.080000 18.553410 -11.281002 471.490021
3.960000 7.840000 4.120000 6.067518 18.486217 378.555023
3.960000 7.840000 4.160000 -23.849140 24.204769 1154.652344
3.960000 7.840000 4.200000 -43.066017 3.227023 1865.095581
3.960000 7.880000 3.800000 -21.102982 -16.222206 708.495850
3.960000 7.880000 3.840000 -32.785130 3.085955 1084.387817
3.960000 7.880000 3.880000 -65.121002 -3.461788 4252.729004
3.960000 7.880000 3.920000 -81.929749 -45.588612 8790.805664
3.960000 7.880000 3.960000 -54.371590 -94.073257 11806.046875
3.960000 7.880000 4.000000 6.709625 -105.882408 11256.103516
3.960000 7.880000 4.040000 56.876194 -66.327888 7634.290039
3.960000 7.880000 4.080000 58.644505 -5.369858 3468.013428
3.960000 7.880000 4.120000 16.592125 29.454159 1142.846069
3.960000 7.880000 4.160000 -28.159634 16.973486 1081.064209
3.960000 7.880000 4.200000 -38.027206 -20.349930 1860.188110
3.960000 7.920000 3.800000 -10.629705 -15.907635 366.043488
3.960000 7.920000 3.840000 -46.265865 -9.369471 2228.317139
3.960000 7.920000 3.880000 -78.840919 -49.972328 8713.124023
3.960000 7.920000 3.920000 -61.593880 -116.053680 17262.263672
3.960000 7.920000 3.960000 11.653488 -151.127838 22975.427734
3.960000 7.920000 4.000000 93.235626 -116.854935 22347.957031
3.960000 7.920000 4.040000 122.279297 -32.624344 16016.574219
3.960000 7.920000 4.080000 80.736618 39.542042 8081.974609
3.960000 7.920000 4.120000 9.239807 51.245651 2711.490723
3.960000 7.920000 4.160000 -32.659004 9.667135 1160.064087
3.960000 7.920000 4.200000 -21.359558 -34.960678 1678.479736
3.960000 7.960000 3.800000 -5.620293 -13.553381 215.281830
3.960000 7.960000 3.840000 -45.154396 -35.556381 3303.175781
3.960000 7.960000 3.880000 -47.989754 -98.880493 12080.368164
3.960000 7.960000 3.920000 13.789501 -151.765289 23222.853516
3.960000 7.960000 3.960000 108.075317 -137.706848 30643.449219
3.960000 7.960000 4.000000 165.210648 -52.122669 30011.332031
3.960000 7.960000 4.040000 140.598877 47.739670 22047.121094
3.960000 7.960000 4.080000 56.330700 92.437195 11717.782227
3.960000 7.960000 4.120000 -19.809624 61.815971 4213.635742
3.960000 7.960000 4.160000 -36.907139 -1.468990 1364.294800
3.960000 7.960000 4.200000 -3.080564 -37.306976 1401.300293
3.960000 8.000000 3.800000 -1.379687 -14.060768 199.608734
3.960000 8.000000 3.840000 -20.134306 -56.473198 3594.612549
3.960000 8.000000 3.880000 14.636969 -110.235466 12366.099609
3.960000 8.000000 3.920000 95.602493 -118.571007 23198.921875
3.960000 8.000000 3.960000 165.497986 -54.224640 30329.894531
3.960000 8.000000 4.000000 165.638580 48.182968 29757.736328
3.960000 8.000000 4.040000 90.863342 118.075981 22198.083984
3.960000 8.000000 4.080000 -3.806683 110.709122 12271.000977
3.960000 8.000000 4.120000 -52.508499 45.195927 4799.814453
3.960000 8.000000 4.160000 -35.665142 -17.439169 1576.126953
3.960000 8.000000 4.200000 9.782909 -32.414158 1146.382935
3.960000 8.040000 3.800000 7.399563 -13.599049 239.687653
3.960000 8.040000 3.840000 16.179276 -51.756027 2940.455322
3.960000 8.040000 3.880000 66.542519 -71.175095 9493.800781
3.960000 8.040000 3.920000 126.444321 -37.271896 17377.359375
3.960000 8.040000 3.960000 144.058228 41.542805 22478.578125
3.960000 8.040000 4.000000 95.017319 114.152527 22059.089844
3.960000 8.040000 4.040000 8.038809 129.003448 16706.513672
3.960000 8.040000 4.080000 -57.967579 79.387115 9662.554688
3.960000 8.040000 4.120000 -64.634125 8.029670 4242.045898
3.960000 8.040000 4.160000 -24.332054 -32.897041 1674.264160
3.960000 8.040000 4.200000 17.571394 -26.685175 1020.852417
3.960000 8.080000 3.800000 17.507118 -5.050611 332.007843
3.960000 8.080000 3.840000 37.672691 -20.784513 1851.227661
3.960000 8.080000 3.880000 72.163849 -9.873613 5305.109375
3.960000 8.080000 3.920000 90.531784 33.650093 9328.333008
3.960000 8.080000 3.960000 67.690437 85.429985 11880.277344
3.960000 8.080000 4.000000 9.161919 107.679977 11678.917969
3.960000 8.080000 4.040000 -49.565617 81.373093 9078.330078
3.960000 8.080000 4.080000 -71.393402 23.775387 5662.287109
3.960000 8.080000 4.120000 -48.132210 -25.935366 2989.353027
3.960000 8.080000 4.160000 -4.937591 -39.753204 1604.697021
3.960000 8.080000 4.200000 24.407829 -21.609829 1062.726807
3.960000 8.120000 3.800000 19.160299 10.964733 487.342438
3.960000 8.120000 3.840000 28.727266 13.885977 1018.076233
3.960000 8.120000 3.880000 34.540871 28.983400 2033.109253
3.960000 8.120000 3.920000 25.382835 49.937809 3138.072998
3.960000 8.120000 3.960000 -1.104252 61.798763 3820.306641
3.960000 8.120000 4.000000 -33.370625 51.699551 3786.442139
3.960000 8.120000 4.040000 -52.336372 20.356386 3153.478516
3.960000 8.120000 4.080000 -45.524750 -16.199482 2334.926270
3.960000 8.120000 4.120000 -17.274353 -37.638580 1715.065918
3.960000 8.120000 4.160000 14.373924 -34.469597 1394.762817
3.960000 8.120000 4.200000 31.806118 -14.142940 1211.651855
3.960000 8.160000 3.800000 7.826653 23.534771 615.141907
3.960000 8.160000 3.840000 -0.093026 26.485977 701.515625
3.960000 8.160000 3.880000 -9.153824 24.056736 662.519043
3.960000 8.160000 3.920000 -15.578167 17.693842 555.751343
3.960000 8.160000 3.960000 -19.097931 10.104334 466.828522
3.960000 8.160000 4.000000 -20.923393 1.331749 439.561951
3.960000 8.160000 4.040000 -19.502731 -10.093483 482.234924
3.960000 8.160000 4.080000 -10.688270 -22.246897 609.163513
3.960000 8.160000 4.120000 6.646801 -28.142319 836.170044
3.960000 8.160000 4.160000 26.068346 -21.054180 1122.837158
3.960000 8.160000 4.200000 36.600739 -2.055473 1343.838989
3.960000 8.200000 3.800000 -7.966467 22.122070 552.850586
3.960000 8.200000 3.840000 -21.641632 12.321476 620.179016
3.960000 8.200000 3.880000 -23.496738 -6.101156 589.320862
3.960000 8.200000 3.920000 -11.207298 -19.456345 504.152893
3.960000 8.200000 3.960000 4.482049 -19.005722 381.306244
3.960000 8.200000 4.000000 11.293581 -9.839283 224.356476
3.960000 8.200000 4.040000 8.466354 -4.433136 91.331848
3.960000 8.200000 4.080000 6.669565 -8.131968 110.612000
3.960000 8.200000 4.120000 14.843470 -12.919304 387.237000
3.960000 8.200000 4.160000 28.801964 -6.673367 874.086914
3.960000 8.200000 4.200000 34.591808 12.318819 1348.346558
4.000000 7.800000 3.800000 -43.823086 -13.967613 2115.557129
4.000000 7.800000 3.840000 -23.831776 -20.213001 976.518982
4.000000 7.800000 3.880000 -9.674273 -12.516239 250.247803
4.000000 7.800000 3.920000 -7.424918 -2.190948 59.929665
4.000000 7.800000 3.960000 -11.022251 1.154335 122.822510
4.000000 7.800000 4.000000 -10.438667 -1.088478 110.150558
4.000000 7.800000 4.040000 -3.631287 0.553082 13.492142
4.000000 7.800000 4.080000 0.689156 11.557590 134.052826
4.000000 7.800000 4.120000 -7.104330 25.425453 696.925171
4.000000 7.800000 4.160000 -25.558107 29.082903 1499.032104
4.000000 7.800000 4.200000 -41.432068 16.664179 1994.311035
4.000000 7.840000 3.800000 -31.066051 -29.061516 1809.671265
4.000000 7.840000 3.840000 -26.251213 -16.988771 977.744507
4.000000 7.840000 3.880000 -38.472794 -14.645267 1694.639771
4.000000 7.840000 3.920000 -47.170288 -33.133156 3322.842285
4.000000 7.840000 3.960000 -32.085293 -58.127182 4408.235352
4.000000 7.840000 4.000000 3.463074 -62.987793 3979.455078
4.000000 7.840000 4.040000 32.839760 -36.366150 2400.946777
4.000000 7.840000 4.080000 31.038778 4.083191 980.078186
4.000000 7.840000 4.120000 -0.480486 26.890980 723.355713
4.000000 7.840000 4.160000 -34.477982 16.235546 1452.324219
4.000000 7.840000 4.200000 -43.712524 -13.781445 2100.712891
4.000000 7.880000 3.800000 -14.441153 -32.994045 1297.153931
4.000000 7.880000 3.840000 -35.600731 -24.144972 1850.391602
4.000000 7.880000 3.880000 -58.314945 -51.307384 6033.080566
4.000000 7.880000 3.920000 -44.102600 -99.542694 11853.787109
4.000000 7.880000 3.960000 13.530670 -124.153961 15597.285156
4.000000 7.880000 4.000000 76.986656 -94.050781 14772.495117
4.000000 7.880000 4.040000 97.324066 -24.903336 10092.149414
4.000000 7.880000 4.080000 60.396980 32.746029 4720.097656
4.000000 7.880000 4.120000 0.164549 39.642612 1571.563843
4.000000 7.880000 4.160000 -34.062065 2.509079 1166.519775
4.000000 7.880000 4.200000 -23.109783 -36.317902 1853.052002
4.000000 7.920000 3.800000 -1.719530 -29.161404 853.344238
4.000000 7.920000 3.840000 -35.699425 -45.670563 3360.249268
4.000000 7.920000 3.880000 -37.128868 -101.800400 11741.874023
4.000000 7.920000 3.920000 21.483490 -148.494125 22512.046875
4.000000 7.920000 3.960000 109.544540 -132.160889 29466.505859
4.000000 7.920000 4.000000 160.989105 -49.468117 28364.585938
4.000000 7.920000 4.040000 134.927353 44.309158 20168.691406
4.000000 7.920000 4.080000 54.381649 84.067268 10024.669922
4.000000 7.920000 4.120000 -15.741955 53.138832 3071.544678
4.000000 7.920000 4.160000 -28.985489 -6.011623 876.298157
4.000000 7.920000 4.200000 4.170727 -36.852623 1375.510864
4.000000 7.960000 3.800000 6.835631 -23.586411 603.044617
4.000000 7.960000 3.840000 -13.171412 -66.540161 4601.079102
4.000000 7.960000 3.880000 24.952311 -122.897743 15726.473633
4.000000 7.960000 3.920000 113.011467 -129.577911 29562.027344
4.000000 7.960000 3.960000 187.585403 -57.567280 38502.277344
4.000000 7.960000 4.000000 185.640182 53.688583 37344.742188
4.000000 7.960000 4.040000 104.242126 127.569107 27140.296875
4.000000 7.960000 4.080000 4.560711 118.505493 14064.351562
4.000000 7.960000 4.120000 -44.260437 50.422607 4501.425781
4.000000 7.960000 4.160000 -25.466892 -10.952374 768.517151
4.000000 7.960000 4.200000 18.728775 -21.553839 815.334961
4.000000 8.000000 3.800000 15.010551 -16.788881 507.183197
4.000000 8.000000 3.840000 24.789717 -64.097183 4722.978516
4.000000 8.000000 3.880000 88.421944 -88.235428 15603.930664
4.000000 8.000000 3.920000 163.976227 -44.442528 28863.341797
4.000000 8.000000 3.960000 185.397156 55.164909 37415.273438
4.000000 8.000000 4.000000 124.057640 145.219849 36479.101562
4.000000 8.000000 4.040000 18.265656 163.304016 27001.835938
4.000000 8.000000 4.080000 -59.685249 104.999207 14587.162109
4.000000 8.000000 4.120000 -67.140274 24.469196 5106.558105
4.000000 8.000000 4.160000 -23.559633 -18.105522 882.866272
4.000000 8.000000 4.200000 16.685860 -8.766484 355.269165
4.000000 8.040000 3.800000 22.077009 -4.534919 507.959839
4.000000 8.040000 3.840000 51.986012 -31.305584 3682.584961
4.000000 8.040000 3.880000 106.384857 -16.414467 11587.172852
4.000000 8.040000 3.920000 136.338638 49.704193 21058.730469
4.000000 8.040000 3.960000 103.537376 128.207993 27157.277344
4.000000 8.040000 4.000000 18.609512 162.172806 26646.333984
4.000000 8.040000 4.040000 -64.687981 126.519058 20191.607422
4.000000 8.040000 4.080000 -95.264183 49.699924 11545.347656
4.000000 8.040000 4.120000 -66.811905 -13.261131 4639.687988
4.000000 8.040000 4.160000 -17.112938 -29.061932 1137.448486
4.000000 8.040000 4.200000 11.360907 -9.261909 214.853180
4.000000 8.080000 3.800000 20.931574 13.371538 616.928833
4.000000 8.080000 3.840000 46.052254 12.235074 2270.507080
4.000000 8.080000 3.880000 66.940872 42.173626 6259.695312
4.000000 8.080000 3.920000 54.912689 88.981636 10933.134766
4.000000 8.080000 3.960000 4.796928 117.988373 13944.266602
4.000000 8.080000 4.000000 -56.870140 102.980255 13839.145508
4.000000 8.080000 4.040000 -92.172897 49.434708 10939.632812
4.000000 8.080000 4.080000 -82.528229 -9.694557 6904.893066
4.000000 8.080000 4.120000 -41.834587 -41.415504 3465.376709
4.000000 8.080000 4.160000 -1.425758 -37.629017 1417.975708
4.000000 8.080000 4.200000 17.122860 -15.909248 546.296509
4.000000 8.120000 3.800000 6.700383 27.975439 827.520325
4.000000 8.120000 3.840000 10.917690 35.385075 1371.299438
4.000000 8.120000 3.880000 4.466009 49.336548 2454.040283
4.000000 8.120000 3.920000 -16.080681 57.845886 3604.734863
4.000000 8.120000 3.960000 -42.942818 49.807922 4324.914551
4.000000 8.120000 4.000000 -61.681332 23.647926 4363.811035
4.000000 8.120000 4.040000 -60.808056 -10.695118 3812.005127
4.000000 8.120000 4.080000 -39.425316 -37.802551 2983.388428
4.000000 8.120000 4.120000 -7.643254 -46.296352 2201.771729
4.000000 8.120000 4.160000 20.041084 -35.138451 1636.355713
4.000000 8.120000 4.200000 33.348232 -12.915212 1278.907349
4.000000 8.160000 3.800000 -14.113754 28.136833 990.879456
4.000000 8.160000 3.840000 -24.802902 23.864904 1184.717651
4.000000 8.160000 3.880000 -32.094494 11.880389 1171.200195
4.000000 8.160000 3.920000 -31.015701 -2.160355 966.640869
4.000000 8.160000 3.960000 -24.143314 -11.834564 722.956543
4.000000 8.160000 4.000000 -17.251261 -17.091961 589.741089
4.000000 8.160000 4.040000 -11.219599 -22.656340 639.189148
4.000000 8.160000 4.080000 -0.805317 -29.646248 879.548584
4.000000 8.160000 4.120000 17.386856 -31.235252 1277.943726
4.000000 8.160000 4.160000 37.114944 -18.992512 1738.234619
4.000000 8.160000 4.200000 45.192177 6.245273 2081.336426
4.000000 8.200000 3.800000 -26.487951 13.394607 881.027039
4.000000 8.200000 3.840000 -33.858685 -6.195360 1184.792969
4.000000 8.200000 3.880000 -23.128170 -28.254925 1333.252930
4.000000 8.200000 3.920000 0.882117 -35.786095 1281.422607
4.000000 8.200000 3.960000 20.444050 -24.425684 1014.573181
4.000000 8.200000 4.000000 23.263283 -7.446316 596.627930
4.000000 8.200000 4.040000 15.348053 -1.259106 237.148071
4.000000 8.200000 4.080000 13.609032 -7.186295 236.848572
4.000000 8.200000 4.120000 25.926899 -10.054682 773.300720
4.000000 8.200000 4.160000 40.925022 4.258360 1692.991089
4.000000 8.200000 4.200000 39.297874 31.441286 2532.877441
4.040000 7.800000 3.800000 -34.615299 -34.900986 2416.297852
4.040000 7.800000 3.840000 -13.842655 -32.756226 1264.589478
4.040000 7.800000 3.880000 -3.204348 -21.148373 457.521515
4.040000 7.800000 3.920000 -3.026226 -11.440495 140.042969
4.040000 7.800000 3.960000 -4.903809 -8.674801 99.299507
4.040000 7.800000 4.000000 -1.862625 -7.771717 63.868958
4.040000 7.800000 4.040000 3.570389 -0.674023 13.201982
4.040000 7.800000 4.080000 2.060523 13.161011 177.457962
4.040000 7.800000 4.120000 -11.714390 24.318592 728.620850
4.040000 7.800000 4.160000 -31.632721 22.210182 1493.921265
4.040000 7.800000 4.200000 -44.491280 6.178756 2017.651001
4.040000 7.840000 3.800000 -17.063290 -44.450302 2266.985107
4.040000 7.840000 3.840000 -16.260353 -35.301754 1510.612915
4.040000 7.840000 3.880000 -22.511528 -40.347572 2134.695557
4.040000 7.840000 3.920000 -15.734901 -57.305275 3531.481689
4.040000 7.840000 3.960000 11.115440 -65.562286 4421.966797
4.040000 7.840000 4.000000 41.622803 -47.535328 3992.065186
4.040000 7.840000 4.040000 50.017548 -8.798187 2579.163330
4.040000 7.840000 4.080000 26.435108 24.316055 1290.085449
4.040000 7.840000 4.120000 -12.243458 28.293493 950.424072
4.040000 7.840000 4.160000 -37.326214 3.936676 1408.743652
4.040000 7.840000 4.200000 -34.220345 -25.493832 1820.967407
4.040000 7.880000 3.800000 1.235826 -43.258854 1872.855713
4.040000 7.880000 3.840000 -15.441561 -48.568909 2597.380859
4.040000 7.880000 3.880000 -14.362679 -80.071999 6617.811523
4.040000 7.880000 3.920000 24.748428 -106.520210 11959.040039
4.040000 7.880000 3.960000 82.742424 -91.520828 15222.370117
4.040000 7.880000 4.000000 114.965958 -32.160149 14251.447266
4.040000 7.880000 4.040000 93.061432 33.631557 9791.511719
4.040000 7.880000 4.080000 33.061470 60.192307 4716.174805
4.040000 7.880000 4.120000 -18.902056 35.403931 1610.726074
4.040000 7.880000 4.160000 -28.948839 -10.563763 949.628357
4.040000 7.880000 4.200000 -3.702668 -36.434452 1341.178955
4.040000 7.920000 3.800000 15.263077 -34.914177 1451.961304
4.040000 7.920000 3.840000 1.785583 -64.461334 4158.452148
4.040000 7.920000 3.880000 33.324505 -105.398277 12219.319336
4.040000 7.920000 3.920000 103.973808 -106.528618 22158.898438
4.040000 7.920000 3.960000 162.077576 -44.462494 28246.054688
4.040000 7.920000 4.000000 156.535278 47.701027 26778.681641
4.040000 7.920000 4.040000 86.374069 106.741783 18854.289062
4.040000 7.920000 4.080000 3.349972 96.208504 9267.298828
4.040000 7.920000 4.120000 -35.437363 37.732887 2679.577393
4.040000 7.920000 4.160000 -17.619993 -13.199136 484.681335
4.040000 7.920000 4.200000 20.163651 -20.632839 832.286865
4.040000 7.960000 3.800000 24.672443 -22.740561 1125.862549
4.040000 7.960000 3.840000 34.443565 -63.758045 5251.447754
4.040000 7.960000 3.880000 94.495880 -83.212433 15853.781250
4.040000 7.960000 3.920000 164.542007 -38.452560 28552.671875
4.040000 7.960000 3.960000 181.666901 57.759239 36338.992188
4.040000 7.960000 4.000000 120.350830 142.140900 34688.359375
4.040000 7.960000 4.040000 19.453077 156.445923 24853.748047
4.040000 7.960000 4.080000 -51.872402 99.594559 12609.822266
4.040000 7.960000 4.120000 -55.767166 25.324734 3751.318848
4.040000 7.960000 4.160000 -14.348145 -10.350910 313.010590
4.040000 7.960000 4.200000 19.749315 1.926861 393.748260
4.040000 8.000000 3.800000 29.236311 -6.929796 902.783997
4.040000 8.000000 3.840000 62.260887 -35.210213 5116.176758
4.040000 8.000000 3.880000 122.693710 -16.872795 15338.437500
4.040000 8.000000 3.920000 154.771561 58.404114 27365.277344
4.040000 8.000000 3.960000 116.350876 145.604202 34738.109375
4.040000 8.000000 4.000000 21.883205 181.336212 33361.695312
4.040000 8.000000 4.040000 -67.346741 140.834335 24369.894531
4.040000 8.000000 4.080000 -97.122108 59.188622 12935.997070
4.040000 8.000000 4.120000 -65.551437 -3.036539 4306.211426
4.040000 8.000000 4.160000 -17.146633 -14.169205 494.773376
4.040000 8.000000 4.200000 4.264873 7.384291 72.716888
4.040000 8.040000 3.800000 25.411819 11.548512 779.128662
4.040000 8.040000 3.840000 61.432709 8.988194 3854.765381
4.040000 8.040000 3.880000 92.467560 50.828209 11133.756836
4.040000 8.040000 3.920000 77.185562 116.598312 19552.777344
4.040000 8.040000 3.960000 9.510891 156.902710 24708.917969
4.040000 8.040000 4.000000 -71.738747 137.051315 23929.509766
4.040000 8.040000 4.040000 -115.367706 68.460129 17996.496094
4.040000 8.040000 4.080000 -101.253235 -2.338604 10257.686523
4.040000 8.040000 4.120000 -53.471405 -35.141094 4094.087646
4.040000 8.040000 4.160000 -13.305557 -27.189560 916.309998
4.040000 8.040000 4.200000 -1.586449 -6.452964 44.157562
4.040000 8.080000 3.800000 10.117016 26.205616 789.088318
4.040000 8.080000 3.840000 28.026627 39.605396 2354.079102
4.040000 8.080000 3.880000 24.779028 72.969620 5938.565430
4.040000 8.080000 3.920000 -11.419609 99.069794 9945.231445
4.040000 8.080000 3.960000 -63.752132 91.156265 12373.798828
4.040000 8.080000 4.000000 -99.664032 46.989990 12140.978516
4.040000 8.080000 4.040000 -97.757034 -9.063591 9638.585938
4.040000 8.080000 4.080000 -63.699486 -46.729828 6241.301270
4.040000 8.080000 4.120000 -22.061625 -53.028656 3298.753662
4.040000 8.080000 4.160000 5.556981 -37.535126 1439.765625
4.040000 8.080000 4.200000 14.793295 -18.412146 557.848694
4.040000 8.120000 3.800000 -12.093652 27.815811 919.975769
4.040000 8.120000 3.840000 -15.022881 35.507812 1486.491577
4.040000 8.120000 3.880000 -30.058634 39.792770 2486.986084
4.040000 8.120000 3.920000 -49.868629 30.346769 3407.806641
4.040000 8.120000 3.960000 -61.802578 6.986332 3868.367432
4.040000 8.120000 4.000000 -57.938625 -21.064888 3800.613770
4.040000 8.120000 4.040000 -39.387466 -42.770775 3380.711914
4.040000 8.120000 4.080000 -13.192665 -51.686855 2845.577393
4.040000 8.120000 4.120000 12.797041 -46.809181 2354.863525
4.040000 8.120000 4.160000 32.138222 -30.462484 1960.828369
4.040000 8.120000 4.200000 39.819790 -7.403892 1640.433350
4.040000 8.160000 3.800000 -28.623928 14.005138 1015.473206
4.040000 8.160000 3.840000 -36.745975 3.726459 1364.153198
4.040000 8.160000 3.880000 -36.766136 -13.963094 1546.716797
4.040000 8.160000 3.920000 -24.719271 -28.985077 1451.177002
4.040000 8.160000 3.960000 -7.755933 -33.148346 1158.967407
4.040000 8.160000 4.000000 4.302855 -29.056377 862.787598
4.040000 8.160000 4.040000 10.410572 -25.693649 768.543640
4.040000 8.160000 4.080000 18.510900 -26.026691 1020.042114
4.040000 8.160000 4.120000 33.685669 -22.002983 1618.855469
4.040000 8.160000 4.160000 48.418327 -4.156591 2361.611816
4.040000 8.160000 4.200000 47.792336 24.507685 2884.733887
4.040000 8.200000 3.800000 -28.914770 -5.015083 861.214966
4.040000 8.200000 3.840000 -25.993214 -26.434380 1374.423584
4.040000 8.200000 3.880000 -4.336432 -42.633072 1836.383545
4.040000 8.200000 3.920000 24.406216 -38.221977 2056.583008
4.040000 8.200000 3.960000 40.044060 -15.932722 1857.378418
4.040000 8.200000 4.000000 35.083862 5.123726 1257.130005
4.040000 8.200000 4.040000 22.683605 9.860528 611.776001
4.040000 8.200000 4.080000 21.518824 3.675858 476.571716
4.040000 8.200000 4.120000 33.916153 5.913262 1185.272095
4.040000 8.200000 4.160000 42.048752 26.834681 2488.197754
4.040000 8.200000 4.200000 27.412647 53.644089 3629.141602
4.080000 7.800000 3.800000 -17.429188 -43.894512 2230.504639
4.080000 7.800000 3.840000 0.923893 -36.786610 1354.108276
4.080000 7.800000 3.880000 9.232380 -23.390270 632.341553
4.080000 7.800000 3.920000 8.830822 -12.418844 232.211105
4.080000 7.800000 3.960000 6.427505 -6.767223 87.108139
4.080000 7.800000 4.000000 6.383564 -2.346069 46.253929
4.080000 7.800000 4.040000 6.083225 5.765942 70.251709
4.080000 7.800000 4.080000 -0.775126 16.352976 268.020660
4.080000 7.800000 4.120000 -16.251606 21.780891 738.521912
4.080000 7.800000 4.160000 -34.023643 15.122766 1386.306396
4.080000 7.800000 4.200000 -43.741455 -2.439518 1919.266235
4.080000 7.840000 3.800000 1.249961 -49.038532 2406.340088
4.080000 7.840000 3.840000 4.931664 -43.654453 1930.032593
4.080000 7.840000 3.880000 9.009739 -46.078793 2204.430420
4.080000 7.840000 3.920000 23.062443 -48.469975 2881.214600
4.080000 7.840000 3.960000 43.044632 -37.426910 3253.614014
4.080000 7.840000 4.000000 52.891727 -9.840565 2894.371582
4.080000 7.840000 4.040000 39.862030 20.613876 2013.913330
4.080000 7.840000 4.080000 8.347609 33.978050 1224.190552
4.080000 7.840000 4.120000 -22.168730 21.783497 965.973267
4.080000 7.840000 4.160000 -33.521713 -5.414144 1153.018188
4.080000 7.840000 4.200000 -23.687328 -27.951458 1342.373535
4.080000 7.880000 3.800000 20.221882 -43.562706 2306.633789
4.080000 7.880000 3.840000 18.623322 -52.160889 3067.586426
4.080000 7.880000 3.880000 37.280113 -66.593750 5824.534180
4.080000 7.880000 3.920000 74.482384 -60.535069 9212.120117
4.080000 7.880000 3.960000 103.124702 -21.171349 11082.929688
4.080000 7.880000 4.000000 95.127792 33.450279 10168.217773
4.080000 7.880000 4.040000 49.780388 67.517998 7036.767090
4.080000 7.880000 4.080000 -3.121777 59.376244 3535.283936
4.080000 7.880000 4.120000 -29.256561 20.779213 1287.722046
4.080000 7.880000 4.160000 -19.358522 -15.327656 609.689392
4.080000 7.880000 4.200000 6.279905 -25.473871 688.355286
4.080000 7.920000 3.800000 34.027958 -29.330986 2018.208740
4.080000 7.920000 3.840000 43.183823 -49.799961 4344.878906
4.080000 7.920000 3.880000 83.136024 -56.053219 10053.562500
4.080000 7.920000 3.920000 127.396255 -20.151468 16635.886719
4.080000 7.920000 3.960000 133.976730 48.575302 20309.324219
4.080000 7.920000 4.000000 86.512871 106.446640 18815.363281
4.080000 7.920000 4.040000 13.035221 113.661430 13088.837891
4.080000 7.920000 4.080000 -37.722839 70.525040 6396.793945
4.080000 7.920000 4.120000 -39.444748 15.722311 1803.079224
4.080000 7.920000 4.160000 -8.353966 -10.748941 185.328491
4.080000 7.920000 4.200000 17.690147 -2.240446 317.960907
4.080000 7.960000 3.800000 39.262970 -9.884483 1639.283813
4.080000 7.960000 3.840000 65.673378 -26.601398 5020.626953
4.080000 7.960000 3.880000 111.809425 -6.766624 12547.134766
4.080000 7.960000 3.920000 133.275604 57.009636 21012.484375
4.080000 7.960000 3.960000 97.335709 127.532639 25738.814453
4.080000 7.960000 4.000000 17.682144 153.791992 23964.634766
4.080000 7.960000 4.040000 -54.687737 117.671326 16837.289062
4.080000 7.960000 4.080000 -76.527580 50.124699 8368.956055
4.080000 7.960000 4.120000 -48.865292 1.252293 2389.384766
4.080000 7.960000 4.160000 -10.133150 -4.867947 126.377640
4.080000 7.960000 4.200000 4.217048 13.952075 212.443893
4.080000 8.000000 3.800000 33.827564 10.230767 1248.972656
4.080000 8.000000 3.840000 66.988022 11.406916 4617.512695
4.080000 8.000000 3.880000 94.232071 54.143360 11811.187500
4.080000 8.000000 3.920000 76.278351 118.016304 19746.234375
4.080000 8.000000 3.960000 8.916875 155.128662 24144.412109
4.080000 8.000000 4.000000 -68.672119 133.654984 22579.513672
4.080000 8.000000 4.040000 -107.537674 67.613922 16135.994141
4.080000 8.000000 4.080000 -91.563850 3.476530 8396.024414
4.080000 8.000000 4.120000 -47.645241 -22.128344 2759.732422
4.080000 8.000000 4.160000 -15.910698 -11.323342 381.368408
4.080000 8.000000 4.200000 -12.365591 5.642702 184.747925
4.080000 8.040000 3.800000 17.794905 24.677166 925.621155
4.080000 8.040000 3.840000 39.703636 42.207424 3357.845459
4.080000 8.040000 3.880000 36.122101 84.263565 8405.154297
4.080000 8.040000 3.920000 -7.785309 117.309090 13822.034180
4.080000 8.040000 3.960000 -70.599007 108.562607 16770.058594
4.080000 8.040000 4.000000 -111.911003 57.024460 15775.861328
4.080000 8.040000 4.040000 -107.683304 -5.305889 11623.846680
4.080000 8.040000 4.080000 -69.169289 -42.341900 6577.227051
4.080000 8.040000 4.120000 -28.627304 -43.581337 2718.855469
4.080000 8.040000 4.160000 -8.788715 -26.767748 793.753845
4.080000 8.040000 4.200000 -6.949312 -14.953060 271.886963
4.080000 8.080000 3.800000 -3.871537 26.911039 739.192871
4.080000 8.080000 3.840000 -1.581751 44.764938 2006.401611
4.080000 8.080000 3.880000 -23.276838 62.730701 4476.952148
4.080000 8.080000 3.920000 -60.213795 57.751312 6960.915039
4.080000 8.080000 3.960000 -87.401741 24.267225 8227.962891
4.080000 8.080000 4.000000 -85.872559 -20.481785 7793.599609
4.080000 8.080000 4.040000 -58.050888 -52.171741 6091.795898
4.080000 8.080000 4.080000 -22.642405 -59.271523 4025.791748
4.080000 8.080000 4.120000 3.206571 -48.298958 2343.071289
4.080000 8.080000 4.160000 15.632394 -32.606224 1307.537598
4.080000 8.080000 4.200000 20.387123 -19.227718 785.339966
4.080000 8.120000 3.800000 -21.248840 15.338280 686.776001
4.080000 8.120000 3.840000 -29.919928 18.304346 1230.251221
4.080000 8.120000 3.880000 -44.093025 9.421930 2032.967651
4.080000 8.120000 3.920000 -50.083611 -11.966503 2651.565430
4.080000 8.120000 3.960000 -40.385967 -34.687737 2834.265381
4.080000 8.120000 4.000000 -19.790516 -47.269814 2626.099854
4.080000 8.120000 4.040000 1.528942 -47.555756 2263.887451
4.080000 8.120000 4.080000 18.227486 -40.683239 1987.367188
4.080000 8.120000 4.120000 31.375731 -30.247784 1899.364868
4.080000 8.120000 4.160000 41.381153 -14.779670 1930.838379
4.080000 8.120000 4.200000 43.191334 6.336884 1905.647461
4.080000 8.160000 3.800000 -25.414499 -2.774639 653.595398
4.080000 8.160000 3.840000 -28.780666 -15.493057 1068.361572
4.080000 8.160000 3.880000 -20.002451 -32.939926 1485.136719
4.080000 8.160000 3.920000 1.193630 -41.328781 1709.492920
4.080000 8.160000 3.960000 22.160774 -33.825665 1635.275391
4.080000 8.160000 4.000000 31.189909 -18.340538 1309.185791
4.080000 8.160000 4.040000 30.278221 -7.894754 979.097839
4.080000 8.160000 4.080000 31.314377 -4.994557 1005.535828
4.080000 8.160000 4.120000 39.924164 1.022678 1594.984741
4.080000 8.160000 4.160000 46.449646 19.671013 2544.518311
4.080000 8.160000 4.200000 35.943699 44.557991 3277.364014
4.080000 8.200000 3.800000 -16.555843 -14.912464 496.477539
4.080000 8.200000 3.840000 -6.508814 -31.298998 1021.991943
4.080000 8.200000 3.880000 18.907343 -36.983154 1725.241211
4.080000 8.200000 3.920000 43.767906 -20.961185 2355.000977
4.080000 8.200000 3.960000 49.597359 7.479717 2515.843994
4.080000 8.200000 4.000000 35.575851 27.320805 2012.067627
4.080000 8.200000 4.040000 19.564274 28.302732 1183.805420
4.080000 8.200000 4.080000 17.846542 21.819016 794.568481
4.080000 8.200000 4.120000 26.230339 27.046217 1419.528564
4.080000 8.200000 4.160000 24.549620 47.398026 2849.256592
4.080000 8.200000 4.200000 0.514982 64.240341 4127.086426
4.120000 7.800000 3.800000 -2.841354 -41.950951 1767.955444
4.120000 7.800000 3.840000 13.626120 -32.020370 1210.975220
4.120000 7.800000 3.880000 19.990395 -16.007681 655.861694
4.120000 7.800000 3.920000 16.513054 -2.414629 278.511383
4.120000 7.800000 3.960000 9.315987 4.517906 107.199081
4.120000 7.800000 4.000000 3.960173 7.329189 69.399979
4.120000 7.800000 4.040000 0.121937 11.044722 122.000748
4.120000 7.800000 4.080000 -7.141005 16.424774 320.767151
4.120000 7.800000 4.120000 -20.614990 17.951748 747.243042
4.120000 7.800000 4.160000 -35.786812 9.128912 1364.032959
4.120000 7.800000 4.200000 -43.080368 -10.009174 1956.101685
4.120000 7.840000 3.800000 16.900717 -44.522640 2267.899658
4.120000 7.840000 3.840000 26.585390 -36.304916 2024.829956
4.120000 7.840000 3.880000 33.711563 -27.225422 1877.693115
4.120000 7.840000 3.920000 39.551178 -15.523340 1805.269775
4.120000 7.840000 3.960000 40.986992 0.747208 1680.491821
4.120000 7.840000 4.000000 32.799252 18.663616 1424.121460
4.120000 7.840000 4.040000 13.810738 30.179653 1101.547974
4.120000 7.840000 4.080000 -9.529236 27.910671 869.811890
4.120000 7.840000 4.120000 -26.396015 11.747309 834.748901
4.120000 7.840000 4.160000 -29.236473 -10.163204 958.062073
4.120000 7.840000 4.200000 -18.893358 -27.200787 1096.841797
4.120000 7.880000 3.800000 36.330246 -34.149551 2486.078613
4.120000 7.880000 3.840000 45.592381 -31.018068 3040.785889
4.120000 7.880000 3.880000 60.550240 -22.013817 4150.939453
4.120000 7.880000 3.920000 72.710098 0.814919 5287.422363
4.120000 7.880000 3.960000 67.901268 33.111202 5706.933594
4.120000 7.880000 4.000000 40.855267 57.964794 5029.070312
4.120000 7.880000 4.040000 3.211704 59.365967 3534.633057
4.120000 7.880000 4.080000 -24.237682 36.718357 1935.703125
4.120000 7.880000 4.120000 -28.395687 5.922372 841.389526
4.120000 7.880000 4.160000 -13.652521 -14.250498 389.468018
4.120000 7.880000 4.200000 4.355574 -17.154337 313.242279
4.120000 7.920000 3.800000 46.787857 -13.355624 2367.476318
4.120000 7.920000 3.840000 61.223091 -10.730289 3863.406006
4.120000 7.920000 3.880000 80.269165 8.877139 6521.942383
4.120000 7.920000 3.920000 83.499657 47.094856 9190.118164
4.120000 7.920000 3.960000 56.591019 84.503174 10343.330078
4.120000 7.920000 4.000000 8.350872 95.556496 9200.781250
4.120000 7.920000 4.040000 -33.761650 71.938431 6314.986816
4.120000 7.920000 4.080000 -46.632347 30.958998 3133.035156
4.120000 7.920000 4.120000 -30.674946 0.237816 941.008911
4.120000 7.920000 4.160000 -6.727623 -6.173525 83.373322
4.120000 7.920000 4.200000 5.165611 3.122995 36.436642
4.120000 7.960000 3.800000 43.258282 10.064841 1972.579956
4.120000 7.960000 3.840000 60.599350 19.739698 4061.937012
4.120000 7.960000 3.880000 70.551109 52.028877 7684.462891
4.120000 7.960000 3.920000 51.195778 93.028687 11275.344727
4.120000 7.960000 3.960000 2.496895 113.349365 12854.312500
4.120000 7.960000 4.000000 -49.369202 94.943237 11451.537109
4.120000 7.960000 4.040000 -73.620544 48.985840 7819.596680
4.120000 7.960000 4.080000 -61.614620 6.351909 3836.708008
4.120000 7.960000 4.120000 -32.314224 -9.872196 1141.669312
4.120000 7.960000 4.160000 -12.143929 -2.463603 153.544342
4.120000 7.960000 4.200000 -10.620085 7.952805 176.033295
4.120000 8.000000 3.800000 26.981266 26.736122 1442.808960
4.120000 8.000000 3.840000 38.317421 44.938488 3487.692383
4.120000 8.000000 3.880000 29.065063 78.189072 6958.308594
4.120000 8.000000 3.920000 -9.757368 101.068039 10309.954102
4.120000 8.000000 3.960000 -59.944565 90.205360 11730.357422
4.120000 8.000000 4.000000 -90.381516 47.511280 10426.140625
4.120000 8.000000 4.040000 -84.640144 -0.421362 7164.131836
4.120000 8.000000 4.080000 -54.390575 -26.190771 3644.291260
4.120000 8.000000 4.120000 -26.076599 -24.537674 1282.086426
4.120000 8.000000 4.160000 -15.725561 -12.266117 397.750916
4.120000 8.000000 4.200000 -17.594048 -7.757948 369.736267
4.120000 8.040000 3.800000 5.177562 30.195816 938.594421
4.120000 8.040000 3.840000 3.907168 49.061222 2422.269287
4.120000 8.040000 3.880000 -20.133883 66.570267 4836.973633
4.120000 8.040000 3.920000 -57.952698 60.734467 7047.190430
4.120000 8.040000 3.960000 -84.604462 27.088369 7891.694824
4.120000 8.040000 4.000000 -82.030807 -15.831917 6979.702637
4.120000 8.040000 4.040000 -54.928619 -43.349087 4896.296875
4.120000 8.040000 4.080000 -24.349457 -46.057404 2714.180420
4.120000 8.040000 4.120000 -7.131101 -34.561829 1245.372559
4.120000 8.040000 4.160000 -2.934708 -24.974148 632.320557
4.120000 8.040000 4.200000 -0.484670 -22.459339 504.656799
4.120000 8.080000 3.800000 -12.277834 20.505474 571.219666
4.120000 8.080000 3.840000 -22.997755 29.297478 1387.239014
4.120000 8.080000 3.880000 -44.697193 24.466393 2596.443359
4.120000 8.080000 3.920000 -59.923767 0.419147 3591.033691
4.120000 8.080000 3.960000 -54.431183 -30.433489 3888.950928
4.120000 8.080000 4.000000 -30.849466 -49.696671 3421.448730
4.120000 8.080000 4.040000 -4.700348 -49.983734 2520.467041
4.120000 8.080000 4.080000 11.442804 -38.999260 1651.880005
4.120000 8.080000 4.120000 17.819336 -28.321690 1119.646851
4.120000 8.080000 4.160000 22.056351 -21.037331 929.051880
4.120000 8.080000 4.200000 27.097046 -12.020634 878.745483
4.120000 8.120000 3.800000 -18.322096 4.696909 357.760132
4.120000 8.120000 3.840000 -27.623623 -0.311348 763.161438
4.120000 8.120000 3.880000 -31.343275 -17.557964 1290.682983
4.120000 8.120000 3.920000 -19.437778 -36.395699 1702.474121
4.120000 8.120000 3.960000 3.334290 -42.626194 1828.109863
4.120000 8.120000 4.000000 22.680660 -33.495770 1636.378906
4.120000 8.120000 4.040000 30.151104 -19.175606 1276.792969
4.120000 8.120000 4.080000 30.464161 -9.877375 1025.627686
4.120000 8.120000 4.120000 32.865128 -4.537284 1100.703491
4.120000 8.120000 4.160000 37.836178 5.444707 1461.221191
4.120000 8.120000 4.200000 35.835373 22.448717 1788.118896
4.120000 8.160000 3.800000 -13.366432 -7.337111 232.494705
4.120000 8.160000 3.840000 -12.218591 -19.776659 540.410217
4.120000 8.160000 3.880000 3.266295 -31.774050 1020.258911
4.120000 8.160000 3.920000 27.027504 -28.742149 1556.597168
4.120000 8.160000 3.960000 42.344868 -9.364864 1880.788452
4.120000 8.160000 4.000000 40.094410 12.077852 1753.436279
4.120000 8.160000 4.040000 28.531601 21.490891 1275.910645
4.120000 8.160000 4.080000 22.839588 20.509052 942.268005
4.120000 8.160000 4.120000 26.598961 23.212112 1246.306885
4.120000 8.160000 4.160000 27.257565 37.585533 2155.646973
4.120000 8.160000 4.200000 11.760069 53.594429 3010.662109
4.120000 8.200000 3.800000 -5.188866 -9.814919 123.256950
4.120000 8.200000 3.840000 6.394354 -19.810217 433.332458
4.120000 8.200000 3.880000 28.717382 -16.420990 1094.336914
4.120000 8.200000 3.920000 44.076080 5.962650 1978.254028
4.120000 8.200000 3.960000 38.369606 33.371922 2585.911865
4.120000 8.200000 4.000000 17.296169 46.339996 2446.552734
4.120000 8.200000 4.040000 0.353660 40.976189 1679.173218
4.120000 8.200000 4.080000 -1.074366 32.541679 1060.115234
4.120000 8.200000 4.120000 3.601328 36.901150 1374.664429
4.120000 8.200000 4.160000 -4.077089 50.897377 2607.165527
4.120000 8.200000 4.200000 -28.393581 54.881336 3818.156738
4.160000 7.800000 3.800000 4.789318 -36.205467 1333.773438
4.160000 7.800000 3.840000 19.418217 -22.928373 902.777466
4.160000 7.800000 3.880000 21.386246 -4.265327 475.564545
4.160000 7.800000 3.920000 11.911436 8.894794 220.999680
4.160000 7.800000 3.960000 -0.004429 11.687687 136.602036
4.160000 7.800000 4.000000 -6.511968 8.752954 119.019936
4.160000 7.800000 4.040000 -8.357519 8.090490 135.304169
4.160000 7.800000 4.080000 -12.950788 11.524979 300.548035
4.160000 7.800000 4.120000 -24.800720 11.983910 758.689819
4.160000 7.800000 4.160000 -38.411049 1.032878 1476.475586
4.160000 7.800000 4.200000 -41.711136 -20.770081 2171.215088
4.160000 7.840000 3.800000 26.647625 -35.347412 1959.535400
4.160000 7.840000 3.840000 36.897152 -18.357491 1698.397217
4.160000 7.840000 3.880000 35.414951 -0.053949 1254.221680
4.160000 7.840000 3.920000 25.827969 12.407452 821.028809
4.160000 7.840000 3.960000 14.411944 17.713127 521.459045
4.160000 7.840000 4.000000 4.316387 18.925375 376.801025
4.160000 7.840000 4.040000 -5.608339 18.161684 361.300232
4.160000 7.840000 4.080000 -16.670242 13.575747 462.197876
4.160000 7.840000 4.120000 -25.987804 2.078991 679.688171
4.160000 7.840000 4.160000 -27.270496 -15.265877 976.726990
4.160000 7.840000 4.200000 -16.490902 -31.283375 1250.599365
4.160000 7.880000 3.800000 44.570740 -18.754143 2338.268555
4.160000 7.880000 3.840000 49.544418 0.041475 2454.651123
4.160000 7.880000 3.880000 44.699203 18.466290 2339.022705
4.160000 7.880000 3.920000 32.342224 32.023300 2071.511230
4.160000 7.880000 3.960000 15.858006 38.445923 1729.565308
4.160000 7.880000 4.000000 -1.361366 36.912163 1364.361084
4.160000 7.880000 4.040000 -15.685370 27.671064 1011.718628
4.160000 7.880000 4.080000 -23.370296 12.795974 709.907715
4.160000 7.880000 4.120000 -22.051441 -3.336168 497.396057
4.160000 7.880000 4.160000 -12.504924 -15.340787 391.712860
4.160000 7.880000 4.200000 1.226026 -19.384079 377.245667
4.160000 7.920000 3.800000 47.888187 6.693076 2338.075928
4.160000 7.920000 3.840000 47.009056 25.641016 2867.312988
4.160000 7.920000 3.880000 36.634502 43.628548 3245.537109
4.160000 7.920000 3.920000 17.545052 55.136662 3347.880371
4.160000 7.920000 3.960000 -5.549949 55.268513 3085.410400
4.160000 7.920000 4.000000 -24.868923 43.165600 2481.732422
4.160000 7.920000 4.040000 -33.593914 23.796471 1694.822998
4.160000 7.920000 4.080000 -30.289963 5.552739 948.314758
4.160000 7.920000 4.120000 -19.652618 -5.104400 412.280304
4.160000 7.920000 4.160000 -8.545985 -7.350098 127.057800
4.160000 7.920000 4.200000 -0.947624 -4.820452 24.134747
4.160000 7.960000 3.800000 34.412273 28.274220 1983.636108
4.160000 7.960000 3.840000 27.098518 45.025970 2761.667725
4.160000 7.960000 3.880000 9.499710 58.389305 3499.555420
4.160000 7.960000 3.920000 -15.356327 60.456814 3890.843262
4.160000 7.960000 3.960000 -37.969616 47.534714 3701.240723
4.160000 7.960000 4.000000 -48.334618 24.743166 2948.459473
4.160000 7.960000 4.040000 -43.714424 3.269336 1921.639526
4.160000 7.960000 4.080000 -30.668598 -8.071911 1005.718689
4.160000 7.960000 4.120000 -18.972038 -9.089816 442.562988
4.160000 7.960000 4.160000 -13.349481 -6.393671 219.087662
4.160000 7.960000 4.200000 -11.028618 -5.680338 153.896652
4.160000 8.000000 3.800000 11.888154 35.893608 1429.679321
4.160000 8.000000 3.840000 -1.047659 46.889107 2199.686035
4.160000 8.000000 3.880000 -22.804649 49.602238 2980.434082
4.160000 8.000000 3.920000 -44.780235 37.409737 3404.757812
4.160000 8.000000 3.960000 -55.083641 13.657808 3220.743164
4.160000 8.000000 4.000000 -48.929451 -9.536091 2485.028076
4.160000 8.000000 4.040000 -33.039673 -21.259876 1543.602295
4.160000 8.000000 4.080000 -19.202103 -20.723473 798.183044
4.160000 8.000000 4.120000 -13.524615 -16.175325 444.556366
4.160000 8.000000 4.160000 -12.356613 -15.344333 388.134430
4.160000 8.000000 4.200000 -8.497097 -17.796648 388.921326
4.160000 8.040000 3.800000 -7.561229 28.502319 869.554382
4.160000 8.040000 3.840000 -22.423378 30.615761 1440.132690
4.160000 8.040000 3.880000 -39.956154 20.399168 2012.620361
4.160000 8.040000 3.920000 -47.902275 -1.580572 2297.126221
4.160000 8.040000 3.960000 -39.511589 -23.735502 2124.539795
4.160000 8.040000 4.000000 -20.814552 -33.729630 1570.933472
4.160000 8.040000 4.040000 -4.922621 -29.896341 918.023376
4.160000 8.040000 4.080000 0.657562 -21.621273 467.911835
4.160000 8.040000 4.120000 0.055597 -18.539825 343.728210
4.160000 8.040000 4.160000 2.388501 -20.669203 432.920868
4.160000 8.040000 4.200000 10.456675 -20.084320 512.721924
4.160000 8.080000 3.800000 -15.750578 13.881371 440.773132
4.160000 8.080000 3.840000 -26.869825 7.169819 773.393799
4.160000 8.080000 3.880000 -31.666376 -10.591995 1114.949707
4.160000 8.080000 3.920000 -21.356426 -29.488796 1325.686035
4.160000 8.080000 3.960000 -0.494911 -36.029392 1298.362061
4.160000 8.080000 4.000000 16.732082 -27.170033 1018.173279
4.160000 8.080000 4.040000 20.883156 -13.259042 611.908386
4.160000 8.080000 4.080000 16.236687 -6.506850 305.969116
4.160000 8.080000 4.120000 14.420751 -8.091813 273.435486
4.160000 8.080000 4.160000 20.361607 -8.414585 485.400269
4.160000 8.080000 4.200000 26.805233 0.222058 718.569824
4.160000 8.120000 3.800000 -13.337362 2.175837 182.619507
4.160000 8.120000 3.840000 -16.359612 -9.243137 353.072479
4.160000 8.120000 3.880000 -6.571530 -23.967346 617.618652
4.160000 8.120000 3.920000 14.515245 -27.587805 971.779297
4.160000 8.120000 3.960000 32.433495 -14.294358 1256.260254
4.160000 8.120000 4.000000 34.742474 5.813051 1240.831055
4.160000 8.120000 4.040000 24.275152 17.287451 888.138977
4.160000 8.120000 4.080000 15.258620 15.898818 485.597900
4.160000 8.120000 4.120000 16.712967 12.167051 427.360413
4.160000 8.120000 4.160000 22.372791 17.773546 816.440735
4.160000 8.120000 4.200000 18.984377 30.856548 1312.533203
4.160000 8.160000 3.800000 -7.784444 -1.661169 63.357048
4.160000 8.160000 3.840000 -2.470933 -12.069777 151.785049
4.160000 8.160000 3.880000 15.309794 -15.431159 472.510468
4.160000 8.160000 3.920000 33.113010 -1.679909 1099.293579
4.160000 8.160000 3.960000 35.218422 22.220221 1734.075439
4.160000 8.160000 4.000000 20.262722 38.603630 1900.818115
4.160000 8.160000 4.040000 2.991887 38.088390 1459.676880
4.160000 8.160000 4.080000 -2.312380 29.323681 865.225342
4.160000 8.160000 4.120000 2.271723 27.986509 788.405396
4.160000 8.160000 4.160000 1.770999 37.704689 1424.780029
4.160000 8.160000 4.200000 -12.703142 45.372261 2220.011963
4.160000 8.200000 3.800000 -6.347744 -0.670941 40.744015
4.160000 8.200000 3.840000 3.977142 -6.506339 58.150105
4.160000 8.200000 3.880000 20.013315 1.872244 404.038086
4.160000 8.200000 3.920000 24.699131 24.017799 1186.901733
4.160000 8.200000 3.960000 10.310749 43.609005 2008.056885
4.160000 8.200000 4.000000 -12.100574 45.900902 2253.316650
4.160000 8.200000 4.040000 -24.685720 33.856697 1755.660645
4.160000 8.200000 4.080000 -22.597666 24.071218 1090.078125
4.160000 8.200000 4.120000 -18.587025 27.005951 1074.798828
4.160000 8.200000 4.160000 -26.788761 34.599800 1914.783813
4.160000 8.200000 4.200000 -44.573509 30.121155 2894.081543
4.200000 7.800000 3.800000 7.901112 -32.370586 1110.282471
4.200000 7.800000 3.840000 18.294434 -15.995314 590.536377
4.200000 7.800000 3.880000 13.896912 1.627382 195.772522
4.200000 7.800000 3.920000 0.313404 9.123981 83.345261
4.200000 7.800000 3.960000 -10.580374 5.236352 139.363693
4.200000 7.800000 4.000000 -12.498085 -1.068865 157.344604
4.200000 7.800000 4.040000 -10.552001 -1.042288 112.431091
4.200000 7.800000 4.080000 -14.625551 3.722744 227.765579
4.200000 7.800000 4.120000 -27.040407 2.568751 737.782104
4.200000 7.800000 4.160000 -37.803482 -12.215389 1578.318970
4.200000 7.800000 4.200000 -33.352364 -34.991379 2336.776855
4.200000 7.840000 3.800000 30.490330 -25.814024 1596.024048
4.200000 7.840000 3.840000 32.891319 -2.595848 1088.577271
4.200000 7.840000 3.880000 19.213047 13.530668 552.220154
4.200000 7.840000 3.920000 1.952587 14.577887 216.327362
4.200000 7.840000 3.960000 -6.879680 6.294456 86.950165
4.200000 7.840000 4.000000 -6.694545 0.255092 44.882000
4.200000 7.840000 4.040000 -6.599120 0.961015 44.471931
4.200000 7.840000 4.080000 -13.420563 1.654265 182.848099
4.200000 7.840000 4.120000 -22.757824 -6.956990 566.318298
4.200000 7.840000 4.160000 -22.793644 -24.635996 1126.482544
4.200000 7.840000 4.200000 -7.076798 -39.374382 1600.422974
4.200000 7.880000 3.800000 43.334625 -3.781995 1892.193237
4.200000 7.880000 3.840000 33.289719 19.778706 1499.402588
4.200000 7.880000 3.880000 12.069473 28.046925 932.302185
4.200000 7.880000 3.920000 -4.554555 20.590139 444.697815
4.200000 7.880000 3.960000 -8.843705 8.916074 157.707489
4.200000 7.880000 4.000000 -6.126223 3.496347 49.755051
4.200000 7.880000 4.040000 -6.287733 3.864742 54.471817
4.200000 7.880000 4.080000 -11.854981 1.481385 142.735092
4.200000 7.880000 4.120000 -15.382289 -8.828820 314.562866
4.200000 7.880000 4.160000 -8.346491 -21.664993 539.035889
4.200000 7.880000 4.200000 8.452079 -25.693428 731.589844
4.200000 7.920000 3.800000 37.767273 21.753260 1899.571289
4.200000 7.920000 3.840000 16.729502 37.117863 1657.611938
4.200000 7.920000 3.880000 -6.156482 33.559578 1164.147461
4.200000 7.920000 3.920000 -17.106453 18.548662 636.683594
4.200000 7.920000 3.960000 -14.885528 5.840128 255.686035
4.200000 7.920000 4.000000 -8.957804 2.360736 85.815323
4.200000 7.920000 4.040000 -8.078897 3.754165 79.362335
4.200000 7.920000 4.080000 -11.700554 1.635058 139.576370
4.200000 7.920000 4.120000 -12.283379 -6.212003 189.470367
4.200000 7.920000 4.160000 -4.799137 -13.470967 204.498688
4.200000 7.920000 4.200000 7.125960 -12.313786 202.408630
4.200000 7.960000 3.800000 17.339497 36.482788 1631.651855
4.200000 7.960000 3.840000 -7.432078 38.209442 1515.197266
4.200000 7.960000 3.880000 -24.616140 23.542608 1160.208740
4.200000 7.960000 3.920000 -26.032129 4.867620 701.365479
4.200000 7.960000 3.960000 -16.594139 -5.244799 302.873352
4.200000 7.960000 4.000000 -7.932441 -4.266883 81.129906
4.200000 7.960000 4.040000 -7.122487 0.338338 50.844292
4.200000 7.960000 4.080000 -11.393011 0.121762 129.815536
4.200000 7.960000 4.120000 -12.876766 -6.018868 202.037888
4.200000 7.960000 4.160000 -7.445909 -11.842496 195.686264
4.200000 7.960000 4.200000 1.302246 -10.954440 121.695602
4.200000 8.000000 3.800000 -5.170510 34.229244 1198.375244
4.200000 8.000000 3.840000 -24.712605 23.315638 1154.331787
4.200000 8.000000 3.880000 -30.845709 2.768310 959.121277
4.200000 8.000000 3.920000 -21.631924 -13.792390 658.170166
4.200000 8.000000 3.960000 -6.598002 -17.044992 334.065399
4.200000 8.000000 4.000000 1.916243 -9.277054 89.735718
4.200000 8.000000 4.040000 -0.633552 -1.157888 1.742094
4.200000 8.000000 4.080000 -8.128200 -1.388611 67.995865
4.200000 8.000000 4.120000 -10.775235 -9.147848 199.788818
4.200000 8.000000 4.160000 -4.729140 -16.039951 279.644806
4.200000 8.000000 4.200000 4.843046 -14.926071 246.242691
4.200000 8.040000 3.800000 -17.866724 20.613539 744.137817
4.200000 8.040000 3.840000 -26.697624 3.506504 725.058716
4.200000 8.040000 3.880000 -20.842205 -15.662653 679.716187
4.200000 8.040000 3.920000 -3.569484 -24.331295 604.753113
4.200000 8.040000 3.960000 12.469954 -17.643539 466.794250
4.200000 8.040000 4.000000 15.987455 -3.287098 266.403748
4.200000 8.040000 4.040000 7.143301 5.331779 79.454620
4.200000 8.040000 4.080000 -3.031103 1.468018 11.342661
4.200000 8.040000 4.120000 -3.596621 -9.131659 96.322861
4.200000 8.040000 4.160000 5.883312 -14.669512 249.807938
4.200000 8.040000 4.200000 15.775490 -9.253211 334.487976
4.200000 8.080000 3.800000 -18.314207 7.115355 386.038483
4.200000 8.080000 3.840000 -16.853458 -8.779172 361.112915
4.200000 8.080000 3.880000 -2.551309 -20.617130 431.575256
4.200000 8.080000 3.920000 16.962585 -18.050648 613.555176
4.200000 8.080000 3.960000 27.552336 -1.903781 762.755615
4.200000 8.080000 4.000000 21.866646 14.859816 698.964355
4.200000 8.080000 4.040000 7.040369 18.950089 408.672668
4.200000 8.080000 4.080000 -2.084069 9.610886 96.712471
4.200000 8.080000 4.120000 2.261954 -1.066256 6.253337
4.200000 8.080000 4.160000 13.449557 -1.000603 181.891800
4.200000 8.080000 4.200000 18.305462 9.538144 426.066132
4.200000 8.120000 3.800000 -13.451055 1.067764 182.070984
4.200000 8.120000 3.840000 -6.117403 -9.589503 129.381195
4.200000 8.120000 3.880000 10.754911 -11.836924 255.780884
4.200000 8.120000 3.920000 25.620546 0.997122 657.406677
4.200000 8.120000 3.960000 25.614664 21.486015 1117.759888
4.200000 8.120000 4.000000 10.526789 33.840595 1255.999146
4.200000 8.120000 4.040000 -5.895117 29.701519 916.932617
4.200000 8.120000 4.080000 -9.795204 16.773781 377.305725
4.200000 8.120000 4.120000 -1.419611 10.335968 108.847534
4.200000 8.120000 4.160000 6.056199 16.708460 315.850189
4.200000 8.120000 4.200000 1.773585 27.014322 732.919250
4.200000 8.160000 3.800000 -11.604162 0.582963 134.996429
4.200000 8.160000 3.840000 -2.648412 -5.135252 33.384892
4.200000 8.160000 3.880000 11.584176 0.570374 134.518463
4.200000 8.160000 3.920000 17.140131 18.505926 636.253418
4.200000 8.160000 3.960000 6.197688 35.610001 1306.483521
4.200000 8.160000 4.000000 -13.204272 38.101749 1626.096069
4.200000 8.160000 4.040000 -24.999483 26.383694 1321.073486
4.200000 8.160000 4.080000 -22.206242 14.488363 703.029846
4.200000 8.160000 4.120000 -13.948671 14.328828 399.880737
4.200000 8.160000 4.160000 -14.206254 22.603531 712.737305
4.200000 8.160000 4.200000 -25.250431 25.480238 1286.826904
4.200000 8.200000 3.800000 -14.425119 -1.562784 210.526367
4.200000 8.200000 3.840000 -5.221171 -4.386947 46.505936
4.200000 8.200000 3.880000 3.904578 5.560039 46.159756
4.200000 8.200000 3.920000 0.150691 21.946014 481.650269
4.200000 8.200000 3.960000 -16.461163 29.852280 1162.128540
4.200000 8.200000 4.000000 -32.416283 22.374968 1551.454590
4.200000 8.200000 4.040000 -35.595863 8.295274 1335.876953
4.200000 8.200000 4.080000 -28.536701 1.794793 817.564575
4.200000 8.200000 4.120000 -24.616505 6.123167 643.465454
4.200000 8.200000 4.160000 -31.594324 10.396503 1106.288574
4.200000 8.200000 4.200000 -42.043392 3.415142 1779.310059
