#kx 	ky 	kz 	real 	imag 	intensity
0.800000 2.800000 8.800000 -8.088343 -6.174751 103.548843
0.800000 2.800000 8.840000 -9.777977 -3.282578 106.384148
0.800000 2.800000 8.880000 -15.180261 -7.130966 281.290985
0.800000 2.800000 8.920000 -14.946005 -18.499365 565.609558
0.800000 2.800000 8.960000 -3.281799 -28.633484 830.646606
0.800000 2.800000 9.000000 14.744153 -27.054117 949.315308
0.800000 2.800000 9.040000 26.655823 -12.390934 864.068115
0.800000 2.800000 9.080000 24.266006 5.240217 616.298950
0.800000 2.800000 9.120000 11.673662 13.579823 320.685974
0.800000 2.800000 9.160000 0.883962 9.869568 98.189758
0.800000 2.800000 9.200000 -0.510985 2.511660 6.569541
0.800000 2.840000 8.800000 -5.932786 -9.511108 125.659134
0.800000 2.840000 8.840000 -8.684430 -6.258622 114.589676
0.800000 2.840000 8.880000 -13.247480 -10.628211 288.454620
0.800000 2.840000 8.920000 -10.585407 -20.381441 527.453979
0.800000 2.840000 8.960000 1.661321 -25.635548 659.941284
0.800000 2.840000 9.000000 15.280592 -18.988684 594.066589
0.800000 2.840000 9.040000 19.072147 -4.148686 380.958405
0.800000 2.840000 9.080000 10.532471 6.901794 158.567688
0.800000 2.840000 9.120000 -1.093094 5.985976 37.026768
0.800000 2.840000 9.160000 -4.384229 -2.749865 26.783220
0.800000 2.840000 9.200000 2.074759 -7.568695 61.589771
0.800000 2.880000 8.800000 -0.364912 -14.118110 199.454178
0.800000 2.880000 8.840000 -3.478196 -10.762081 127.920235
0.800000 2.880000 8.880000 -7.035471 -14.414375 257.272064
0.800000 2.880000 8.920000 -3.970171 -21.349724 471.572968
0.800000 2.880000 8.960000 5.432673 -23.324760 573.558350
0.800000 2.880000 9.000000 13.370506 -16.860966 463.062622
0.800000 2.880000 9.040000 13.122008 -7.588561 229.773346
0.800000 2.880000 9.080000 6.891122 -4.131520 64.557014
0.800000 2.880000 9.120000 3.555023 -8.065588 77.691902
0.800000 2.880000 9.160000 8.191542 -11.652847 202.890198
0.800000 2.880000 9.200000 15.310849 -6.779099 280.378296
0.800000 2.920000 8.800000 10.733935 -14.786938 333.870911
0.800000 2.920000 8.840000 7.135297 -10.498869 161.138702
0.800000 2.920000 8.880000 3.160532 -12.679319 170.754105
0.800000 2.920000 8.920000 4.401595 -17.903311 339.902588
0.800000 2.920000 8.960000 10.428231 -20.117115 513.446289
0.800000 2.920000 9.000000 16.170290 -17.315239 561.295776
0.800000 2.920000 9.040000 18.366871 -12.873207 503.061401
0.800000 2.920000 9.080000 19.039913 -10.219976 466.966187
0.800000 2.920000 9.120000 21.641109 -7.777760 528.831177
0.800000 2.920000 9.160000 24.728643 -1.099605 612.714905
0.800000 2.920000 9.200000 21.861799 9.758068 573.158142
0.800000 2.960000 8.800000 22.458681 -5.938195 539.654541
0.800000 2.960000 8.840000 16.811089 -0.488293 282.851135
0.800000 2.960000 8.880000 10.646450 -2.329180 118.771980
0.800000 2.960000 8.920000 9.740187 -8.467765 166.574280
0.800000 2.960000 8.960000 14.970505 -13.137070 396.698608
0.800000 2.960000 9.000000 22.945503 -12.716450 688.204224
0.800000 2.960000 9.040000 29.802637 -7.213133 940.226501
0.800000 2.960000 9.080000 33.334534 1.824677 1114.520630
0.800000 2.960000 9.120000 31.962383 12.883290 1187.573120
0.800000 2.960000 9.160000 23.815376 23.243166 1107.416870
0.800000 2.960000 9.200000 8.985000 27.560621 840.318054
0.800000 3.000000 8.800000 25.995621 11.042854 797.716919
0.800000 3.000000 8.840000 16.648554 15.963442 532.005859
0.800000 3.000000 8.880000 8.172246 11.842411 207.028320
0.800000 3.000000 8.920000 7.275849 2.891989 61.301586
0.800000 3.000000 8.960000 14.949610 -3.161542 233.486176
0.800000 3.000000 9.000000 26.123201 -0.602188 682.784241
0.800000 3.000000 9.040000 33.273708 10.796373 1223.701294
0.800000 3.000000 9.080000 30.897205 25.969091 1629.031006
0.800000 3.000000 9.120000 18.279564 37.379704 1731.384644
0.800000 3.000000 9.160000 -0.041880 38.568794 1487.553589
0.800000 3.000000 9.200000 -15.858179 27.387884 1001.578003
0.800000 3.040000 8.800000 17.049515 27.374310 1040.038818
0.800000 3.040000 8.840000 4.196260 28.759314 844.706726
0.800000 3.040000 8.880000 -4.281394 20.306841 430.698120
0.800000 3.040000 8.920000 -2.100367 9.241629 89.819237
0.800000 3.040000 8.960000 8.895200 5.331051 107.544693
0.800000 3.040000 9.000000 19.571220 13.397400 562.522949
0.800000 3.040000 9.040000 20.033253 29.224695 1255.414062
0.800000 3.040000 9.080000 7.049973 42.119873 1823.785889
0.800000 3.040000 9.120000 -13.199326 42.333904 1966.381592
0.800000 3.040000 9.160000 -29.061878 27.945158 1625.524658
0.800000 3.040000 9.200000 -31.128819 6.321062 1008.959167
0.800000 3.080000 8.800000 0.184640 34.378384 1181.907349
0.800000 3.080000 8.840000 -13.608421 29.953400 1082.395264
0.800000 3.080000 8.880000 -18.689970 17.564413 657.823608
0.800000 3.080000 8.920000 -11.978177 7.493019 199.622055
0.800000 3.080000 8.960000 -0.304072 8.751175 76.675522
0.800000 3.080000 9.000000 4.416435 21.025503 461.576660
0.800000 3.080000 9.040000 -4.866860 33.926456 1174.690674
0.800000 3.080000 9.080000 -23.700867 35.026321 1788.574219
0.800000 3.080000 9.120000 -38.931061 20.278231 1926.834106
0.800000 3.080000 9.160000 -39.009701 -2.130107 1526.294067
0.800000 3.080000 9.200000 -23.213470 -17.942535 860.799805
0.800000 3.120000 8.800000 -15.713234 30.736664 1191.648193
0.800000 3.120000 8.840000 -26.919674 20.530794 1146.182373
0.800000 3.120000 8.880000 -26.478577 7.020008 750.395569
0.800000 3.120000 8.920000 -16.804640 1.215426 283.873169
0.800000 3.120000 8.960000 -8.907814 7.367395 133.627655
0.800000 3.120000 9.000000 -12.760169 18.133522 491.646545
0.800000 3.120000 9.040000 -27.453896 20.449984 1171.918213
0.800000 3.120000 9.080000 -40.810577 7.612403 1723.451904
0.800000 3.120000 9.120000 -39.791508 -13.589977 1768.051636
0.800000 3.120000 9.160000 -22.500807 -27.917818 1285.690918
0.800000 3.120000 9.200000 -0.576486 -24.740028 612.401367
0.800000 3.160000 8.800000 -25.649076 21.811087 1133.598633
0.800000 3.160000 8.840000 -31.703892 7.916729 1067.811401
0.800000 3.160000 8.880000 -26.201174 -3.402036 698.075378
0.800000 3.160000 8.920000 -17.131096 -4.045266 309.838623
0.800000 3.160000 8.960000 -15.834875 3.052825 260.063019
0.800000 3.160000 9.000000 -25.339096 6.038170 678.529236
0.800000 3.160000 9.040000 -36.135677 -4.028836 1322.018799
0.800000 3.160000 9.080000 -34.683945 -23.030777 1733.392822
0.800000 3.160000 9.120000 -17.177469 -36.102150 1598.430664
0.800000 3.160000 9.160000 5.161778 -31.211208 1000.783508
0.800000 3.160000 9.200000 15.252121 -11.181534 357.653900
0.800000 3.200000 8.800000 -31.208311 12.463814 1129.305298
0.800000 3.200000 8.840000 -31.279814 -2.442210 984.391174
0.800000 3.200000 8.880000 -22.941845 -9.804827 622.462891
0.800000 3.200000 8.920000 -17.282019 -7.417288 353.684326
0.800000 3.200000 8.960000 -21.254801 -4.354089 470.724670
0.800000 3.200000 9.000000 -29.298887 -11.267485 985.380981
0.800000 3.200000 9.040000 -28.268368 -27.726646 1567.867432
0.800000 3.200000 9.080000 -11.729439 -40.500610 1777.879150
0.800000 3.200000 9.120000 11.136848 -35.979816 1418.576660
0.800000 3.200000 9.160000 22.313772 -14.862156 718.788086
0.800000 3.200000 9.200000 11.905468 6.206416 180.259766
0.840000 2.800000 8.800000 -9.214053 -8.134895 151.075287
0.840000 2.800000 8.840000 -7.320244 -5.937717 88.842453
0.840000 2.800000 8.880000 -9.000278 -7.419367 136.052017
0.840000 2.800000 8.920000 -7.589167 -14.150445 257.830566
0.840000 2.800000 8.960000 1.790188 -20.206924 411.524567
0.840000 2.800000 9.000000 15.947297 -17.488914 560.178406
0.840000 2.800000 9.040000 25.346283 -4.273495 660.696838
0.840000 2.800000 9.080000 22.822720 11.949140 663.658447
0.840000 2.800000 9.120000 10.554299 20.848289 546.044434
0.840000 2.800000 9.160000 -2.031355 18.500914 346.410217
0.840000 2.800000 9.200000 -7.175895 10.078789 153.075455
0.840000 2.840000 8.800000 -2.215683 -15.030708 230.831451
0.840000 2.840000 8.840000 0.985223 -9.732364 95.689568
0.840000 2.840000 8.880000 -0.062418 -6.835564 46.728825
0.840000 2.840000 8.920000 -0.607264 -7.867479 62.266003
0.840000 2.840000 8.960000 2.551664 -9.345128 93.842415
0.840000 2.840000 9.000000 7.472604 -7.021545 105.141907
0.840000 2.840000 9.040000 9.368688 -0.996993 88.766304
0.840000 2.840000 9.080000 6.257626 4.199032 56.789749
0.840000 2.840000 9.120000 1.381529 4.761308 24.578674
0.840000 2.840000 9.160000 -0.510799 1.951609 4.069693
0.840000 2.840000 9.200000 1.294621 0.432671 1.863248
0.840000 2.880000 8.800000 11.237322 -16.127005 386.357697
0.840000 2.880000 8.840000 13.694039 -5.282709 215.433731
0.840000 2.880000 8.880000 8.138900 3.175858 76.327759
0.840000 2.880000 8.920000 -0.828552 4.300938 19.184563
0.840000 2.880000 8.960000 -6.733140 -1.520281 47.646420
0.840000 2.880000 9.000000 -5.984869 -9.526857 126.579666
0.840000 2.880000 9.040000 0.414840 -14.540483 211.597717
0.840000 2.880000 9.080000 8.744748 -14.005778 272.632446
0.840000 2.880000 9.120000 15.159280 -8.258424 298.005341
0.840000 2.880000 9.160000 16.898411 0.508905 285.815247
0.840000 2.880000 9.200000 12.683651 8.773874 237.855865
0.840000 2.920000 8.800000 24.547415 -5.393003 631.660034
0.840000 2.920000 8.840000 21.090719 10.781091 561.050354
0.840000 2.920000 8.880000 5.801624 19.794203 425.469299
0.840000 2.920000 8.920000 -11.995626 13.929955 337.938721
0.840000 2.920000 8.960000 -19.604033 -4.278636 402.624817
0.840000 2.920000 9.000000 -10.612141 -22.976326 640.529114
0.840000 2.920000 9.040000 10.006245 -29.392868 964.065613
0.840000 2.920000 9.080000 29.399061 -18.927074 1222.538940
0.840000 2.920000 9.120000 35.819519 2.022076 1287.126709
0.840000 2.920000 9.160000 26.158142 20.904097 1121.229736
0.840000 2.920000 9.200000 7.143341 27.271414 794.757324
0.840000 2.960000 8.800000 26.821465 14.612765 932.923828
0.840000 2.960000 8.840000 13.259357 30.616966 1113.209229
0.840000 2.960000 8.880000 -10.633297 31.312868 1093.562744
0.840000 2.960000 8.920000 -28.696053 11.967220 966.677795
0.840000 2.960000 8.960000 -25.833065 -16.587339 942.487061
0.840000 2.960000 9.000000 -1.087767 -34.451981 1188.122192
0.840000 2.960000 9.040000 29.960711 -27.786936 1669.758057
0.840000 2.960000 9.080000 46.280319 -0.017885 2141.868164
0.840000 2.960000 9.120000 37.149727 30.424641 2305.760986
0.840000 2.960000 9.160000 9.742779 43.884663 2020.785400
0.840000 2.960000 9.200000 -16.977943 33.467556 1408.327881
0.840000 3.000000 8.800000 13.184299 32.000877 1197.881836
0.840000 3.000000 8.840000 -8.741124 39.790741 1659.710327
0.840000 3.000000 8.880000 -32.492645 26.909584 1779.897705
0.840000 3.000000 8.920000 -39.362312 -2.539535 1555.840820
0.840000 3.000000 8.960000 -20.261597 -29.259619 1266.657593
0.840000 3.000000 9.000000 14.329226 -32.633198 1270.252197
0.840000 3.000000 9.040000 40.408325 -7.966679 1696.300781
0.840000 3.000000 9.080000 38.838844 28.218306 2304.728516
0.840000 3.000000 9.120000 10.772834 50.368950 2653.084961
0.840000 3.000000 9.160000 -23.181076 43.659241 2443.491699
0.840000 3.000000 9.200000 -39.242325 14.855950 1760.659302
0.840000 3.040000 8.800000 -9.097551 35.101925 1314.910645
0.840000 3.040000 8.840000 -31.507442 30.349766 1913.827148
0.840000 3.040000 8.880000 -44.883240 7.632985 2072.767822
0.840000 3.040000 8.920000 -36.083641 -20.156292 1708.305298
0.840000 3.040000 8.960000 -7.539227 -32.645126 1122.544189
0.840000 3.040000 9.000000 21.594242 -18.443607 806.477905
0.840000 3.040000 9.040000 29.350252 13.660309 1048.041382
0.840000 3.040000 9.080000 9.138870 39.964104 1680.648560
0.840000 3.040000 9.120000 -23.858263 40.482594 2208.057129
0.840000 3.040000 9.160000 -44.472080 15.221628 2209.463867
0.840000 3.040000 9.200000 -37.704102 -16.031614 1678.611938
0.840000 3.080000 8.800000 -26.276508 23.068165 1222.595215
0.840000 3.080000 8.840000 -40.630074 8.902700 1730.060913
0.840000 3.080000 8.880000 -40.088619 -13.334944 1784.918091
0.840000 3.080000 8.920000 -22.234158 -28.733681 1319.982178
0.840000 3.080000 8.960000 1.636765 -25.106302 633.005432
0.840000 3.080000 9.000000 13.728613 -4.163874 205.812653
0.840000 3.080000 9.040000 4.204902 17.965780 340.450439
0.840000 3.080000 9.080000 -19.512295 23.061060 912.542114
0.840000 3.080000 9.120000 -37.809769 6.237224 1468.481567
0.840000 3.080000 9.160000 -34.942444 -19.326153 1594.474609
0.840000 3.080000 9.200000 -12.311915 -33.048035 1243.755859
0.840000 3.120000 8.800000 -30.421019 6.163751 963.430176
0.840000 3.120000 8.840000 -33.725845 -9.474949 1227.207275
0.840000 3.120000 8.880000 -24.752872 -22.609398 1123.889648
0.840000 3.120000 8.920000 -9.806112 -24.485001 695.675110
0.840000 3.120000 8.960000 -0.166730 -14.720875 216.731949
0.840000 3.120000 9.000000 -3.098113 -2.534260 16.020775
0.840000 3.120000 9.040000 -15.154565 0.411833 229.830444
0.840000 3.120000 9.080000 -24.328094 -9.818640 688.261902
0.840000 3.120000 9.120000 -20.164024 -25.227463 1043.012695
0.840000 3.120000 9.160000 -3.324556 -32.106644 1041.889160
0.840000 3.120000 9.200000 14.167721 -22.819162 721.438477
0.840000 3.160000 8.800000 -25.616835 -4.871471 679.953491
0.840000 3.160000 8.840000 -21.413040 -15.707376 705.239990
0.840000 3.160000 8.880000 -12.927893 -19.001955 528.204712
0.840000 3.160000 8.920000 -8.076533 -15.558907 307.309967
0.840000 3.160000 8.960000 -10.244944 -12.394299 258.577515
0.840000 3.160000 9.000000 -14.977503 -16.036896 481.507629
0.840000 3.160000 9.040000 -13.932337 -25.846401 862.146484
0.840000 3.160000 9.080000 -2.951208 -33.681206 1143.133179
0.840000 3.160000 9.120000 13.001619 -30.780233 1116.464844
0.840000 3.160000 9.160000 22.997368 -16.023754 785.639587
0.840000 3.160000 9.200000 19.063637 1.917575 367.099335
0.840000 3.200000 8.800000 -21.562496 -9.053729 546.911255
0.840000 3.200000 8.840000 -15.205995 -14.361581 437.477295
0.840000 3.200000 8.880000 -11.746942 -13.481058 319.729553
0.840000 3.200000 8.920000 -14.502628 -13.888166 403.207397
0.840000 3.200000 8.960000 -17.620293 -22.050323 796.691467
0.840000 3.200000 9.000000 -11.571531 -35.209114 1373.582031
0.840000 3.200000 9.040000 6.333452 -42.151024 1816.821533
0.840000 3.200000 9.080000 26.914536 -33.301544 1833.385010
0.840000 3.200000 9.120000 35.535492 -10.973354 1383.185791
0.840000 3.200000 9.160000 24.849602 10.559965 729.015564
0.840000 3.200000 9.200000 2.195149 16.095905 263.896851
0.880000 2.800000 8.800000 -7.641481 -14.839558 278.604706
0.880000 2.800000 8.840000 -2.053301 -8.704595 79.986008
0.880000 2.800000 8.880000 -3.743373 -4.695614 36.061630
0.880000 2.800000 8.920000 -5.898213 -7.785162 95.397667
0.880000 2.800000 8.960000 -0.791727 -13.874550 193.129959
0.880000 2.800000 9.000000 11.341999 -13.537411 311.902435
0.880000 2.800000 9.040000 21.331837 -2.077581 459.363617
0.880000 2.800000 9.080000 19.711134 14.602240 601.754211
0.880000 2.800000 9.120000 6.347166 24.759054 653.297241
0.880000 2.800000 9.160000 -8.914511 21.671455 549.120483
0.880000 2.800000 9.200000 -15.259420 9.618927 325.373657
0.880000 2.840000 8.800000 8.272882 -18.634270 415.676605
0.880000 2.840000 8.840000 13.607164 -3.634195 198.362305
0.880000 2.840000 8.880000 6.024430 8.872919 115.022446
0.880000 2.840000 8.920000 -6.992121 9.663758 142.277969
0.880000 2.840000 8.960000 -13.664209 -0.134275 186.728653
0.880000 2.840000 9.000000 -8.702797 -10.351398 182.890137
0.880000 2.840000 9.040000 2.399284 -11.602837 140.382385
0.880000 2.840000 9.080000 9.550470 -3.670207 104.681908
0.880000 2.840000 9.120000 7.856354 5.664019 93.803406
0.880000 2.840000 9.160000 1.113461 9.158464 85.117264
0.880000 2.840000 9.200000 -3.585604 6.640524 56.953110
0.880000 2.880000 8.800000 25.403690 -7.704133 704.701111
0.880000 2.880000 8.840000 22.412676 17.422178 805.860352
0.880000 2.880000 8.880000 -0.769327 32.723793 1071.438599
0.880000 2.880000 8.920000 -28.988422 24.134455 1422.800537
0.880000 2.880000 8.960000 -40.774498 -4.020096 1678.720825
0.880000 2.880000 9.000000 -26.734064 -31.384914 1699.723145
0.880000 2.880000 9.040000 2.419949 -38.507034 1488.647949
0.880000 2.880000 9.080000 25.580421 -22.541721 1162.487183
0.880000 2.880000 9.120000 28.967142 2.339277 844.567566
0.880000 2.880000 9.160000 15.479824 18.669355 588.169800
0.880000 2.880000 9.200000 -1.256536 19.580276 384.966125
0.880000 2.920000 8.800000 29.612129 15.891180 1129.407715
0.880000 2.920000 8.840000 9.742167 43.496113 1986.821655
0.880000 2.920000 8.880000 -30.322945 46.639420 3094.716309
0.880000 2.920000 8.920000 -62.479801 14.761167 4121.617676
0.880000 2.920000 8.960000 -59.514206 -34.031582 4700.089355
0.880000 2.920000 9.000000 -19.758274 -65.366890 4663.219727
0.880000 2.920000 9.040000 29.764338 -56.894108 4122.855469
0.880000 2.920000 9.080000 55.368935 -16.627310 3342.186523
0.880000 2.920000 9.120000 43.754585 25.101582 2544.553223
0.880000 2.920000 9.160000 9.965506 41.521908 1823.380127
0.880000 2.920000 9.200000 -18.638069 29.085459 1193.341553
0.880000 2.960000 8.800000 13.147815 37.238052 1559.537476
0.880000 2.960000 8.840000 -23.125443 53.079712 3352.241943
0.880000 2.960000 8.880000 -66.655670 31.833612 5456.357422
0.880000 2.960000 8.920000 -81.503113 -22.141220 7132.990723
0.880000 2.960000 8.960000 -48.392086 -73.878067 7799.762695
0.880000 2.960000 9.000000 14.882812 -84.661301 7389.033691
0.880000 2.960000 9.040000 65.287155 -45.214073 6306.725098
0.880000 2.960000 9.080000 69.425133 15.644603 5064.602539
0.880000 2.960000 9.120000 30.123676 55.115730 3945.179443
0.880000 2.960000 9.160000 -18.669657 51.084606 2958.193115
0.880000 2.960000 9.200000 -42.056763 16.486092 2040.562500
0.880000 3.000000 8.800000 -15.624174 39.605927 1812.744263
0.880000 3.000000 8.840000 -55.506630 33.676441 4215.088867
0.880000 3.000000 8.880000 -82.400352 -8.644564 6864.546387
0.880000 3.000000 8.920000 -66.736778 -65.074554 8688.495117
0.880000 3.000000 8.960000 -9.227560 -94.477936 9011.227539
0.880000 3.000000 9.000000 54.157223 -71.089622 7986.739258
0.880000 3.000000 9.040000 79.425735 -8.742544 6384.879395
0.880000 3.000000 9.080000 50.959747 48.603893 4959.234375
0.880000 3.000000 9.120000 -5.905863 62.705128 3966.812256
0.880000 3.000000 9.160000 -47.297234 31.143730 3206.960205
0.880000 3.000000 9.200000 -47.106049 -14.385030 2425.908691
0.880000 3.040000 8.800000 -37.108963 19.821129 1769.952393
0.880000 3.040000 8.840000 -63.736237 -4.224250 4080.152100
0.880000 3.040000 8.880000 -63.571533 -48.888771 6431.451660
0.880000 3.040000 8.920000 -25.291794 -84.277641 7742.395508
0.880000 3.040000 8.960000 31.876492 -80.338371 7470.364746
0.880000 3.040000 9.000000 69.477676 -34.110577 5990.678711
0.880000 3.040000 9.040000 60.691574 24.135857 4266.006836
0.880000 3.040000 9.080000 13.654274 53.986317 3100.961670
0.880000 3.040000 9.120000 -34.668999 37.847977 2634.408691
0.880000 3.040000 9.160000 -49.230095 -5.580683 2454.746338
0.880000 3.040000 9.200000 -24.791349 -38.921585 2129.500732
0.880000 3.080000 8.800000 -37.212337 -7.745386 1444.749023
0.880000 3.080000 8.840000 -42.768566 -34.566383 3023.985107
0.880000 3.080000 8.880000 -23.813305 -61.971256 4407.509766
0.880000 3.080000 8.920000 13.809504 -68.446938 4875.685547
0.880000 3.080000 8.960000 47.224045 -44.325150 4194.829102
0.880000 3.080000 9.000000 52.969482 -2.669117 2812.890381
0.880000 3.080000 9.040000 26.814617 28.592957 1536.580811
0.880000 3.080000 9.080000 -11.093124 28.638580 943.225708
0.880000 3.080000 9.120000 -31.914829 1.148512 1019.875427
0.880000 3.080000 9.160000 -21.778967 -28.834169 1305.732666
0.880000 3.080000 9.200000 7.437019 -36.164989 1363.215698
0.880000 3.120000 8.800000 -19.792717 -23.858711 960.989746
0.880000 3.120000 8.840000 -11.045143 -38.801460 1627.548584
0.880000 3.120000 8.880000 7.349541 -44.053230 1994.702881
0.880000 3.120000 8.920000 25.348705 -34.884277 1859.469727
0.880000 3.120000 8.960000 32.142059 -15.831192 1283.738525
0.880000 3.120000 9.000000 23.924519 1.450956 574.487854
0.880000 3.120000 9.040000 7.461838 6.245594 94.686470
0.880000 3.120000 9.080000 -4.357944 -2.818321 26.934614
0.880000 3.120000 9.120000 -2.528496 -16.134979 266.730835
0.880000 3.120000 9.160000 10.447208 -20.585087 532.889954
0.880000 3.120000 9.200000 22.218300 -10.524651 604.421143
0.880000 3.160000 8.800000 -2.048679 -21.876316 482.770294
0.880000 3.160000 8.840000 7.085701 -22.055588 536.656128
0.880000 3.160000 8.880000 11.415424 -16.694176 409.007416
0.880000 3.160000 8.920000 9.898254 -12.704544 259.380890
0.880000 3.160000 8.960000 7.554363 -13.817162 247.982361
0.880000 3.160000 9.000000 9.616249 -17.500900 398.753784
0.880000 3.160000 9.040000 16.402761 -18.113266 597.140991
0.880000 3.160000 9.080000 23.336412 -12.403240 698.428467
0.880000 3.160000 9.120000 25.148966 -2.132978 637.020081
0.880000 3.160000 9.160000 19.842522 7.690461 452.868866
0.880000 3.160000 9.200000 9.490774 12.388035 243.538208
0.880000 3.200000 8.800000 2.823982 -12.413547 162.071014
0.880000 3.200000 8.840000 4.033545 -6.132574 53.877949
0.880000 3.200000 8.880000 -3.571194 -5.081951 38.579651
0.880000 3.200000 8.920000 -9.256897 -15.818371 335.911011
0.880000 3.200000 8.960000 -1.227943 -31.165531 972.798218
0.880000 3.200000 9.000000 20.173704 -35.865700 1693.326660
0.880000 3.200000 9.040000 40.736370 -21.286919 2112.584717
0.880000 3.200000 9.080000 44.377327 5.298130 1997.417358
0.880000 3.200000 9.120000 27.525421 26.091133 1438.395996
0.880000 3.200000 9.160000 2.272318 27.690699 771.938232
0.880000 3.200000 9.200000 -14.087744 11.562670 332.159851
0.920000 2.800000 8.800000 1.437498 -20.317762 414.877869
0.920000 2.800000 8.840000 5.777436 -7.153378 84.549576
0.920000 2.800000 8.880000 -1.413975 0.466608 2.217048
0.920000 2.800000 8.920000 -8.858131 -4.174963 95.896805
0.920000 2.800000 8.960000 -5.079449 -14.240101 228.581268
0.920000 2.800000 9.000000 9.283648 -15.954056 340.718018
0.920000 2.800000 9.040000 21.310421 -2.990982 463.080017
0.920000 2.800000 9.080000 18.579769 16.271168 609.958740
0.920000 2.800000 9.120000 1.896868 26.432438 702.271851
0.920000 2.800000 9.160000 -15.119173 20.038723 630.139832
0.920000 2.800000 9.200000 -19.166727 4.552441 388.088135
0.920000 2.840000 8.800000 21.499063 -12.176107 610.467285
0.920000 2.840000 8.840000 18.031189 13.084154 496.318848
0.920000 2.840000 8.880000 -4.796841 25.877613 692.660583
0.920000 2.840000 8.920000 -28.652790 14.695610 1036.943359
0.920000 2.840000 8.960000 -33.174400 -11.263916 1227.416748
0.920000 2.840000 9.000000 -14.778476 -29.824589 1107.909424
0.920000 2.840000 9.040000 10.292892 -26.122425 788.324707
0.920000 2.840000 9.080000 21.680286 -5.458473 499.829742
0.920000 2.840000 9.120000 13.393793 13.494270 361.489014
0.920000 2.840000 9.160000 -2.933661 17.240318 305.834930
0.920000 2.840000 9.200000 -11.767008 8.691557 214.005646
0.920000 2.880000 8.800000 30.043701 12.364889 1055.514404
0.920000 2.880000 8.840000 6.953102 43.677612 1956.079346
0.920000 2.880000 8.880000 -37.909065 45.505371 3507.835938
0.920000 2.880000 8.920000 -70.920319 8.510437 5102.119141
0.920000 2.880000 8.960000 -63.407368 -43.444115 5907.885742
0.920000 2.880000 9.000000 -18.413372 -71.902130 5508.968750
0.920000 2.880000 9.040000 30.933651 -56.992649 4205.052734
0.920000 2.880000 9.080000 50.345066 -13.683781 2721.871582
0.920000 2.880000 9.120000 32.772957 23.691128 1635.336182
0.920000 2.880000 9.160000 0.172695 32.257439 1040.572144
0.920000 2.880000 9.200000 -20.209797 16.938513 695.349121
0.920000 2.920000 8.800000 14.986031 38.236320 1686.597412
0.920000 2.920000 8.840000 -31.497082 58.203491 4379.712891
0.920000 2.920000 8.880000 -86.221062 29.781208 8320.991211
0.920000 2.920000 8.920000 -102.478668 -39.159950 12035.378906
0.920000 2.920000 8.960000 -58.168644 -102.085243 13804.987305
0.920000 2.920000 9.000000 20.514595 -111.587807 12872.687500
0.920000 2.920000 9.040000 78.945366 -60.817219 9931.104492
0.920000 2.920000 9.080000 80.009308 10.855408 6519.329102
0.920000 2.920000 9.120000 33.256618 52.907612 3905.218018
0.920000 2.920000 9.160000 -18.438583 45.524372 2412.449951
0.920000 2.920000 9.200000 -38.925571 9.939185 1613.987427
0.920000 2.960000 8.800000 -17.747608 44.143032 2263.584961
0.920000 2.960000 8.840000 -74.321152 35.798401 6805.159180
0.920000 2.960000 8.880000 -111.693527 -25.483845 13124.871094
0.920000 2.960000 8.920000 -86.967339 -105.878532 18773.582031
0.920000 2.960000 8.960000 -3.351452 -145.514755 21185.777344
0.920000 2.960000 9.000000 85.731491 -109.851509 19417.242188
0.920000 2.960000 9.040000 119.252602 -22.006018 14705.447266
0.920000 2.960000 9.080000 79.675804 55.707100 9451.514648
0.920000 2.960000 9.120000 5.232367 74.323700 5551.389648
0.920000 2.960000 9.160000 -46.385941 35.961849 3444.910156
0.920000 2.960000 9.200000 -46.788078 -15.817363 2439.313232
0.920000 3.000000 8.800000 -45.372501 21.644791 2527.160645
0.920000 3.000000 8.840000 -87.834488 -15.649171 7959.793945
0.920000 3.000000 8.880000 -86.750656 -87.785950 15232.048828
0.920000 3.000000 8.920000 -22.717203 -144.412567 21371.062500
0.920000 3.000000 8.960000 71.501694 -135.749191 23540.335938
0.920000 3.000000 9.000000 132.373154 -58.506741 20945.691406
0.920000 3.000000 9.040000 117.999077 36.751038 15274.420898
0.920000 3.000000 9.080000 43.799595 86.289093 9364.211914
0.920000 3.000000 9.120000 -31.819975 65.372864 5286.122070
0.920000 3.000000 9.160000 -57.808937 4.596458 3363.000732
0.920000 3.000000 9.200000 -29.908823 -41.928822 2652.563965
0.920000 3.040000 8.800000 -46.494614 -14.922130 2384.418945
0.920000 3.040000 8.840000 -58.192352 -61.819164 7207.958984
0.920000 3.040000 8.880000 -23.042814 -113.147736 13333.381836
0.920000 3.040000 8.920000 50.092663 -124.874786 18102.986328
0.920000 3.040000 8.960000 116.033569 -75.946663 19231.683594
0.920000 3.040000 9.000000 127.599655 8.495617 16353.847656
0.920000 3.040000 9.040000 75.954903 73.687897 11199.053711
0.920000 3.040000 9.080000 -0.446339 79.304947 6289.473633
0.920000 3.040000 9.120000 -47.684021 31.708918 3279.221191
0.920000 3.040000 9.160000 -40.295151 -24.408504 2219.474365
0.920000 3.040000 9.200000 1.927971 -45.837173 2104.763428
0.920000 3.080000 8.800000 -20.330265 -39.178032 1948.237915
0.920000 3.080000 8.840000 -6.009291 -70.682098 5032.070801
0.920000 3.080000 8.880000 35.704071 -85.418716 8571.137695
0.920000 3.080000 8.920000 83.225494 -63.372375 10942.541016
0.920000 3.080000 8.960000 104.223518 -9.609776 10954.889648
0.920000 3.080000 9.000000 81.330627 45.231277 8660.539062
0.920000 3.080000 9.040000 28.298187 67.121468 5306.079102
0.920000 3.080000 9.080000 -19.231144 45.717392 2459.916748
0.920000 3.080000 9.120000 -31.792889 2.537392 1017.226135
0.920000 3.080000 9.160000 -8.866411 -27.421000 830.524414
0.920000 3.080000 9.200000 23.269363 -24.336641 1133.735352
0.920000 3.120000 8.800000 12.101953 -35.521191 1408.212280
0.920000 3.120000 8.840000 30.932034 -40.820679 2623.118408
0.920000 3.120000 8.880000 51.799736 -30.869535 3636.140869
0.920000 3.120000 8.920000 62.885216 -7.565929 4011.793457
0.920000 3.120000 8.960000 56.764679 18.919662 3580.182373
0.920000 3.120000 9.000000 35.540039 35.562466 2527.783203
0.920000 3.120000 9.040000 10.455368 34.592663 1305.967041
0.920000 3.120000 9.080000 -4.873685 19.115746 389.164520
0.920000 3.120000 9.120000 -3.837538 1.512039 17.012959
0.920000 3.120000 9.160000 8.194923 -5.348929 95.767815
0.920000 3.120000 9.200000 17.940456 2.051739 326.069611
0.920000 3.160000 8.800000 27.033066 -12.358580 883.521118
0.920000 3.160000 8.840000 31.151072 -1.482965 972.588440
0.920000 3.160000 8.880000 25.813272 6.812637 712.737061
0.920000 3.160000 8.920000 19.077555 6.816071 410.411926
0.920000 3.160000 8.960000 18.720726 3.186476 360.619202
0.920000 3.160000 9.000000 23.522705 4.444208 573.068604
0.920000 3.160000 9.040000 25.296482 12.786339 803.402466
0.920000 3.160000 9.080000 18.570770 21.710825 816.233398
0.920000 3.160000 9.120000 6.615101 23.437988 593.098877
0.920000 3.160000 9.160000 -2.540911 17.172073 301.336334
0.920000 3.160000 9.200000 -4.798932 8.976740 103.611603
0.920000 3.200000 8.800000 19.086220 7.179531 415.829437
0.920000 3.200000 8.840000 6.641819 15.657154 289.260223
0.920000 3.200000 8.880000 -8.154629 6.155287 104.385529
0.920000 3.200000 8.920000 -6.059448 -14.701047 252.837708
0.920000 3.200000 8.960000 16.423447 -25.293550 909.493286
0.920000 3.200000 9.000000 41.118965 -10.860270 1808.714722
0.920000 3.200000 9.040000 44.829811 20.343941 2423.587891
0.920000 3.200000 9.080000 21.947088 43.662498 2388.088379
0.920000 3.200000 9.120000 -9.947447 40.945610 1775.494629
0.920000 3.200000 9.160000 -26.803312 16.715813 997.835938
0.920000 3.200000 9.200000 -19.737541 -7.879158 451.651672
0.960000 2.800000 8.800000 14.085414 -16.760349 479.308167
0.960000 2.800000 8.840000 10.945683 0.563118 120.125069
0.960000 2.800000 8.880000 -3.269909 5.460826 40.512924
0.960000 2.800000 8.920000 -12.106131 -5.119080 172.763367
0.960000 2.800000 8.960000 -4.574186 -18.206520 352.400574
0.960000 2.800000 9.000000 13.356773 -17.551826 486.470032
0.960000 2.800000 9.040000 24.312935 -0.194859 591.156738
0.960000 2.800000 9.080000 16.809273 20.206614 690.858887
0.960000 2.800000 9.120000 -3.335997 26.782768 728.445496
0.960000 2.800000 9.160000 -18.997089 15.867970 612.681885
0.960000 2.800000 9.200000 -18.658937 -0.225665 348.206879
0.960000 2.840000 8.800000 26.179886 4.507249 705.701721
0.960000 2.840000 8.840000 6.257992 29.359119 901.120361
0.960000 2.840000 8.880000 -28.142479 28.006077 1576.339478
0.960000 2.840000 8.920000 -48.512497 -2.048637 2357.659424
0.960000 2.840000 8.960000 -36.208397 -37.416492 2711.041992
0.960000 2.840000 9.000000 -0.471966 -49.108829 2411.899902
0.960000 2.840000 9.040000 29.753567 -28.751274 1711.910400
0.960000 2.840000 9.080000 32.313911 4.875044 1067.954834
0.960000 2.840000 9.120000 10.618443 24.779629 726.781372
0.960000 2.840000 9.160000 -12.878384 20.482559 585.388000
0.960000 2.840000 9.200000 -19.984888 4.335785 418.194794
0.960000 2.880000 8.800000 15.896998 31.728861 1259.435181
0.960000 2.880000 8.840000 -28.713678 49.052635 3230.636475
0.960000 2.880000 8.880000 -77.731422 20.219875 6451.017090
0.960000 2.880000 8.920000 -87.996109 -43.049694 9596.591797
0.960000 2.880000 8.960000 -43.695587 -95.439079 11017.922852
0.960000 2.880000 9.000000 26.054035 -96.473076 9985.867188
0.960000 2.880000 9.040000 71.126434 -46.504086 7221.599609
0.960000 2.880000 9.080000 63.650398 14.494255 4261.456543
0.960000 2.880000 9.120000 19.410999 43.543655 2272.836914
0.960000 2.880000 9.160000 -21.273117 30.553740 1386.076538
0.960000 2.880000 9.200000 -31.713860 0.371952 1005.907227
0.960000 2.920000 8.800000 -15.693668 42.481503 2050.969238
0.960000 2.920000 8.840000 -76.247559 31.721661 6819.954102
0.960000 2.920000 8.880000 -113.370476 -35.188267 14091.079102
0.960000 2.920000 8.920000 -82.982414 -118.768059 20991.933594
0.960000 2.920000 8.960000 6.924789 -155.186249 24130.724609
0.960000 2.920000 9.000000 96.845123 -112.329544 21996.904297
0.960000 2.920000 9.040000 124.956787 -20.064472 16016.781250
0.960000 2.920000 9.080000 79.405716 55.337734 9367.532227
0.960000 2.920000 9.120000 4.658703 68.189507 4671.512207
0.960000 2.920000 9.160000 -41.729668 27.830515 2515.902588
0.960000 2.920000 9.200000 -38.197853 -18.946777 1818.056274
0.960000 2.960000 8.800000 -47.306541 23.012695 2767.493164
0.960000 2.960000 8.840000 -98.151337 -23.422112 10182.280273
0.960000 2.960000 8.880000 -93.981552 -111.222122 21202.892578
0.960000 2.960000 8.920000 -13.417782 -176.803238 31439.421875
0.960000 2.960000 8.960000 99.945663 -161.056793 35928.425781
0.960000 2.960000 9.000000 168.403412 -64.792969 32557.837891
0.960000 2.960000 9.040000 145.720398 47.481926 23488.966797
0.960000 2.960000 9.080000 56.165436 101.368332 13430.095703
0.960000 2.960000 9.120000 -29.368622 73.875801 6320.149902
0.960000 2.960000 9.160000 -55.815948 5.887319 3150.080566
0.960000 2.960000 9.200000 -25.426523 -41.576977 2375.153076
0.960000 3.000000 8.800000 -53.098053 -16.647535 3096.543701
0.960000 3.000000 8.840000 -69.517708 -82.026413 11561.044922
0.960000 3.000000 8.880000 -18.739372 -153.229965 23830.585938
0.960000 3.000000 8.920000 84.851074 -166.413635 34893.203125
0.960000 3.000000 8.960000 174.882812 -93.729340 39369.187500
0.960000 3.000000 9.000000 185.799652 25.466413 35170.050781
0.960000 3.000000 9.040000 109.843712 113.152412 24869.109375
0.960000 3.000000 9.080000 4.336213 117.002975 13708.499023
0.960000 3.000000 9.120000 -57.896122 51.393139 5993.215820
0.960000 3.000000 9.160000 -48.186119 -21.279875 2774.735107
0.960000 3.000000 9.200000 2.333773 -47.938175 2303.515137
0.960000 3.040000 8.800000 -25.537201 -48.082401 2964.065918
0.960000 3.040000 8.840000 -4.837967 -101.123489 10249.366211
0.960000 3.040000 8.880000 65.175171 -127.039047 20386.722656
0.960000 3.040000 8.920000 146.032074 -88.185349 29102.023438
0.960000 3.040000 8.960000 179.130249 5.849285 32121.861328
0.960000 3.040000 9.000000 135.007248 99.073303 28042.476562
0.960000 3.040000 9.040000 41.032967 132.441360 19224.419922
0.960000 3.040000 9.080000 -39.695946 91.951340 10030.816406
0.960000 3.040000 9.120000 -59.941006 17.824661 3910.642578
0.960000 3.040000 9.160000 -23.674683 -32.396725 1610.038330
0.960000 3.040000 9.200000 24.777378 -31.430433 1601.790527
0.960000 3.080000 8.800000 16.282511 -47.829647 2552.795166
0.960000 3.080000 8.840000 51.251503 -67.058914 7123.614258
0.960000 3.080000 8.880000 101.337463 -51.771858 12949.606445
0.960000 3.080000 8.920000 132.328583 2.939510 17519.494141
0.960000 3.080000 8.960000 116.535614 70.878891 18604.367188
0.960000 3.080000 9.000000 57.161819 111.496223 15698.881836
0.960000 3.080000 9.040000 -11.237041 101.009193 10329.128906
0.960000 3.080000 9.080000 -48.579556 51.314949 4993.197266
0.960000 3.080000 9.120000 -39.758011 -0.173437 1580.729492
0.960000 3.080000 9.160000 -3.777205 -20.791302 446.545502
0.960000 3.080000 9.200000 25.126793 -6.531118 674.011230
0.960000 3.120000 8.800000 42.189934 -17.678001 2092.502197
0.960000 3.120000 8.840000 61.959557 -8.040419 3903.635010
0.960000 3.120000 8.880000 73.109016 16.410397 5614.229492
0.960000 3.120000 8.920000 66.612144 46.315060 6582.262695
0.960000 3.120000 8.960000 42.258957 68.319824 6453.417480
0.960000 3.120000 9.000000 9.153114 72.122421 5285.422852
0.960000 3.120000 9.040000 -18.643589 56.266964 3513.554688
0.960000 3.120000 9.080000 -29.705116 29.562344 1756.326050
0.960000 3.120000 9.120000 -22.175339 6.432181 533.118591
0.960000 3.120000 9.160000 -5.240282 -2.014263 31.517813
0.960000 3.120000 9.200000 7.032820 4.588360 70.513603
0.960000 3.160000 8.800000 36.712818 17.426826 1651.525391
0.960000 3.160000 8.840000 29.225811 31.468290 1844.401367
0.960000 3.160000 8.880000 15.298464 34.335571 1412.974365
0.960000 3.160000 8.920000 7.779366 27.911528 839.571899
0.960000 3.160000 8.960000 9.669952 24.030895 670.991943
0.960000 3.160000 9.000000 11.271900 29.555737 1000.597290
0.960000 3.160000 9.040000 2.434896 37.755085 1431.375122
0.960000 3.160000 9.080000 -14.500906 35.893799 1498.640991
0.960000 3.160000 9.120000 -26.191679 20.302334 1098.188721
0.960000 3.160000 9.160000 -22.731598 1.555311 519.144531
0.960000 3.160000 9.200000 -8.709595 -6.388440 116.669205
0.960000 3.200000 8.800000 11.087660 32.069729 1151.403687
0.960000 3.200000 8.840000 -11.693882 29.782417 1023.739258
0.960000 3.200000 8.880000 -21.583420 6.669072 510.320557
0.960000 3.200000 8.920000 -4.832558 -14.535198 234.625595
0.960000 3.200000 8.960000 24.064434 -9.533440 669.983459
0.960000 3.200000 9.000000 35.258545 20.790527 1675.411133
0.960000 3.200000 9.040000 13.978535 49.042168 2600.533691
0.960000 3.200000 9.080000 -23.389648 47.879440 2839.516602
0.960000 3.200000 9.120000 -44.854019 17.166059 2306.556641
0.960000 3.200000 9.160000 -33.990414 -16.372278 1423.399780
0.960000 3.200000 9.200000 -4.574566 -26.064306 700.274719
1.000000 2.800000 8.800000 20.432596 -3.800156 431.932190
1.000000 2.800000 8.840000 8.537268 10.155502 176.019165
1.000000 2.800000 8.880000 -7.877464 7.316299 115.582680
1.000000 2.800000 8.920000 -12.174072 -7.917374 210.892853
1.000000 2.800000 8.960000 0.419720 -18.792671 353.340668
1.000000 2.800000 9.000000 17.869751 -12.572380 477.392761
1.000000 2.800000 9.040000 23.061333 6.964972 580.335938
1.000000 2.800000 9.080000 10.411194 23.417576 656.775818
1.000000 2.800000 9.120000 -9.302612 23.817530 653.813293
1.000000 2.800000 9.160000 -20.182636 10.493875 517.460205
1.000000 2.800000 9.200000 -16.468746 -2.706709 278.545868
1.000000 2.840000 8.800000 15.307449 20.090717 637.954956
1.000000 2.840000 8.840000 -15.968075 30.621628 1192.663452
1.000000 2.840000 8.880000 -46.451515 9.543400 2248.819580
1.000000 2.840000 8.920000 -48.448380 -30.600994 3283.666260
1.000000 2.840000 8.960000 -16.699417 -58.251152 3672.067383
1.000000 2.840000 9.000000 25.105156 -50.759289 3206.774170
1.000000 2.840000 9.040000 45.028168 -14.835428 2247.625732
1.000000 2.840000 9.080000 31.020351 20.361103 1376.836670
1.000000 2.840000 9.120000 -0.535673 30.179272 911.075378
1.000000 2.840000 9.160000 -22.705597 14.854236 736.192444
1.000000 2.840000 9.200000 -23.131939 -5.291879 563.090576
1.000000 2.880000 8.800000 -10.739833 33.105282 1211.303711
1.000000 2.880000 8.840000 -58.934685 22.133459 3963.187012
1.000000 2.880000 8.880000 -85.153748 -32.229282 8289.887695
1.000000 2.880000 8.920000 -57.160114 -95.470695 12381.931641
1.000000 2.880000 8.960000 14.029503 -117.902054 14097.721680
1.000000 2.880000 9.000000 79.388519 -79.070129 12554.623047
1.000000 2.880000 9.040000 93.404556 -7.271244 8777.282227
1.000000 2.880000 9.080000 52.791016 45.348289 4843.358398
1.000000 2.880000 9.120000 -4.062231 48.006500 2321.125732
1.000000 2.880000 9.160000 -34.335930 13.737479 1367.674438
1.000000 2.880000 9.200000 -27.085735 -19.662518 1120.251709
1.000000 2.920000 8.800000 -41.239525 19.196302 2069.196289
1.000000 2.920000 8.840000 -86.160934 -25.637308 8080.978027
1.000000 2.920000 8.880000 -78.384735 -105.917633 17362.710938
1.000000 2.920000 8.920000 -1.756226 -161.742279 26163.648438
1.000000 2.920000 8.960000 100.088585 -141.500717 30040.177734
1.000000 2.920000 9.000000 156.238251 -51.017990 27013.226562
1.000000 2.920000 9.040000 129.220551 47.888657 18991.275391
1.000000 2.920000 9.080000 46.521011 89.922958 10250.343750
1.000000 2.920000 9.120000 -26.530998 60.247734 4333.683594
1.000000 2.920000 9.160000 -44.750355 0.043934 2002.596191
1.000000 2.920000 9.200000 -16.263874 -37.432190 1665.682373
1.000000 2.960000 8.800000 -50.858952 -17.060938 2877.708740
1.000000 2.960000 8.840000 -65.871201 -86.558472 11831.384766
1.000000 2.960000 8.880000 -9.253887 -159.548645 25541.404297
1.000000 2.960000 8.920000 100.485863 -168.455948 38474.812500
1.000000 2.960000 8.960000 191.107101 -87.460052 44171.187500
1.000000 2.960000 9.000000 195.762054 37.526337 39731.007812
1.000000 2.960000 9.040000 111.869247 123.874046 27859.507812
1.000000 2.960000 9.080000 3.360840 121.452087 14761.904297
1.000000 2.960000 9.120000 -55.737221 51.371452 5745.664062
1.000000 2.960000 9.160000 -42.125824 -19.959600 2172.970703
1.000000 2.960000 9.200000 7.153828 -42.642921 1869.595947
1.000000 3.000000 8.800000 -27.386454 -50.450878 3295.308838
1.000000 3.000000 8.840000 -1.590586 -115.211464 13276.211914
1.000000 3.000000 8.880000 85.245583 -145.103500 28321.835938
1.000000 3.000000 8.920000 183.009109 -93.788734 42288.664062
1.000000 3.000000 8.960000 218.341675 23.462570 48223.578125
1.000000 3.000000 9.000000 158.265411 134.461823 43127.921875
1.000000 3.000000 9.040000 41.693760 168.139862 30009.382812
1.000000 3.000000 9.080000 -52.448570 113.304108 15588.673828
1.000000 3.000000 9.120000 -71.174110 23.847319 5634.448242
1.000000 3.000000 9.160000 -26.199944 -32.093868 1716.453369
1.000000 3.000000 9.200000 27.028343 -28.857517 1563.287598
1.000000 3.040000 8.800000 15.414345 -54.750931 3235.266357
1.000000 3.040000 8.840000 65.180992 -86.397522 11713.093750
1.000000 3.040000 8.880000 140.736984 -65.254341 24065.027344
1.000000 3.040000 8.920000 186.673111 17.736362 35161.429688
1.000000 3.040000 8.960000 158.871246 119.499954 39520.312500
1.000000 3.040000 9.000000 65.449783 175.189880 34975.167969
1.000000 3.040000 9.040000 -36.065113 151.005127 24103.242188
1.000000 3.040000 9.080000 -84.796829 71.475586 12299.261719
1.000000 3.040000 9.120000 -64.302994 -3.392939 4146.387207
1.000000 3.040000 9.160000 -9.682791 -28.843090 925.680298
1.000000 3.040000 9.200000 28.882168 -7.153688 885.354858
1.000000 3.080000 8.800000 47.496964 -25.207218 2891.365234
1.000000 3.080000 8.840000 88.482948 -19.358353 8203.977539
1.000000 3.080000 8.880000 121.257797 25.032188 15330.063477
1.000000 3.080000 8.920000 113.867592 91.311760 21303.666016
1.000000 3.080000 8.960000 58.741814 140.827759 23283.058594
1.000000 3.080000 9.000000 -17.572418 141.530991 20339.810547
1.000000 3.080000 9.040000 -72.650986 93.431801 14007.666016
1.000000 3.080000 9.080000 -79.901344 28.649242 7205.003906
1.000000 3.080000 9.120000 -46.897850 -14.032676 2396.324463
1.000000 3.080000 9.160000 -5.661617 -17.828182 349.898010
1.000000 3.080000 9.200000 14.716578 3.959002 232.251373
1.000000 3.120000 8.800000 47.178741 16.980444 2514.169189
1.000000 3.120000 8.840000 56.988777 37.919682 4685.623047
1.000000 3.120000 8.880000 50.223263 65.833588 6856.437500
1.000000 3.120000 8.920000 25.339371 87.340752 8270.490234
1.000000 3.120000 8.960000 -9.847763 91.590912 8485.874023
1.000000 3.120000 9.000000 -42.383804 75.371231 7477.208984
1.000000 3.120000 9.040000 -60.132805 44.455673 5592.260742
1.000000 3.120000 9.080000 -57.318825 11.248505 3411.976562
1.000000 3.120000 9.120000 -37.793552 -10.839334 1545.843872
1.000000 3.120000 9.160000 -13.667072 -14.548685 398.453094
1.000000 3.120000 9.200000 1.436636 -3.386257 13.530661
1.000000 3.160000 8.800000 18.512400 42.770405 2172.016357
1.000000 3.160000 8.840000 1.648394 49.980476 2500.765381
1.000000 3.160000 8.880000 -13.475410 42.933159 2024.842773
1.000000 3.160000 8.920000 -16.755264 31.868494 1296.339844
1.000000 3.160000 8.960000 -13.708782 29.258362 1043.982422
1.000000 3.160000 9.000000 -17.803307 34.074684 1478.041870
1.000000 3.160000 9.040000 -32.837303 32.503246 2134.749512
1.000000 3.160000 9.080000 -46.225548 14.763201 2354.753418
1.000000 3.160000 9.120000 -41.977978 -11.273546 1889.243530
1.000000 3.160000 9.160000 -19.306326 -26.123192 1055.155396
1.000000 3.160000 9.200000 4.325573 -18.810097 372.530304
1.000000 3.200000 8.800000 -14.194611 39.273159 1743.867920
1.000000 3.200000 8.840000 -34.409225 21.541977 1648.051514
1.000000 3.200000 8.880000 -29.315105 -6.558592 902.390564
1.000000 3.200000 8.920000 -1.806999 -15.819191 253.512039
1.000000 3.200000 8.960000 19.268820 5.320389 399.593964
1.000000 3.200000 9.000000 8.839050 35.874714 1365.123901
1.000000 3.200000 9.040000 -26.558130 42.343391 2498.297119
1.000000 3.200000 9.080000 -53.488682 13.598194 3045.949951
1.000000 3.200000 9.120000 -45.166920 -26.512980 2742.988770
1.000000 3.200000 9.160000 -8.759647 -42.833694 1911.456787
1.000000 3.200000 9.200000 22.305172 -24.142197 1080.366333
1.040000 2.800000 8.800000 14.489920 9.613491 302.376984
1.040000 2.800000 8.840000 -0.360586 14.555389 211.989380
1.040000 2.800000 8.880000 -11.995234 5.416245 173.221329
1.040000 2.800000 8.920000 -10.074709 -8.568363 174.916611
1.040000 2.800000 8.960000 3.085152 -13.752674 198.654205
1.040000 2.800000 9.000000 14.878189 -4.856204 244.943222
1.040000 2.800000 9.040000 14.366058 10.534946 317.368744
1.040000 2.800000 9.080000 1.966976 19.670551 390.799591
1.040000 2.800000 9.120000 -12.082240 16.371176 413.995911
1.040000 2.800000 9.160000 -17.955406 5.402993 351.588928
1.040000 2.800000 9.200000 -14.545539 -3.621908 224.690918
1.040000 2.840000 8.800000 -4.668056 21.094913 466.786102
1.040000 2.840000 8.840000 -31.920948 13.303421 1195.927979
1.040000 2.840000 8.880000 -44.453426 -17.384827 2278.339355
1.040000 2.840000 8.920000 -26.974785 -49.810883 3208.763184
1.040000 2.840000 8.960000 11.191566 -57.852142 3472.121582
1.040000 2.840000 9.000000 42.462776 -33.873062 2950.471680
1.040000 2.840000 9.040000 44.594852 4.073864 2005.297119
1.040000 2.840000 9.080000 19.330275 28.235725 1170.915649
1.040000 2.840000 9.120000 -11.074610 24.908474 743.079041
1.040000 2.840000 9.160000 -24.849295 3.700148 631.178528
1.040000 2.840000 9.200000 -18.476528 -14.719197 558.036865
1.040000 2.880000 8.800000 -29.658142 11.465761 1011.069092
1.040000 2.880000 8.840000 -57.801643 -20.858631 3776.112549
1.040000 2.880000 8.880000 -49.150604 -74.311020 7937.909180
1.040000 2.880000 8.920000 4.143253 -108.308670 11747.934570
1.040000 2.880000 8.960000 70.672577 -90.708183 13222.587891
1.040000 2.880000 9.000000 103.756294 -28.715744 11589.961914
1.040000 2.880000 9.040000 81.499527 35.017353 7868.387695
1.040000 2.880000 9.080000 25.102997 58.600281 4064.153320
1.040000 2.880000 9.120000 -21.558006 35.246601 1707.070557
1.040000 2.880000 9.160000 -30.509575 -5.722721 963.583679
1.040000 2.880000 9.200000 -9.621289 -29.449287 959.829773
1.040000 2.920000 8.800000 -39.109020 -18.095215 1856.952271
1.040000 2.920000 8.840000 -46.985039 -73.078995 7548.133301
1.040000 2.920000 8.880000 1.032925 -127.568283 16274.734375
1.040000 2.920000 8.920000 87.600739 -129.595474 24468.875000
1.040000 2.920000 8.960000 155.110565 -62.211582 27929.568359
1.040000 2.920000 9.000000 153.415314 35.607975 24804.185547
1.040000 2.920000 9.040000 84.394478 99.158630 16954.861328
1.040000 2.920000 9.080000 0.401890 92.396301 8537.237305
1.040000 2.920000 9.120000 -41.915325 35.519310 3018.515869
1.040000 2.920000 9.160000 -27.991434 -18.582319 1128.822998
1.040000 2.920000 9.200000 10.541377 -33.393002 1226.213135
1.040000 2.960000 8.800000 -20.321611 -47.506317 2669.817871
1.040000 2.960000 8.840000 6.317863 -104.373199 10933.679688
1.040000 2.960000 8.880000 86.716148 -127.160027 23689.363281
1.040000 2.960000 8.920000 173.259033 -75.657875 35742.808594
1.040000 2.960000 8.960000 199.715073 32.729485 40957.328125
1.040000 2.960000 9.000000 139.744232 130.419296 36537.644531
1.040000 2.960000 9.040000 32.807945 154.846741 25053.875000
1.040000 2.960000 9.080000 -48.691650 100.636658 12498.614258
1.040000 2.960000 9.120000 -60.360859 20.073250 4046.368652
1.040000 2.960000 9.160000 -17.737041 -26.400360 1011.581665
1.040000 2.960000 9.200000 27.541847 -20.521069 1179.667603
1.040000 3.000000 8.800000 17.355698 -52.921898 3101.947510
1.040000 3.000000 8.840000 70.727158 -84.767426 12187.847656
1.040000 3.000000 8.880000 150.324783 -59.371605 26122.529297
1.040000 3.000000 8.920000 195.498352 31.321156 39200.621094
1.040000 3.000000 8.960000 160.302490 138.281677 44818.710938
1.040000 3.000000 9.000000 57.546860 191.554367 40004.714844
1.040000 3.000000 9.040000 -47.983635 158.771454 27510.804688
1.040000 3.000000 9.080000 -92.812653 71.572151 13736.761719
1.040000 3.000000 9.120000 -65.278076 -4.283365 4279.574219
1.040000 3.000000 9.160000 -7.567182 -25.436214 704.263184
1.040000 3.000000 9.200000 28.307724 -0.935658 802.202637
1.040000 3.040000 8.800000 48.098656 -27.186045 3052.561768
1.040000 3.040000 8.840000 101.037201 -22.508217 10715.135742
1.040000 3.040000 8.880000 144.777466 34.546486 22153.972656
1.040000 3.040000 8.920000 133.885712 121.365318 32654.925781
1.040000 3.040000 8.960000 58.662453 183.238098 37017.484375
1.040000 3.040000 9.000000 -41.258743 176.970779 33020.941406
1.040000 3.040000 9.040000 -106.577370 107.422211 22898.265625
1.040000 3.040000 9.080000 -105.511078 23.133144 11667.730469
1.040000 3.040000 9.120000 -55.950562 -24.582220 3734.750977
1.040000 3.040000 9.160000 -4.495983 -20.983662 460.527924
1.040000 3.040000 9.200000 15.098137 8.550465 301.064178
1.040000 3.080000 8.800000 50.284088 13.284751 2704.974121
1.040000 3.080000 8.840000 76.738342 40.314140 7514.002930
1.040000 3.080000 8.880000 76.199341 91.398811 14160.082031
1.040000 3.080000 8.920000 34.158173 137.025970 19942.898438
1.040000 3.080000 8.960000 -34.358208 144.907516 22178.673828
1.040000 3.080000 9.000000 -93.344894 105.560959 19856.386719
1.040000 3.080000 9.040000 -112.084206 40.478329 14201.364258
1.040000 3.080000 9.080000 -87.114731 -14.189730 7790.325195
1.040000 3.080000 9.120000 -41.995155 -34.238518 2935.869141
1.040000 3.080000 9.160000 -6.801284 -21.950222 528.069702
1.040000 3.080000 9.200000 3.755587 1.452844 16.215185
1.040000 3.120000 8.800000 23.759689 41.902496 2320.342041
1.040000 3.120000 8.840000 19.150650 63.057045 4342.938477
1.040000 3.120000 8.880000 -1.893948 80.260712 6445.368652
1.040000 3.120000 8.920000 -32.978470 82.741928 7933.806152
1.040000 3.120000 8.960000 -62.695435 66.935150 8411.032227
1.040000 3.120000 9.000000 -80.372574 36.913223 7822.336426
1.040000 3.120000 9.040000 -79.768021 2.015266 6366.998535
1.040000 3.120000 9.080000 -61.116688 -26.217859 4422.625488
1.040000 3.120000 9.120000 -31.947479 -38.113865 2473.308105
1.040000 3.120000 9.160000 -5.059887 -30.901266 980.490723
1.040000 3.120000 9.200000 7.740660 -11.667879 196.057220
1.040000 3.160000 8.800000 -11.638147 43.250854 2006.083008
1.040000 3.160000 8.840000 -28.900541 39.445526 2391.190918
1.040000 3.160000 8.880000 -37.118347 25.501030 2028.074219
1.040000 3.160000 8.920000 -34.184727 14.955994 1392.277344
1.040000 3.160000 8.960000 -31.588097 14.093452 1196.433228
1.040000 3.160000 9.000000 -38.951706 13.708939 1705.170410
1.040000 3.160000 9.040000 -50.025837 0.446377 2502.783691
1.040000 3.160000 9.080000 -47.710457 -24.942850 2898.433350
1.040000 3.160000 9.120000 -23.895233 -44.373741 2540.011230
1.040000 3.160000 9.160000 8.186434 -39.927422 1661.216675
1.040000 3.160000 9.200000 24.562458 -13.957146 798.116211
1.040000 3.200000 8.800000 -33.850666 23.233040 1685.641724
1.040000 3.200000 8.840000 -40.332680 -2.130747 1631.265137
1.040000 3.200000 8.880000 -21.311428 -21.635689 922.280029
1.040000 3.200000 8.920000 4.400441 -14.261337 222.749619
1.040000 3.200000 8.960000 8.008535 12.163303 212.082596
1.040000 3.200000 9.000000 -17.012154 26.802032 1007.762329
1.040000 3.200000 9.040000 -45.114021 8.448724 2106.655762
1.040000 3.200000 9.080000 -44.016769 -29.931761 2833.386230
1.040000 3.200000 9.120000 -9.220203 -52.530659 2844.482422
1.040000 3.200000 9.160000 29.649967 -37.295197 2270.052246
1.040000 3.200000 9.200000 38.524986 0.828577 1484.861084
1.080000 2.800000 8.800000 0.671602 13.080948 171.562241
1.080000 2.800000 8.840000 -9.055099 10.677299 195.999542
1.080000 2.800000 8.880000 -13.569607 1.909981 187.782257
1.080000 2.800000 8.920000 -9.989643 -6.718714 144.934082
1.080000 2.800000 8.960000 -1.635509 -9.213703 87.567215
1.080000 2.800000 9.000000 5.112915 -4.546173 46.809593
1.080000 2.800000 9.040000 5.753943 3.324921 44.162964
1.080000 2.800000 9.080000 0.353356 8.905148 79.426514
1.080000 2.800000 9.120000 -7.363682 8.849770 132.542236
1.080000 2.800000 9.160000 -12.809141 3.488016 176.240356
1.080000 2.800000 9.200000 -13.163533 -3.959472 188.956024
1.080000 2.840000 8.800000 -17.816832 5.279354 345.311066
1.080000 2.840000 8.840000 -28.757368 -10.144152 929.890015
1.080000 2.840000 8.880000 -23.870720 -33.098038 1665.291382
1.080000 2.840000 8.920000 -0.943123 -47.218895 2230.513428
1.080000 2.840000 8.960000 27.112698 -40.016621 2336.428223
1.080000 2.840000 9.000000 41.597500 -14.371155 1936.882080
1.080000 2.840000 9.040000 33.187107 12.844734 1266.371216
1.080000 2.840000 9.080000 9.387991 24.140884 670.916687
1.080000 2.840000 9.120000 -12.142622 14.963076 371.336914
1.080000 2.840000 9.160000 -18.118587 -4.192165 345.857452
1.080000 2.840000 9.200000 -8.990002 -18.072289 407.427734
1.080000 2.880000 8.800000 -23.956499 -18.143606 903.104370
1.080000 2.880000 8.840000 -24.078827 -47.871811 2871.500000
1.080000 2.880000 8.880000 4.609329 -75.126068 5665.172363
1.080000 2.880000 8.920000 52.011448 -73.626183 8126.005859
1.080000 2.880000 8.960000 87.861839 -35.520237 8981.389648
1.080000 2.880000 9.000000 86.142250 18.182663 7751.096680
1.080000 2.880000 9.040000 47.995861 53.079483 5121.034180
1.080000 2.880000 9.080000 1.331102 49.523926 2454.390869
1.080000 2.880000 9.120000 -22.846748 17.662106 833.923950
1.080000 2.880000 9.160000 -15.296412 -13.860500 426.093689
1.080000 2.880000 9.200000 7.723349 -23.688168 620.779358
1.080000 2.920000 8.800000 -7.252960 -40.824833 1719.272461
1.080000 2.920000 8.840000 14.491659 -73.954132 5679.222168
1.080000 2.920000 8.880000 67.807617 -83.430473 11558.517578
1.080000 2.920000 8.920000 121.876259 -45.746735 16946.585938
1.080000 2.920000 8.960000 135.492737 26.236338 19046.626953
1.080000 2.920000 9.000000 93.609161 88.826920 16652.896484
1.080000 2.920000 9.040000 22.904789 102.714989 11074.998047
1.080000 2.920000 9.080000 -29.699932 65.703033 5198.974609
1.080000 2.920000 9.120000 -36.051403 12.443403 1454.541870
1.080000 2.920000 9.160000 -6.968513 -17.657143 360.334869
1.080000 2.920000 9.200000 23.382738 -12.974063 715.078735
1.080000 2.960000 8.800000 24.258215 -42.997776 2437.269775
1.080000 2.960000 8.840000 66.246246 -61.240334 8138.943359
1.080000 2.960000 8.880000 124.357254 -36.280735 16781.017578
1.080000 2.960000 8.920000 153.483215 35.503239 24817.578125
1.080000 2.960000 8.960000 121.322998 115.627625 28089.015625
1.080000 2.960000 9.000000 40.438210 151.981216 24733.539062
1.080000 2.960000 9.040000 -38.767849 122.789322 16580.164062
1.080000 2.960000 9.080000 -69.414192 54.818222 7823.367188
1.080000 2.960000 9.120000 -45.531090 -1.324970 2074.835693
1.080000 2.960000 9.160000 -1.350961 -14.572895 214.194351
1.080000 2.960000 9.200000 23.936707 5.399857 602.124390
1.080000 3.000000 8.800000 48.600704 -19.211658 2731.116455
1.080000 3.000000 8.840000 94.011765 -11.003768 8959.294922
1.080000 3.000000 8.880000 128.969574 42.638931 18451.228516
1.080000 3.000000 8.920000 113.779037 119.811340 27300.425781
1.080000 3.000000 8.960000 42.393593 170.834320 30981.582031
1.080000 3.000000 9.000000 -46.838318 158.967926 27464.628906
1.080000 3.000000 9.040000 -100.498245 92.589325 18672.679688
1.080000 3.000000 9.080000 -93.472389 18.127445 9065.692383
1.080000 3.000000 9.120000 -46.414581 -19.554707 2536.699951
1.080000 3.000000 9.160000 -2.772371 -11.890759 149.076172
1.080000 3.000000 9.200000 10.344991 14.371266 313.552124
1.080000 3.040000 8.800000 47.861141 15.858488 2542.180420
1.080000 3.040000 8.840000 75.991249 44.511036 7755.902344
1.080000 3.040000 8.880000 74.423523 100.229431 15584.798828
1.080000 3.040000 8.920000 26.076096 148.780182 22815.505859
1.080000 3.040000 8.960000 -50.264294 152.778229 25867.687500
1.080000 3.040000 9.000000 -111.410240 103.737717 23173.753906
1.080000 3.040000 9.040000 -123.612816 30.529516 16212.179688
1.080000 3.040000 9.080000 -88.470505 -23.947859 8400.530273
1.080000 3.040000 9.120000 -38.081436 -36.419571 2776.581055
1.080000 3.040000 9.160000 -5.920917 -17.005005 324.227448
1.080000 3.040000 9.200000 -1.491501 6.518706 44.718105
1.080000 3.080000 8.800000 22.903835 39.451454 2081.002930
1.080000 3.080000 8.840000 25.310911 68.482193 5330.452637
1.080000 3.080000 8.880000 -0.086872 99.513596 9902.963867
1.080000 3.080000 8.920000 -48.381973 107.894348 13982.005859
1.080000 3.080000 8.960000 -95.843559 80.973312 15742.666016
1.080000 3.080000 9.000000 -116.634300 28.883434 14437.812500
1.080000 3.080000 9.040000 -101.379730 -22.458347 10782.226562
1.080000 3.080000 9.080000 -62.518059 -49.964939 6405.002930
1.080000 3.080000 9.120000 -23.246876 -47.968033 2841.349365
1.080000 3.080000 9.160000 -0.719557 -28.118710 791.179565
1.080000 3.080000 9.200000 2.781115 -7.373661 62.105476
1.080000 3.120000 8.800000 -8.745728 39.242413 1616.454712
1.080000 3.120000 8.840000 -21.945503 50.107872 2992.403809
1.080000 3.120000 8.880000 -43.585976 50.648567 4465.014648
1.080000 3.120000 8.920000 -64.654480 37.514362 5587.529297
1.080000 3.120000 8.960000 -77.133293 13.668747 6136.379395
1.080000 3.120000 9.000000 -76.507950 -14.735615 6070.604492
1.080000 3.120000 9.040000 -61.572716 -40.325157 5417.317383
1.080000 3.120000 9.080000 -35.020523 -55.081264 4260.382812
1.080000 3.120000 9.120000 -4.951751 -52.834240 2815.976807
1.080000 3.120000 9.160000 16.599785 -34.185734 1444.217285
1.080000 3.120000 9.200000 20.400026 -9.117160 499.283691
1.080000 3.160000 8.800000 -28.838108 21.083843 1276.164917
1.080000 3.160000 8.840000 -38.220238 10.527086 1571.606201
1.080000 3.160000 8.880000 -36.914730 -2.265373 1367.829224
1.080000 3.160000 8.920000 -30.525085 -7.305290 985.148071
1.080000 3.160000 8.960000 -30.054092 -6.949574 951.545044
1.080000 3.160000 9.000000 -36.313423 -13.258692 1494.457520
1.080000 3.160000 9.040000 -36.238998 -31.698444 2318.056396
1.080000 3.160000 9.080000 -17.448429 -50.521515 2856.871338
1.080000 3.160000 9.120000 14.635445 -50.276909 2741.963867
1.080000 3.160000 9.160000 37.775108 -25.072674 2055.597900
1.080000 3.160000 9.200000 33.720009 7.778347 1197.541626
1.080000 3.200000 8.800000 -32.266136 0.281278 1041.182617
1.080000 3.200000 8.840000 -24.890667 -19.725830 1008.653687
1.080000 3.200000 8.880000 -3.289829 -23.450256 560.737549
1.080000 3.200000 8.920000 9.142523 -6.284962 123.086472
1.080000 3.200000 8.960000 -2.642792 11.323330 135.202148
1.080000 3.200000 9.000000 -25.960487 5.355086 702.623840
1.080000 3.200000 9.040000 -31.640339 -23.579622 1557.109619
1.080000 3.200000 9.080000 -5.770763 -47.469395 2286.645264
1.080000 3.200000 9.120000 32.572224 -39.102077 2589.922119
1.080000 3.200000 9.160000 48.734344 -1.986794 2378.983643
1.080000 3.200000 9.200000 28.205919 31.025398 1758.149170
1.120000 2.800000 8.800000 -9.814072 4.424224 115.889755
1.120000 2.800000 8.840000 -11.419720 2.275230 135.586670
1.120000 2.800000 8.880000 -13.388170 -0.960458 180.165588
1.120000 2.800000 8.920000 -13.902292 -6.746878 238.794083
1.120000 2.800000 8.960000 -9.677063 -13.463217 274.903748
1.120000 2.800000 9.000000 -0.306846 -15.994331 255.912781
1.120000 2.800000 9.040000 8.982131 -10.339464 187.583191
1.120000 2.800000 9.080000 10.727272 0.928291 115.936089
1.120000 2.800000 9.120000 2.674610 9.083162 89.657379
1.120000 2.800000 9.160000 -8.493563 6.820296 118.657043
1.120000 2.800000 9.200000 -12.350047 -4.039235 168.839081
1.120000 2.840000 8.800000 -13.002308 -14.930290 391.973572
1.120000 2.840000 8.840000 -9.707512 -22.002289 578.336487
1.120000 2.840000 8.880000 -1.770561 -28.558552 818.725769
1.120000 2.840000 8.920000 11.078690 -30.365540 1044.803345
1.120000 2.840000 8.960000 24.659239 -23.231663 1147.788208
1.120000 2.840000 9.000000 31.419437 -7.639946 1045.549805
1.120000 2.840000 9.040000 25.875477 9.169106 753.612793
1.120000 2.840000 9.080000 10.345282 17.123112 400.225800
1.120000 2.840000 9.120000 -5.061776 11.269306 152.618835
1.120000 2.840000 9.160000 -9.694366 -3.222874 104.367638
1.120000 2.840000 9.200000 -1.270148 -14.508778 212.117905
1.120000 2.880000 8.800000 3.358978 -32.165497 1045.901855
1.120000 2.880000 8.840000 16.065907 -39.595058 1825.882080
1.120000 2.880000 8.880000 36.484806 -38.833138 2839.153809
1.120000 2.880000 8.920000 56.426468 -23.053419 3715.406494
1.120000 2.880000 8.960000 63.067135 5.129269 4003.772705
1.120000 2.880000 9.000000 49.266319 32.374428 3475.273682
1.120000 2.880000 9.040000 21.255325 43.268814 2323.979248
1.120000 2.880000 9.080000 -4.346699 32.536308 1077.505127
1.120000 2.880000 9.120000 -12.849199 9.834486 261.819031
1.120000 2.880000 9.160000 -2.815044 -7.810988 68.936005
1.120000 2.880000 9.200000 13.768896 -9.706501 283.798676
1.120000 2.920000 8.800000 30.890659 -29.977503 1852.883545
1.120000 2.920000 8.840000 52.146736 -29.596745 3595.249268
1.120000 2.920000 8.880000 76.202126 -11.291113 5934.253418
1.120000 2.920000 8.920000 85.510025 25.155733 7944.775391
1.120000 2.920000 8.960000 67.355980 63.444855 8562.078125
1.120000 2.920000 9.000000 27.201302 81.155945 7326.198242
1.120000 2.920000 9.040000 -12.762207 67.911728 4774.876953
1.120000 2.920000 9.080000 -30.267359 34.720325 2121.614014
1.120000 2.920000 9.120000 -20.396095 5.192768 442.965546
1.120000 2.920000 9.160000 2.055744 -3.757370 18.343914
1.120000 2.920000 9.200000 17.024086 5.873661 324.319397
1.120000 2.960000 8.800000 48.870731 -5.216795 2415.563232
1.120000 2.960000 8.840000 70.580231 8.330059 5050.958496
1.120000 2.960000 8.880000 82.705666 43.102913 8698.087891
1.120000 2.960000 8.920000 66.727882 86.085381 11863.302734
1.120000 2.960000 8.960000 21.924307 111.294800 12867.207031
1.120000 2.960000 9.000000 -29.760704 100.695770 11025.336914
1.120000 2.960000 9.040000 -59.449917 60.592743 7205.773438
1.120000 2.960000 9.080000 -54.347046 17.398182 3256.298096
1.120000 2.960000 9.120000 -26.898434 -4.012903 739.629150
1.120000 2.960000 9.160000 -1.954350 0.654860 4.248327
1.120000 2.960000 9.200000 5.208655 15.716101 274.125916
1.120000 3.000000 8.800000 42.100121 26.195984 2458.649658
1.120000 3.000000 8.840000 53.929531 49.798645 5388.299316
1.120000 3.000000 8.880000 44.699661 86.864182 9543.446289
1.120000 3.000000 8.920000 6.130774 114.733101 13201.270508
1.120000 3.000000 8.960000 -46.932571 110.709351 14459.226562
1.120000 3.000000 9.000000 -85.498596 72.412125 12553.525391
1.120000 3.000000 9.040000 -89.241348 21.558285 8428.777344
1.120000 3.000000 9.080000 -62.470287 -13.197465 4076.709961
1.120000 3.000000 9.120000 -28.628616 -18.742552 1170.880859
1.120000 3.000000 9.160000 -9.296757 -4.799155 109.461578
1.120000 3.000000 9.200000 -7.931370 9.129879 146.261322
1.120000 3.040000 8.800000 14.856549 42.491138 2026.213867
1.120000 3.040000 8.840000 12.297145 65.643417 4460.277832
1.120000 3.040000 8.880000 -12.670713 88.251282 7948.835449
1.120000 3.040000 8.920000 -54.544483 89.923584 11061.351562
1.120000 3.040000 8.960000 -91.942871 61.781960 12270.501953
1.120000 3.040000 9.000000 -103.530533 15.449975 10957.273438
1.120000 3.040000 9.040000 -84.676956 -25.208714 7805.666016
1.120000 3.040000 9.080000 -50.011421 -42.281754 4288.889160
1.120000 3.040000 9.120000 -20.361053 -35.668301 1686.800171
1.120000 3.040000 9.160000 -6.821682 -19.089262 410.935272
1.120000 3.040000 9.200000 -6.001864 -6.023886 72.309570
1.120000 3.080000 8.800000 -13.303411 35.005684 1402.378662
1.120000 3.080000 8.840000 -25.085812 47.346100 2870.951172
1.120000 3.080000 8.880000 -49.240887 49.716541 4896.399414
1.120000 3.080000 8.920000 -74.563194 33.826347 6703.891602
1.120000 3.080000 8.960000 -86.867973 2.866745 7554.263184
1.120000 3.080000 9.000000 -78.858475 -30.506760 7149.321289
1.120000 3.080000 9.040000 -54.325859 -52.741405 5732.955078
1.120000 3.080000 9.080000 -24.495716 -57.276520 3880.639648
1.120000 3.080000 9.120000 -0.615945 -46.517342 2164.242432
1.120000 3.080000 9.160000 11.334913 -28.237558 925.839966
1.120000 3.080000 9.200000 11.433861 -10.572339 242.507523
1.120000 3.120000 8.800000 -25.711168 14.154020 861.400452
1.120000 3.120000 8.840000 -35.833611 12.914935 1450.843140
1.120000 3.120000 8.880000 -45.241467 4.157467 2064.074707
1.120000 3.120000 8.920000 -49.692177 -9.578163 2561.053711
1.120000 3.120000 8.960000 -48.015671 -25.268467 2944.000000
1.120000 3.120000 9.000000 -39.448200 -40.951790 3233.209473
1.120000 3.120000 9.040000 -22.547064 -53.216560 3340.372314
1.120000 3.120000 9.080000 1.340307 -55.675007 3101.502686
1.120000 3.120000 9.120000 24.340431 -43.125721 2452.284424
1.120000 3.120000 9.160000 34.812561 -18.570202 1556.766846
1.120000 3.120000 9.200000 26.640265 5.354213 738.371277
1.120000 3.160000 8.800000 -22.327385 -2.914114 507.004181
1.120000 3.160000 8.840000 -22.192497 -11.885927 633.782227
1.120000 3.160000 8.880000 -15.781453 -16.701468 527.993286
1.120000 3.160000 8.920000 -11.680866 -15.054365 363.076538
1.120000 3.160000 8.960000 -14.665028 -15.172600 445.270813
1.120000 3.160000 9.000000 -17.164766 -25.228565 931.109741
1.120000 3.160000 9.040000 -6.446934 -40.308746 1666.358032
1.120000 3.160000 9.080000 18.986050 -43.819389 2280.608887
1.120000 3.160000 9.120000 42.908466 -24.583788 2445.499023
1.120000 3.160000 9.160000 44.886513 8.237751 2082.659668
1.120000 3.160000 9.200000 21.518951 30.406534 1387.622559
1.120000 3.200000 8.800000 -15.681367 -9.379866 333.887146
1.120000 3.200000 8.840000 -3.956617 -17.062584 306.786591
1.120000 3.200000 8.880000 8.394978 -9.426942 159.342880
1.120000 3.200000 8.920000 5.708889 4.911202 56.711319
1.120000 3.200000 8.960000 -10.110306 6.594305 145.703140
1.120000 3.200000 9.000000 -18.720222 -11.256048 477.145325
1.120000 3.200000 9.040000 -3.384892 -31.639723 1012.529602
1.120000 3.200000 9.080000 27.698849 -29.461090 1635.182007
1.120000 3.200000 9.120000 46.200645 0.535031 2134.786133
1.120000 3.200000 9.160000 32.250122 34.681267 2242.860840
1.120000 3.200000 9.200000 -2.970376 42.428864 1809.031616
1.160000 2.800000 8.800000 -9.052801 -8.534652 154.793488
1.160000 2.800000 8.840000 -7.262131 -4.033445 69.007225
1.160000 2.800000 8.880000 -13.262468 -3.406485 187.497208
1.160000 2.800000 8.920000 -17.917664 -13.097435 492.585449
1.160000 2.800000 8.960000 -10.227495 -26.856092 825.851379
1.160000 2.800000 9.000000 9.291548 -30.293852 1004.050354
1.160000 2.800000 9.040000 26.346357 -15.967938 949.105591
1.160000 2.800000 9.080000 26.007168 6.895389 723.919189
1.160000 2.800000 9.120000 8.426417 19.749197 461.035309
1.160000 2.800000 9.160000 -9.990423 12.850896 264.954071
1.160000 2.800000 9.200000 -12.375292 -4.571280 174.044434
1.160000 2.840000 8.800000 5.668466 -23.322155 576.054443
1.160000 2.840000 8.840000 9.110483 -15.453758 321.819550
1.160000 2.840000 8.880000 6.097663 -13.005810 206.332581
1.160000 2.840000 8.920000 6.635236 -17.772717 359.895813
1.160000 2.840000 8.960000 16.374620 -20.758337 699.036743
1.160000 2.840000 9.000000 28.718441 -12.355189 977.399536
1.160000 2.840000 9.040000 30.798363 5.532159 979.143921
1.160000 2.840000 9.080000 17.739332 19.420341 691.833557
1.160000 2.840000 9.120000 -0.464667 17.597660 309.893555
1.160000 2.840000 9.160000 -7.983537 2.952087 72.451683
1.160000 2.840000 9.200000 0.693576 -9.053341 82.444031
1.160000 2.880000 8.800000 30.777212 -19.655956 1333.593506
1.160000 2.880000 8.840000 32.577263 -6.828417 1107.905396
1.160000 2.880000 8.880000 29.030695 0.503353 843.034607
1.160000 2.880000 8.920000 27.435278 3.384459 764.149048
1.160000 2.880000 8.960000 28.896820 8.279102 903.569702
1.160000 2.880000 9.000000 27.299477 17.883863 1065.093994
1.160000 2.880000 9.040000 17.457003 26.473719 1005.604736
1.160000 2.880000 9.080000 2.997393 25.683199 668.611084
1.160000 2.880000 9.120000 -5.734697 14.610518 246.353973
1.160000 2.880000 9.160000 -2.237363 2.501923 11.265411
1.160000 2.880000 9.200000 8.640735 0.100080 74.672310
1.160000 2.920000 8.800000 45.702168 5.789523 2122.206787
1.160000 2.920000 8.840000 41.544567 21.635927 2194.064453
1.160000 2.920000 8.880000 32.115704 31.830482 2044.598145
1.160000 2.920000 8.920000 21.956703 36.866478 1841.234009
1.160000 2.920000 8.960000 12.100338 39.057846 1671.933594
1.160000 2.920000 9.000000 1.574624 38.421646 1478.702393
1.160000 2.920000 9.040000 -8.491727 32.903496 1154.749390
1.160000 2.920000 9.080000 -13.942474 22.547783 702.795105
1.160000 2.920000 9.120000 -11.649807 11.979096 279.216736
1.160000 2.920000 9.160000 -3.885627 7.282086 68.126884
1.160000 2.920000 9.200000 2.707973 10.140549 110.163841
1.160000 2.960000 8.800000 34.873245 36.378864 2539.564941
1.160000 2.960000 8.840000 23.238909 49.780468 3018.141846
1.160000 2.960000 8.880000 6.689877 56.223236 3205.806641
1.160000 2.960000 8.920000 -10.401283 54.543777 3083.210449
1.160000 2.960000 8.960000 -24.154240 45.922905 2692.340332
1.160000 2.960000 9.000000 -31.883488 33.050323 2108.880615
1.160000 2.960000 9.040000 -32.529392 19.598730 1442.271606
1.160000 2.960000 9.080000 -27.246235 9.374422 830.237061
1.160000 2.960000 9.120000 -19.356045 4.698613 396.733429
1.160000 2.960000 9.160000 -12.707593 5.038942 186.873871
1.160000 2.960000 9.200000 -9.216549 7.585091 142.478363
1.160000 3.000000 8.800000 3.640156 48.633102 2378.429443
1.160000 3.000000 8.840000 -11.909422 54.374424 3098.412109
1.160000 3.000000 8.880000 -30.144133 51.775391 3589.359863
1.160000 3.000000 8.920000 -45.341461 40.067978 3661.291016
1.160000 3.000000 8.960000 -52.465096 22.738003 3269.603027
1.160000 3.000000 9.000000 -50.144020 5.760172 2547.602539
1.160000 3.000000 9.040000 -41.265259 -5.868535 1737.261230
1.160000 3.000000 9.080000 -30.693718 -10.719578 1057.013672
1.160000 3.000000 9.120000 -22.007227 -10.762439 600.148132
1.160000 3.000000 9.160000 -15.821285 -8.798601 327.728455
1.160000 3.000000 9.200000 -10.960338 -5.887134 154.787338
1.160000 3.040000 8.800000 -25.071131 33.755634 1768.004395
1.160000 3.040000 8.840000 -38.014202 31.126097 2413.913574
1.160000 3.040000 8.880000 -49.968410 20.960743 2936.194824
1.160000 3.040000 8.920000 -55.628624 5.099089 3120.544434
1.160000 3.040000 8.960000 -52.749062 -11.223076 2908.420898
1.160000 3.040000 9.000000 -43.418144 -23.136383 2420.427490
1.160000 3.040000 9.040000 -31.752525 -29.044090 1851.781982
1.160000 3.040000 9.080000 -20.641846 -30.190315 1337.540894
1.160000 3.040000 9.120000 -10.765562 -28.047409 902.554504
1.160000 3.040000 9.160000 -2.305390 -22.682947 519.830933
1.160000 3.040000 9.200000 3.114007 -13.784130 199.699280
1.160000 3.080000 8.800000 -31.677607 5.915073 1038.458862
1.160000 3.080000 8.840000 -37.440308 -0.788133 1402.397705
1.160000 3.080000 8.880000 -39.534996 -11.164738 1687.667236
1.160000 3.080000 8.920000 -36.476677 -21.659941 1799.701050
1.160000 3.080000 8.960000 -29.991707 -29.649786 1778.612305
1.160000 3.080000 9.000000 -22.019829 -35.250412 1727.464355
1.160000 3.080000 9.040000 -12.283643 -39.143085 1683.069092
1.160000 3.080000 9.080000 0.216794 -39.607941 1568.835938
1.160000 3.080000 9.120000 13.500695 -33.207100 1284.980225
1.160000 3.080000 9.160000 21.747353 -19.177435 840.721375
1.160000 3.080000 9.200000 19.551310 -2.651775 389.285614
1.160000 3.120000 8.800000 -17.877970 -11.893101 461.067627
1.160000 3.120000 8.840000 -16.702177 -17.267309 577.122681
1.160000 3.120000 8.880000 -12.448436 -20.965225 594.504211
1.160000 3.120000 8.920000 -8.754527 -21.785269 551.239685
1.160000 3.120000 8.960000 -7.573374 -23.377764 603.875854
1.160000 3.120000 9.000000 -4.970921 -29.112318 872.237061
1.160000 3.120000 9.040000 5.118921 -35.581955 1292.278931
1.160000 3.120000 9.080000 22.290825 -33.627335 1627.678467
1.160000 3.120000 9.120000 36.474030 -17.780062 1646.485474
1.160000 3.120000 9.160000 35.742409 5.555198 1308.380005
1.160000 3.120000 9.200000 18.479961 21.314865 795.832458
1.160000 3.160000 8.800000 -3.118785 -10.501109 120.000114
1.160000 3.160000 8.840000 1.791599 -12.125943 150.248322
1.160000 3.160000 8.880000 5.748713 -7.987557 96.848763
1.160000 3.160000 8.920000 2.750340 -3.227407 17.980522
1.160000 3.160000 8.960000 -3.729691 -6.606064 57.550671
1.160000 3.160000 9.000000 -2.196824 -18.326286 340.678833
1.160000 3.160000 9.040000 13.664207 -25.962608 860.767578
1.160000 3.160000 9.080000 34.483276 -15.901749 1441.961914
1.160000 3.160000 9.120000 41.292686 10.485881 1815.039673
1.160000 3.160000 9.160000 24.347914 34.365997 1773.842651
1.160000 3.160000 9.200000 -4.674853 36.025681 1319.703857
1.160000 3.200000 8.800000 -3.179300 -2.274952 15.283357
1.160000 3.200000 8.840000 3.377974 -0.812075 12.070170
1.160000 3.200000 8.880000 3.276801 7.431493 65.964516
1.160000 3.200000 8.920000 -6.741274 10.446798 154.580368
1.160000 3.200000 8.960000 -15.149195 -0.227749 229.549973
1.160000 3.200000 9.000000 -7.484706 -16.279385 321.039185
1.160000 3.200000 9.040000 15.040648 -18.393583 564.545044
1.160000 3.200000 9.080000 32.353867 2.605639 1053.562012
1.160000 3.200000 9.120000 24.559099 32.236008 1642.309570
1.160000 3.200000 9.160000 -5.557931 43.827957 1951.780396
1.160000 3.200000 9.200000 -31.949528 25.544207 1673.278809
1.200000 2.800000 8.800000 1.099785 -15.516054 241.957474
1.200000 2.800000 8.840000 -1.377896 -5.064495 27.547709
1.200000 2.800000 8.880000 -12.880622 -7.289877 219.052719
1.200000 2.800000 8.920000 -14.902435 -24.270313 811.130676
1.200000 2.800000 8.960000 3.521014 -38.927437 1527.742920
1.200000 2.800000 9.000000 31.556396 -31.847702 2010.082275
1.200000 2.800000 9.040000 45.154522 -2.789622 2046.712891
1.200000 2.800000 9.080000 31.071886 26.544632 1670.079590
1.200000 2.800000 9.120000 1.328156 32.946999 1087.268799
1.200000 2.800000 9.160000 -17.957851 14.725161 539.314819
1.200000 2.800000 9.200000 -12.371520 -6.883514 200.437271
1.200000 2.840000 8.800000 22.886375 -14.480250 733.463867
1.200000 2.840000 8.840000 14.172369 0.125591 200.871826
1.200000 2.840000 8.880000 -0.132146 -3.266140 10.685133
1.200000 2.840000 8.920000 -0.089138 -19.303499 372.633026
1.200000 2.840000 8.960000 18.638453 -27.187073 1086.528809
1.200000 2.840000 9.000000 38.948086 -12.967036 1685.097412
1.200000 2.840000 9.040000 39.669258 14.597054 1786.723999
1.200000 2.840000 9.080000 18.070589 32.174118 1361.719971
1.200000 2.840000 9.120000 -6.756628 25.792709 710.915894
1.200000 2.840000 9.160000 -13.553147 5.107528 209.774643
1.200000 2.840000 9.200000 -0.590599 -7.265868 53.141647
1.200000 2.880000 8.800000 37.494576 7.783962 1466.433228
1.200000 2.880000 8.840000 18.427988 20.803682 772.383911
1.200000 2.880000 8.880000 0.566458 12.207347 149.340195
1.200000 2.880000 8.920000 1.442936 -5.348194 30.685240
1.200000 2.880000 8.960000 18.470402 -10.730164 456.292145
1.200000 2.880000 9.000000 32.144379 3.734742 1047.209351
1.200000 2.880000 9.040000 26.732611 24.720407 1325.730957
1.200000 2.880000 9.080000 6.391446 32.488728 1096.368042
1.200000 2.880000 9.120000 -10.125797 21.504099 564.958008
1.200000 2.880000 9.160000 -9.701797 5.114944 120.287537
1.200000 2.880000 9.200000 2.150631 0.158305 4.650274
1.200000 2.920000 8.800000 27.728935 37.279488 2158.654053
1.200000 2.920000 8.840000 0.418662 39.919144 1593.713379
1.200000 2.920000 8.880000 -16.419243 21.614016 736.757202
1.200000 2.920000 8.920000 -11.027771 0.677891 122.071266
1.200000 2.920000 8.960000 7.465005 -3.854876 70.586372
1.200000 2.920000 9.000000 19.001688 9.919397 459.458588
1.200000 2.920000 9.040000 12.498101 26.571518 862.248108
1.200000 2.920000 9.080000 -4.673867 29.989368 921.207275
1.200000 2.920000 9.120000 -16.179733 18.868107 617.789246
1.200000 2.920000 9.160000 -13.842443 5.749312 224.667831
1.200000 2.920000 9.200000 -4.215343 2.441955 23.732265
1.200000 2.960000 8.800000 -4.149706 49.771973 2494.469238
1.200000 2.960000 8.840000 -30.125423 37.074699 2282.074463
1.200000 2.960000 8.880000 -37.315971 10.274686 1498.050903
1.200000 2.960000 8.920000 -22.452244 -9.930633 602.720703
1.200000 2.960000 8.960000 -0.577080 -9.492905 90.448265
1.200000 2.960000 9.000000 9.124092 7.017280 132.491272
1.200000 2.960000 9.040000 0.473304 22.144196 490.589417
1.200000 2.960000 9.080000 -15.905849 22.452684 757.119080
1.200000 2.960000 9.120000 -24.477455 9.800630 695.198120
1.200000 2.960000 9.160000 -19.409933 -2.920158 385.272827
1.200000 2.960000 9.200000 -7.920735 -5.302630 90.855942
1.200000 3.000000 8.800000 -35.310562 32.866055 2327.013184
1.200000 3.000000 8.840000 -48.783783 9.330826 2466.921631
1.200000 3.000000 8.880000 -40.900902 -16.829529 1956.116821
1.200000 3.000000 8.920000 -17.590334 -27.605776 1071.498779
1.200000 3.000000 8.960000 2.866532 -17.417511 311.586700
1.200000 3.000000 9.000000 5.757648 2.131218 37.692593
1.200000 3.000000 9.040000 -7.599188 13.122509 229.947906
1.200000 3.000000 9.080000 -22.390623 7.321138 554.939087
1.200000 3.000000 9.120000 -24.661987 -7.754127 668.340088
1.200000 3.000000 9.160000 -13.408249 -17.362547 481.239197
1.200000 3.000000 9.200000 0.282435 -13.399910 179.637360
1.200000 3.040000 8.800000 -41.955441 -0.805312 1760.907593
1.200000 3.040000 8.840000 -39.002190 -23.209692 2059.860596
1.200000 3.040000 8.880000 -20.154942 -37.558300 1816.847534
1.200000 3.040000 8.920000 2.376767 -33.663773 1138.898682
1.200000 3.040000 8.960000 12.699526 -15.880701 413.474609
1.200000 3.040000 9.000000 5.404476 0.131647 29.225693
1.200000 3.040000 9.040000 -9.617204 1.455435 94.608902
1.200000 3.040000 9.080000 -16.667850 -10.590481 389.975525
1.200000 3.040000 9.120000 -8.839022 -22.481230 583.533997
1.200000 3.040000 9.160000 6.227618 -21.723923 510.712067
1.200000 3.040000 9.200000 14.397477 -8.237883 275.150055
1.200000 3.080000 8.800000 -21.774950 -24.120184 1055.931641
1.200000 3.080000 8.840000 -9.104383 -35.022369 1309.456177
1.200000 3.080000 8.880000 8.974222 -33.620953 1210.905029
1.200000 3.080000 8.920000 19.925291 -19.643608 782.888550
1.200000 3.080000 8.960000 16.256243 -4.173693 281.685150
1.200000 3.080000 9.000000 3.522530 0.118255 12.422203
1.200000 3.080000 9.040000 -4.381477 -8.664210 94.265884
1.200000 3.080000 9.080000 1.301676 -19.484064 381.323120
1.200000 3.080000 9.120000 15.406295 -19.146500 603.942383
1.200000 3.080000 9.160000 23.844681 -5.454723 598.322815
1.200000 3.080000 9.200000 17.472836 10.590758 417.464142
1.200000 3.120000 8.800000 3.600148 -21.064934 456.692505
1.200000 3.120000 8.840000 14.672096 -19.656338 601.642029
1.200000 3.120000 8.880000 22.000666 -9.187778 568.444580
1.200000 3.120000 8.920000 18.395796 3.211343 348.718018
1.200000 3.120000 8.960000 6.900096 6.642822 91.738403
1.200000 3.120000 9.000000 -0.483611 -1.808815 3.505690
1.200000 3.120000 9.040000 5.288324 -12.389626 181.469193
1.200000 3.120000 9.080000 19.833975 -11.564581 527.126099
1.200000 3.120000 9.120000 28.330606 3.728389 816.524170
1.200000 3.120000 9.160000 20.123783 21.600418 871.544678
1.200000 3.120000 9.200000 0.164740 26.199322 686.431641
1.200000 3.160000 8.800000 10.007446 -2.046841 104.338539
1.200000 3.160000 8.840000 13.496418 3.899603 197.360214
1.200000 3.160000 8.880000 9.738268 12.495567 250.973068
1.200000 3.160000 8.920000 -1.091451 14.393986 208.378098
1.200000 3.160000 8.960000 -8.845032 4.977139 103.006500
1.200000 3.160000 9.000000 -3.279568 -7.703658 70.101913
1.200000 3.160000 9.040000 13.137856 -8.939216 252.512817
1.200000 3.160000 9.080000 24.666977 7.006824 657.555359
1.200000 3.160000 9.120000 17.133104 28.331785 1096.233398
1.200000 3.160000 9.160000 -6.335609 35.364010 1290.753052
1.200000 3.160000 9.200000 -26.156116 20.213884 1092.743652
1.200000 3.200000 8.800000 -4.986800 7.250380 77.436180
1.200000 3.200000 8.840000 -5.659217 10.296898 138.052841
1.200000 3.200000 8.880000 -12.649722 11.745886 297.981323
1.200000 3.200000 8.920000 -20.264807 4.045710 427.030151
1.200000 3.200000 8.960000 -17.258177 -9.741217 392.735962
1.200000 3.200000 9.000000 -1.085275 -15.658711 246.373062
1.200000 3.200000 9.040000 15.100555 -3.288133 238.838593
1.200000 3.200000 9.080000 13.445947 20.091152 584.447876
1.200000 3.200000 9.120000 -9.052486 33.146683 1180.650146
1.200000 3.200000 9.160000 -34.000996 21.201660 1605.578125
1.200000 3.200000 9.200000 -37.813522 -6.806209 1476.186890
