#kx 	ky 	kz 	real 	imag 	intensity
4.800000 0.800000 6.800000 -27.674091 2.052562 770.068359
4.800000 0.800000 6.840000 -25.081621 -7.250429 681.656433
4.800000 0.800000 6.880000 -18.187012 -15.063229 557.668274
4.800000 0.800000 6.920000 -7.717505 -18.827911 414.050110
4.800000 0.800000 6.960000 3.520946 -16.555544 286.483093
4.800000 0.800000 7.000000 11.580583 -8.737720 210.457657
4.800000 0.800000 7.040000 13.889786 1.330015 194.695084
4.800000 0.800000 7.080000 11.072155 9.731724 217.299072
4.800000 0.800000 7.120000 6.004719 14.749437 253.602539
4.800000 0.800000 7.160000 0.843887 17.434355 304.668884
4.800000 0.800000 7.200000 -4.792233 19.187046 391.108215
4.800000 0.840000 6.800000 -22.478119 -16.809933 787.839722
4.800000 0.840000 6.840000 -15.933057 -18.959690 613.332153
4.800000 0.840000 6.880000 -9.175337 -19.569181 467.139648
4.800000 0.840000 6.920000 -2.032035 -17.054249 294.976593
4.800000 0.840000 6.960000 2.496881 -10.493807 116.354393
4.800000 0.840000 7.000000 1.169760 -3.099704 10.976501
4.800000 0.840000 7.040000 -4.612776 -0.376759 21.419647
4.800000 0.840000 7.080000 -8.564411 -4.082401 90.015137
4.800000 0.840000 7.120000 -5.635214 -9.043256 113.536102
4.800000 0.840000 7.160000 1.742043 -7.675253 61.944221
4.800000 0.840000 7.200000 4.853623 1.590235 26.086506
4.800000 0.880000 6.800000 -4.882629 -27.726345 792.590271
4.800000 0.880000 6.840000 -0.223991 -22.226334 494.060089
4.800000 0.880000 6.880000 1.634562 -17.510277 309.281586
4.800000 0.880000 6.920000 1.421160 -12.652741 162.111572
4.800000 0.880000 6.960000 -2.744386 -8.898539 86.715645
4.800000 0.880000 7.000000 -9.784732 -10.988854 216.495895
4.800000 0.880000 7.040000 -12.572305 -21.071054 602.052185
4.800000 0.880000 7.080000 -3.661997 -32.522366 1071.114502
4.800000 0.880000 7.120000 14.982538 -33.107136 1320.558838
4.800000 0.880000 7.160000 29.976244 -16.802570 1180.901611
4.800000 0.880000 7.200000 27.133879 7.582193 793.737061
4.800000 0.920000 6.800000 15.810200 -23.249945 790.522339
4.800000 0.920000 6.840000 14.103670 -13.605977 384.036133
4.800000 0.920000 6.880000 8.741083 -8.452504 147.851349
4.800000 0.920000 6.920000 1.471076 -7.642217 60.567543
4.800000 0.920000 6.960000 -6.159816 -13.308783 215.067017
4.800000 0.920000 7.000000 -8.014671 -26.920464 788.946289
4.800000 0.920000 7.040000 3.883342 -42.216789 1797.337646
4.800000 0.920000 7.080000 29.213173 -45.240601 2900.121338
4.800000 0.920000 7.120000 53.564911 -25.850437 3537.444824
4.800000 0.920000 7.160000 57.092175 9.368093 3347.277588
4.800000 0.920000 7.200000 32.376545 37.976734 2490.473145
4.800000 0.960000 6.800000 27.178825 -5.642742 770.529053
4.800000 0.960000 6.840000 18.177246 2.778990 338.135040
4.800000 0.960000 6.880000 7.380363 3.020636 63.594006
4.800000 0.960000 6.920000 -1.427765 -4.554856 22.785225
4.800000 0.960000 6.960000 -3.181386 -19.362801 385.039276
4.800000 0.960000 7.000000 8.809522 -35.760185 1356.398560
4.800000 0.960000 7.040000 35.376343 -40.754868 2912.444824
4.800000 0.960000 7.080000 63.955254 -22.300613 4587.591797
4.800000 0.960000 7.120000 73.120186 16.829817 5629.804199
4.800000 0.960000 7.160000 49.837597 54.928688 5500.947266
4.800000 0.960000 7.200000 4.190361 65.563721 4316.160645
4.800000 1.000000 6.800000 22.810104 13.990879 716.045532
4.800000 1.000000 6.840000 9.176903 16.766354 365.326172
4.800000 1.000000 6.880000 -1.880523 9.470514 93.227013
4.800000 1.000000 6.920000 -4.879851 -5.013346 48.946587
4.800000 1.000000 6.960000 5.078513 -20.733898 455.685822
4.800000 1.000000 7.000000 28.627569 -26.773075 1536.335205
4.800000 1.000000 7.040000 55.937435 -11.874040 3269.989502
4.800000 1.000000 7.080000 67.852081 24.215698 5190.304688
4.800000 1.000000 7.120000 49.107574 63.985191 6505.658691
4.800000 1.000000 7.160000 4.060584 80.985992 6575.219238
4.800000 1.000000 7.200000 -41.580505 60.511520 5390.582520
4.800000 1.040000 6.800000 7.027866 23.954247 623.196838
4.800000 1.040000 6.840000 -6.654637 19.503025 424.652191
4.800000 1.040000 6.880000 -12.405000 6.467727 195.715515
4.800000 1.040000 6.920000 -5.821103 -8.102150 99.530075
4.800000 1.040000 6.960000 12.733217 -14.583471 374.812439
4.800000 1.040000 7.000000 35.186508 -3.958095 1253.756836
4.800000 1.040000 7.040000 46.331490 24.825106 2762.892822
4.800000 1.040000 7.080000 32.530987 59.012520 4540.742676
4.800000 1.040000 7.120000 -5.581733 76.599785 5898.682617
4.800000 1.040000 7.160000 -48.588882 61.910175 6193.749023
4.800000 1.040000 7.200000 -69.776672 20.165499 5275.431641
4.800000 1.080000 6.800000 -9.198220 20.577721 508.049866
4.800000 1.080000 6.840000 -18.721180 10.385425 458.339630
4.800000 1.080000 6.880000 -16.538218 -3.278031 284.258118
4.800000 1.080000 6.920000 -3.125299 -10.548086 121.029617
4.800000 1.080000 6.960000 13.847995 -3.858821 206.657455
4.800000 1.080000 7.000000 22.129028 16.964699 777.494873
4.800000 1.080000 7.040000 11.597357 41.954346 1894.665771
4.800000 1.080000 7.080000 -17.385365 54.751934 3300.025146
4.800000 1.080000 7.120000 -50.861637 43.192642 4452.510742
4.800000 1.080000 7.160000 -68.601318 9.875982 4803.676270
4.800000 1.080000 7.200000 -58.516071 -27.050182 4155.842773
4.800000 1.120000 6.800000 -17.470560 9.519227 395.836151
4.800000 1.120000 6.840000 -20.622639 -3.068519 434.709015
4.800000 1.120000 6.880000 -12.120110 -12.183632 295.337952
4.800000 1.120000 6.920000 0.886850 -9.469151 90.451317
4.800000 1.120000 6.960000 6.874946 4.939541 71.663940
4.800000 1.120000 7.000000 -1.979236 21.622425 471.446655
4.800000 1.120000 7.040000 -23.527824 27.638060 1317.420898
4.800000 1.120000 7.080000 -45.883781 15.579805 2348.051514
4.800000 1.120000 7.120000 -54.832287 -10.351758 3113.738525
4.800000 1.120000 7.160000 -43.826229 -36.206848 3231.674316
4.800000 1.120000 7.200000 -19.100307 -47.586174 2629.265625
4.800000 1.160000 6.800000 -17.619249 -0.939711 311.321014
4.800000 1.160000 6.840000 -14.488587 -12.480568 365.683716
4.800000 1.160000 6.880000 -3.933224 -14.731236 232.479584
4.800000 1.160000 6.920000 2.316902 -5.488307 35.489555
4.800000 1.160000 6.960000 -4.355971 6.297262 58.629990
4.800000 1.160000 7.000000 -21.242495 7.888288 513.468689
4.800000 1.160000 7.040000 -35.813614 -6.078522 1319.563477
4.800000 1.160000 7.080000 -35.932705 -28.425756 2099.182861
4.800000 1.160000 7.120000 -19.974058 -44.918583 2416.642090
4.800000 1.160000 7.160000 1.848411 -45.642136 2086.621094
4.800000 1.160000 7.200000 15.847347 -32.550335 1310.662720
4.800000 1.200000 6.800000 -14.968288 -7.585979 281.596710
4.800000 1.200000 6.840000 -7.063441 -15.733473 297.434357
4.800000 1.200000 6.880000 1.676243 -12.166756 150.839722
4.800000 1.200000 6.920000 -0.211140 -2.659590 7.118000
4.800000 1.200000 6.960000 -13.151693 -0.791592 173.593658
4.800000 1.200000 7.000000 -24.692787 -14.166163 810.413940
4.800000 1.200000 7.040000 -20.923246 -35.520733 1699.504639
4.800000 1.200000 7.080000 -0.414499 -48.210091 2324.384766
4.800000 1.200000 7.120000 23.133947 -41.378716 2247.377686
4.800000 1.200000 7.160000 32.635479 -20.411018 1481.684082
4.800000 1.200000 7.200000 22.838322 -2.533109 528.005554
4.840000 0.800000 6.800000 -35.111748 -6.201969 1271.299316
4.840000 0.800000 6.840000 -27.079227 -16.377607 1001.510559
4.840000 0.800000 6.880000 -15.262298 -21.137863 679.747009
4.840000 0.800000 6.920000 -3.340024 -19.497828 391.321045
4.840000 0.800000 6.960000 5.442885 -12.888225 195.731339
4.840000 0.800000 7.000000 9.626300 -4.004379 108.700699
4.840000 0.800000 7.040000 9.494438 4.754791 112.752396
4.840000 0.800000 7.080000 6.055443 12.004930 180.786743
4.840000 0.800000 7.120000 0.172009 17.029175 290.022400
4.840000 0.800000 7.160000 -7.446465 19.077833 419.413544
4.840000 0.800000 7.200000 -15.624865 17.219456 540.646057
4.840000 0.840000 6.800000 -18.182116 -27.358061 1079.052856
4.840000 0.840000 6.840000 -4.829283 -25.740578 685.899292
4.840000 0.840000 6.880000 4.642472 -16.893566 306.945129
4.840000 0.840000 6.920000 5.884422 -5.003338 59.659821
4.840000 0.840000 6.960000 -1.022701 2.994644 10.013811
4.840000 0.840000 7.000000 -10.220472 2.273228 109.625618
4.840000 0.840000 7.040000 -13.867558 -5.400747 221.477234
4.840000 0.840000 7.080000 -8.687494 -12.330258 227.507843
4.840000 0.840000 7.120000 0.666170 -11.234716 126.662628
4.840000 0.840000 7.160000 5.253975 -1.946938 31.394817
4.840000 0.840000 7.200000 -0.216684 7.895420 62.384609
4.840000 0.880000 6.800000 10.403218 -29.327372 968.321655
4.840000 0.880000 6.840000 19.400307 -13.411209 556.232422
4.840000 0.880000 6.880000 15.153776 5.467580 259.531372
4.840000 0.880000 6.920000 -2.569427 16.050335 264.215210
4.840000 0.880000 6.960000 -23.741987 8.969391 644.131897
4.840000 0.880000 7.000000 -32.540813 -13.820921 1249.922363
4.840000 0.880000 7.040000 -19.585659 -37.120270 1761.512451
4.840000 0.880000 7.080000 8.367197 -42.723156 1895.278076
4.840000 0.880000 7.120000 31.656460 -24.581135 1606.363647
4.840000 0.880000 7.160000 33.030910 4.865768 1114.716675
4.840000 0.880000 7.200000 12.081787 24.119606 727.724976
4.840000 0.920000 6.800000 31.222029 -8.753388 1051.436890
4.840000 0.920000 6.840000 25.771252 15.515699 904.894348
4.840000 0.920000 6.880000 2.102394 31.196508 977.642151
4.840000 0.920000 6.920000 -29.564318 24.005436 1450.309814
4.840000 0.920000 6.960000 -47.836536 -8.086620 2353.727539
4.840000 0.920000 7.000000 -34.908592 -47.363155 3461.878418
4.840000 0.920000 7.040000 6.327157 -65.706245 4357.343262
4.840000 0.920000 7.080000 49.946438 -46.520641 4658.816895
4.840000 0.920000 7.120000 65.238441 -0.516916 4256.321289
4.840000 0.920000 7.160000 41.537876 40.647095 3377.581543
4.840000 0.920000 7.200000 -2.568520 49.235336 2430.715820
4.840000 0.960000 6.800000 29.129654 20.264671 1259.193604
4.840000 0.960000 6.840000 6.237335 40.139172 1650.057373
4.840000 0.960000 6.880000 -29.620127 37.931133 2316.122803
4.840000 0.960000 6.920000 -56.940765 5.881590 3276.843750
4.840000 0.960000 6.960000 -51.606842 -42.244522 4447.865723
4.840000 0.960000 7.000000 -8.109791 -74.587379 5629.045898
4.840000 0.960000 7.040000 49.657501 -63.841156 6541.560547
4.840000 0.960000 7.080000 82.329575 -11.766922 6916.619141
4.840000 0.960000 7.120000 65.657257 47.954239 6610.484375
4.840000 0.960000 7.160000 11.481390 74.566559 5691.994141
4.840000 0.960000 7.200000 -40.941338 52.563843 4439.150391
4.840000 1.000000 6.800000 6.306620 36.873482 1399.427124
4.840000 1.000000 6.840000 -26.194572 40.747238 2346.493164
4.840000 1.000000 6.880000 -57.097359 16.399807 3529.062012
4.840000 1.000000 6.920000 -61.776001 -29.774174 4702.775879
4.840000 1.000000 6.960000 -26.989658 -70.202194 5656.790039
4.840000 1.000000 7.000000 32.374161 -72.772705 6343.953125
4.840000 1.000000 7.040000 77.944870 -27.830297 6849.928223
4.840000 1.000000 7.080000 75.587479 38.713875 7212.230957
4.840000 1.000000 7.120000 24.364082 81.828117 7289.449219
4.840000 1.000000 7.160000 -40.122921 72.354477 6845.019043
4.840000 1.000000 7.200000 -73.304436 20.479031 5792.931152
4.840000 1.040000 6.800000 -19.572931 30.647430 1322.364624
4.840000 1.040000 6.840000 -47.506897 16.509388 2529.465088
4.840000 1.040000 6.880000 -58.825104 -19.240698 3830.597168
4.840000 1.040000 6.920000 -37.821716 -57.878059 4780.352051
4.840000 1.040000 6.960000 10.651417 -70.843063 5132.192383
4.840000 1.040000 7.000000 57.774742 -41.525356 5062.276367
4.840000 1.040000 7.040000 68.977020 16.860077 5042.091309
4.840000 1.040000 7.080000 31.982262 66.247047 5411.536621
4.840000 1.040000 7.120000 -29.929625 71.634636 6027.303223
4.840000 1.040000 7.160000 -73.913689 29.593994 6339.038086
4.840000 1.040000 7.200000 -71.068573 -28.319351 5852.728027
4.840000 1.080000 6.800000 -30.766544 9.349546 1033.994263
4.840000 1.080000 6.840000 -43.503281 -13.727697 2080.985107
4.840000 1.080000 6.880000 -34.294994 -43.119236 3035.415039
4.840000 1.080000 6.920000 -2.547770 -58.702461 3452.470215
4.840000 1.080000 6.960000 34.577129 -44.710842 3194.637207
4.840000 1.080000 7.000000 50.912735 -4.527634 2612.606201
4.840000 1.080000 7.040000 30.962704 37.171837 2340.434570
4.840000 1.080000 7.080000 -15.165840 50.659988 2796.437012
4.840000 1.080000 7.120000 -56.459133 24.654934 3795.499512
4.840000 1.080000 7.160000 -64.075195 -23.121532 4640.236328
4.840000 1.080000 7.200000 -34.149578 -59.044712 4652.471680
4.840000 1.120000 6.800000 -23.888023 -9.744213 665.587341
4.840000 1.120000 6.840000 -21.387865 -28.810616 1287.492310
4.840000 1.120000 6.880000 -4.055101 -40.825287 1683.147949
4.840000 1.120000 6.920000 18.289165 -35.641121 1604.783081
4.840000 1.120000 6.960000 30.187313 -13.985128 1106.857666
4.840000 1.120000 7.000000 21.239994 10.854992 568.968201
4.840000 1.120000 7.040000 -4.849586 21.040123 466.205261
4.840000 1.120000 7.080000 -30.981031 7.444304 1015.241943
4.840000 1.120000 7.120000 -38.395111 -22.184752 1966.347778
4.840000 1.120000 7.160000 -21.114315 -47.897469 2739.981689
4.840000 1.120000 7.200000 8.994850 -52.444027 2831.283203
4.840000 1.160000 6.800000 -10.012392 -15.959648 354.958374
4.840000 1.160000 6.840000 -0.969687 -23.806728 567.700623
4.840000 1.160000 6.880000 10.083353 -21.257839 553.569702
4.840000 1.160000 6.920000 13.959682 -11.115770 318.433105
4.840000 1.160000 6.960000 7.448127 -2.343632 60.967205
4.840000 1.160000 7.000000 -4.288380 -2.903690 26.821617
4.840000 1.160000 7.040000 -11.784588 -13.628159 324.603210
4.840000 1.160000 7.080000 -8.470119 -27.667339 837.224609
4.840000 1.160000 7.120000 4.557076 -35.658031 1292.262207
4.840000 1.160000 7.160000 19.555889 -32.506111 1439.080078
4.840000 1.160000 7.200000 27.897375 -20.768000 1209.573364
4.840000 1.200000 6.800000 -1.610342 -12.941759 170.082336
4.840000 1.200000 6.840000 5.073238 -11.631203 161.022629
4.840000 1.200000 6.880000 4.848453 -5.678497 55.752823
4.840000 1.200000 6.920000 -2.955961 -4.656212 30.418016
4.840000 1.200000 6.960000 -9.663242 -14.040700 290.519501
4.840000 1.200000 7.000000 -5.431702 -28.703644 853.402527
4.840000 1.200000 7.040000 10.723810 -36.755386 1465.958496
4.840000 1.200000 7.080000 28.954288 -30.347900 1759.345947
4.840000 1.200000 7.120000 36.850960 -13.175830 1531.595825
4.840000 1.200000 7.160000 30.207891 2.474768 918.641174
4.840000 1.200000 7.200000 16.389492 6.235617 307.498352
4.880000 0.800000 6.800000 -35.087696 -22.695507 1746.232422
4.880000 0.800000 6.840000 -21.491682 -29.032764 1304.793823
4.880000 0.800000 6.880000 -7.847086 -27.522793 819.080933
4.880000 0.800000 6.920000 1.657276 -20.703390 431.376923
4.880000 0.800000 6.960000 6.256340 -12.409039 193.126068
4.880000 0.800000 7.000000 7.516113 -4.720707 78.777031
4.880000 0.800000 7.040000 6.592591 2.372276 49.089958
4.880000 0.800000 7.080000 3.062866 8.881598 88.263924
4.880000 0.800000 7.120000 -3.554260 13.215388 187.279251
4.880000 0.800000 7.160000 -11.804584 13.119204 311.461670
4.880000 0.800000 7.200000 -18.384932 8.031462 402.510071
4.880000 0.840000 6.800000 -4.763933 -35.772243 1302.348511
4.880000 0.840000 6.840000 10.593033 -23.558941 667.236023
4.880000 0.840000 6.880000 12.720863 -4.413191 181.296616
4.880000 0.840000 6.920000 0.393307 8.796034 77.524902
4.880000 0.840000 6.960000 -16.242355 6.857391 310.837921
4.880000 0.840000 7.000000 -23.402935 -7.380589 602.170471
4.880000 0.840000 7.040000 -15.438206 -20.997650 679.239502
4.880000 0.840000 7.080000 0.373428 -22.173653 491.810303
4.880000 0.840000 7.120000 10.560662 -10.270973 217.020477
4.880000 0.840000 7.160000 7.343168 4.342091 72.775871
4.880000 0.840000 7.200000 -5.286808 10.038956 128.730972
4.880000 0.880000 6.800000 26.454126 -19.701555 1087.972046
4.880000 0.880000 6.840000 27.235100 10.729647 856.875977
4.880000 0.880000 6.880000 2.180214 34.512756 1195.883667
4.880000 0.880000 6.920000 -35.770161 30.669670 2220.133057
4.880000 0.880000 6.960000 -59.071636 -3.283279 3500.238281
4.880000 0.880000 7.000000 -47.708454 -45.133831 4313.159180
4.880000 0.880000 7.040000 -7.732861 -64.156982 4175.915527
4.880000 0.880000 7.080000 32.116199 -46.605141 3203.489258
4.880000 0.880000 7.120000 43.984161 -7.249155 1987.156738
4.880000 0.880000 7.160000 23.483095 23.847401 1120.154297
4.880000 0.880000 7.200000 -8.920492 26.789799 797.268494
4.880000 0.920000 6.800000 33.556694 15.867788 1377.838501
4.880000 0.920000 6.840000 7.124582 49.290817 2480.344482
4.880000 0.920000 6.880000 -44.341190 52.884426 4762.903320
4.880000 0.920000 6.920000 -87.433777 11.473217 7776.300293
4.880000 0.920000 6.960000 -85.529709 -54.861313 10325.094727
4.880000 0.920000 7.000000 -31.963312 -100.865082 11195.417969
4.880000 0.920000 7.040000 39.392830 -91.952728 10007.099609
4.880000 0.920000 7.080000 79.336220 -34.378532 7476.119141
4.880000 0.920000 7.120000 63.411934 29.036629 4864.199219
4.880000 0.920000 7.160000 10.716948 54.693954 3106.281738
4.880000 0.920000 7.200000 -35.155979 32.904629 2318.657471
4.880000 0.960000 6.800000 9.602837 43.663357 1998.703247
4.880000 0.960000 6.840000 -40.227348 57.898815 4970.512207
4.880000 0.960000 6.880000 -95.343231 24.301260 9680.882812
4.880000 0.960000 6.920000 -110.643768 -50.230541 14765.151367
4.880000 0.960000 6.960000 -61.492050 -119.756805 18122.964844
4.880000 0.960000 7.000000 28.306349 -132.133026 18260.386719
4.880000 0.960000 7.040000 99.408287 -73.821426 15331.611328
4.880000 0.960000 7.080000 103.768181 15.141394 10997.096680
4.880000 0.960000 7.120000 44.286053 72.522461 7220.761719
4.880000 0.960000 7.160000 -29.160448 64.545776 5016.488770
4.880000 0.960000 7.200000 -63.248322 10.213173 4104.659180
4.880000 1.000000 6.800000 -26.792095 41.857334 2469.852783
4.880000 1.000000 6.840000 -79.130295 24.592827 6866.410645
4.880000 1.000000 6.880000 -108.159439 -38.537979 13183.639648
4.880000 1.000000 6.920000 -77.528351 -115.077385 19253.449219
4.880000 1.000000 6.960000 8.234426 -149.525970 22425.822266
4.880000 1.000000 7.000000 97.575806 -108.706161 21338.066406
4.880000 1.000000 7.040000 129.115173 -14.566792 16882.919922
4.880000 1.000000 7.080000 82.317047 69.004471 11537.712891
4.880000 1.000000 7.120000 -4.488136 87.085571 7604.040039
4.880000 1.000000 7.160000 -66.408272 37.421783 5810.448242
4.880000 1.000000 7.200000 -65.446533 -31.987610 5306.455566
4.880000 1.040000 6.800000 -47.333012 13.099407 2412.008545
4.880000 1.040000 6.840000 -78.781769 -27.311646 6952.492676
4.880000 1.040000 6.880000 -68.772606 -91.244797 13055.285156
4.880000 1.040000 6.920000 -5.882566 -135.373383 18360.558594
4.880000 1.040000 6.960000 78.604836 -119.279755 20406.380859
4.880000 1.040000 7.000000 128.425110 -42.960918 18338.650391
4.880000 1.040000 7.040000 106.855354 46.275997 13559.534180
4.880000 1.040000 7.080000 29.321030 88.616196 8712.552734
4.880000 1.040000 7.120000 -47.264191 59.906532 5822.696289
4.880000 1.040000 7.160000 -70.758598 -9.838984 5103.584961
4.880000 1.040000 7.200000 -34.574982 -64.001266 5291.591309
4.880000 1.080000 6.800000 -38.622101 -18.755880 1843.449707
4.880000 1.080000 6.840000 -41.055378 -59.477272 5223.089844
4.880000 1.080000 6.880000 -6.202574 -96.925781 9433.079102
4.880000 1.080000 6.920000 54.155510 -98.609177 12656.588867
4.880000 1.080000 6.960000 102.769157 -52.175919 13283.826172
4.880000 1.080000 7.000000 103.580948 18.687672 11078.242188
4.880000 1.080000 7.040000 52.580177 68.198273 7415.679688
4.880000 1.080000 7.080000 -15.555027 63.866577 4320.898438
4.880000 1.080000 7.120000 -53.654060 13.205780 3053.150879
4.880000 1.080000 7.160000 -39.518749 -42.643688 3380.215820
4.880000 1.080000 7.200000 8.157414 -63.163719 4056.198975
4.880000 1.120000 6.800000 -12.140665 -30.872503 1100.507202
4.880000 1.120000 6.840000 2.464689 -52.855186 2799.745361
4.880000 1.120000 6.880000 34.019478 -58.919987 4628.889648
4.880000 1.120000 6.920000 64.944618 -38.432991 5694.897949
4.880000 1.120000 6.960000 73.499863 1.229031 5403.740723
4.880000 1.120000 7.000000 50.689842 36.695919 3916.050781
4.880000 1.120000 7.040000 9.598156 44.778255 2097.216797
4.880000 1.120000 7.080000 -22.569462 20.833183 943.402100
4.880000 1.120000 7.120000 -24.947151 -16.595034 897.755493
4.880000 1.120000 7.160000 0.801008 -39.977196 1598.817749
4.880000 1.120000 7.200000 32.615761 -34.354263 2244.003418
4.880000 1.160000 6.800000 9.072323 -20.777967 514.031006
4.880000 1.160000 6.840000 20.939381 -22.443218 942.155762
4.880000 1.160000 6.880000 31.130762 -14.742414 1186.463135
4.880000 1.160000 6.920000 33.445709 -1.929878 1122.339966
4.880000 1.160000 6.960000 26.749159 8.859264 794.004089
4.880000 1.160000 7.000000 15.216537 11.996067 375.448639
4.880000 1.160000 7.040000 5.657505 6.488558 74.108749
4.880000 1.160000 7.080000 3.526616 -3.551525 25.050352
4.880000 1.160000 7.120000 9.675266 -11.331284 222.008759
4.880000 1.160000 7.160000 19.689026 -11.561984 521.337219
4.880000 1.160000 7.200000 26.670925 -3.992224 727.276123
4.880000 1.200000 6.800000 12.677139 -4.786372 183.619217
4.880000 1.200000 6.840000 11.405306 0.936951 130.958893
4.880000 1.200000 6.880000 4.253905 1.558884 20.525829
4.880000 1.200000 6.920000 -0.466902 -6.515774 42.673306
4.880000 1.200000 6.960000 4.922737 -17.137070 317.912506
4.880000 1.200000 7.000000 18.862179 -19.820494 748.633789
4.880000 1.200000 7.040000 31.068922 -10.111530 1067.520996
4.880000 1.200000 7.080000 31.941883 5.604515 1051.694458
4.880000 1.200000 7.120000 21.511534 15.797274 712.299927
4.880000 1.200000 7.160000 9.125208 14.271080 286.933136
4.880000 1.200000 7.200000 4.579432 5.171219 47.712700
4.920000 0.800000 6.800000 -20.765160 -37.298653 1822.381348
4.920000 0.800000 6.840000 -6.006395 -35.908394 1325.489502
4.920000 0.800000 6.880000 4.046024 -28.434008 824.863098
4.920000 0.800000 6.920000 8.387600 -19.983303 469.684235
4.920000 0.800000 6.960000 9.801367 -13.248615 271.592590
4.920000 0.800000 7.000000 10.576253 -7.229485 164.122574
4.920000 0.800000 7.040000 9.904961 -0.334538 98.220161
4.920000 0.800000 7.080000 5.713455 6.346682 72.923943
4.920000 0.800000 7.120000 -1.717922 9.559448 94.334305
4.920000 0.800000 7.160000 -8.904747 7.523254 135.893875
4.920000 0.800000 7.200000 -12.182999 2.186872 153.207870
4.920000 0.840000 6.800000 14.080021 -32.392372 1247.512695
4.920000 0.840000 6.840000 20.958942 -9.693727 533.245605
4.920000 0.840000 6.880000 7.924137 10.338614 169.678879
4.920000 0.840000 6.920000 -15.387508 11.941833 379.382812
4.920000 0.840000 6.960000 -29.695044 -5.961334 917.333130
4.920000 0.840000 7.000000 -22.972095 -27.861881 1304.001587
4.920000 0.840000 7.040000 -1.129997 -35.228584 1242.329956
4.920000 0.840000 7.080000 17.761719 -22.635223 827.831970
4.920000 0.840000 7.120000 19.806690 -1.333660 394.083618
4.920000 0.840000 7.160000 6.392092 12.189876 189.451904
4.920000 0.840000 7.200000 -9.442543 10.656960 202.732407
4.920000 0.880000 6.800000 32.358292 0.782442 1047.671265
4.920000 0.880000 6.840000 12.022064 35.269257 1388.450439
4.920000 0.880000 6.880000 -34.356922 42.788906 3011.288574
4.920000 0.880000 6.920000 -74.337097 8.251701 5594.094727
4.920000 0.880000 6.960000 -73.905823 -48.863869 7849.748535
4.920000 0.880000 7.000000 -28.761879 -87.292534 8447.232422
4.920000 0.880000 7.040000 29.486389 -78.620453 7050.623047
4.920000 0.880000 7.080000 59.565830 -31.624886 4548.221680
4.920000 0.880000 7.120000 45.061924 16.531401 2303.864258
4.920000 0.880000 7.160000 5.354141 33.237400 1133.391602
4.920000 0.880000 7.200000 -25.276239 16.046507 896.378662
4.920000 0.920000 6.800000 15.734995 37.045448 1619.955322
4.920000 0.920000 6.840000 -37.515633 57.675861 4733.927734
4.920000 0.920000 6.880000 -100.037384 24.320908 10598.985352
4.920000 0.920000 6.920000 -119.519409 -55.975735 17418.171875
4.920000 0.920000 6.960000 -68.593338 -131.359467 21960.355469
4.920000 0.920000 7.000000 25.174767 -145.408356 21777.359375
4.920000 0.920000 7.040000 97.893555 -86.423599 17052.187500
4.920000 0.920000 7.080000 102.208817 1.154388 10447.975586
4.920000 0.920000 7.120000 45.768948 54.936966 5112.867188
4.920000 0.920000 7.160000 -19.732449 46.604523 2561.351074
4.920000 0.920000 7.200000 -46.260109 -0.051252 2140.000244
4.920000 0.960000 6.800000 -24.695959 45.546883 2684.408936
4.920000 0.960000 6.840000 -92.232681 28.761539 9334.093750
4.920000 0.960000 6.880000 -133.053650 -49.756866 20179.019531
4.920000 0.960000 6.920000 -97.489578 -148.182983 31462.414062
4.920000 0.960000 6.960000 8.897064 -194.224274 37802.226562
4.920000 0.960000 7.000000 119.925835 -146.588058 35870.265625
4.920000 0.960000 7.040000 160.182770 -34.801376 26869.656250
4.920000 0.960000 7.080000 108.274651 62.766617 15663.048828
4.920000 0.960000 7.120000 13.129216 84.291840 7277.490723
4.920000 0.960000 7.160000 -51.190319 33.038132 3711.966797
4.920000 0.960000 7.200000 -48.322884 -33.956718 3488.159668
4.920000 1.000000 6.800000 -56.322422 17.824846 3489.940430
4.920000 1.000000 6.840000 -105.712547 -36.868912 12534.458984
4.920000 1.000000 6.880000 -95.769859 -131.222656 26391.250000
4.920000 1.000000 6.920000 -5.903825 -199.679474 39906.746094
4.920000 1.000000 6.960000 118.071548 -180.525879 46530.484375
4.920000 1.000000 7.000000 193.289490 -73.725403 42796.261719
4.920000 1.000000 7.040000 167.987701 51.798172 30902.917969
4.920000 1.000000 7.080000 66.381378 112.868652 17145.820312
4.920000 1.000000 7.120000 -32.528790 80.226456 7494.406250
4.920000 1.000000 7.160000 -62.660683 -2.109168 3930.809570
4.920000 1.000000 7.200000 -22.069382 -61.476402 4266.405762
4.920000 1.040000 6.800000 -53.703209 -23.897593 3455.129639
4.920000 1.040000 6.840000 -63.611950 -90.985428 12324.828125
4.920000 1.040000 6.880000 -8.013491 -159.057266 25363.431641
4.920000 1.040000 6.920000 96.689171 -167.646774 37454.238281
4.920000 1.040000 6.960000 185.142548 -91.381607 42628.359375
4.920000 1.040000 7.000000 193.054382 29.849661 38161.000000
4.920000 1.040000 7.040000 113.020111 117.589081 26600.738281
4.920000 1.040000 7.080000 3.484495 118.199005 13983.146484
4.920000 1.040000 7.120000 -59.577286 45.916733 5657.799316
4.920000 1.040000 7.160000 -44.525780 -33.403728 3098.354004
4.920000 1.040000 7.200000 16.253185 -60.998287 3984.957031
4.920000 1.080000 6.800000 -20.817265 -46.856575 2628.896973
4.920000 1.080000 6.840000 2.209263 -94.563332 8947.104492
4.920000 1.080000 6.880000 67.998703 -114.998016 17848.367188
4.920000 1.080000 6.920000 140.880890 -76.291939 25667.886719
4.920000 1.080000 6.960000 168.365662 11.267380 28473.949219
4.920000 1.080000 7.000000 124.680099 95.998535 24760.845703
4.920000 1.080000 7.040000 35.963783 123.641724 16580.669922
4.920000 1.080000 7.080000 -38.360783 81.612862 8132.208984
4.920000 1.080000 7.120000 -53.312115 8.601639 2916.169922
4.920000 1.080000 7.160000 -12.743817 -39.268028 1704.382935
4.920000 1.080000 7.200000 39.391193 -34.428894 2737.014893
4.920000 1.120000 6.800000 14.350193 -36.850079 1563.856445
4.920000 1.120000 6.840000 43.193153 -52.025673 4572.319336
4.920000 1.120000 6.880000 83.528946 -39.125801 8507.913086
4.920000 1.120000 6.920000 107.934959 5.312538 11678.177734
4.920000 1.120000 6.960000 94.244499 59.908089 12471.003906
4.920000 1.120000 7.000000 45.282940 91.554802 10432.827148
4.920000 1.120000 7.040000 -10.259674 80.723145 6621.486816
4.920000 1.120000 7.080000 -38.778687 37.568634 2915.188721
4.920000 1.120000 7.120000 -27.515135 -5.905499 791.957581
4.920000 1.120000 7.160000 6.939938 -21.342293 503.656189
4.920000 1.120000 7.200000 34.294662 -5.084291 1201.973877
4.920000 1.160000 6.800000 26.657881 -8.356321 780.470703
4.920000 1.160000 6.840000 37.797527 -3.617603 1441.740112
4.920000 1.160000 6.880000 44.670597 9.672569 2089.020996
4.920000 1.160000 6.920000 41.975380 26.689865 2474.281250
4.920000 1.160000 6.960000 28.920174 40.073536 2442.264648
4.920000 1.160000 7.000000 9.976273 43.453819 1987.760376
4.920000 1.160000 7.040000 -6.813206 34.988663 1270.626343
4.920000 1.160000 7.080000 -13.930653 19.079514 558.090942
4.920000 1.160000 7.120000 -9.073046 4.503243 102.599365
4.920000 1.160000 7.160000 2.880566 -0.868912 9.052666
4.920000 1.160000 7.200000 12.793830 4.596628 184.811066
4.920000 1.200000 6.800000 15.204237 12.517744 387.862732
4.920000 1.200000 6.840000 6.541037 14.705387 259.033569
4.920000 1.200000 6.880000 -0.480350 7.565140 57.462074
4.920000 1.200000 6.920000 2.908974 -2.863750 16.663195
4.920000 1.200000 6.960000 15.286858 -4.888009 257.580658
4.920000 1.200000 7.000000 24.753563 6.393162 653.611389
4.920000 1.200000 7.040000 20.305252 22.617905 923.872864
4.920000 1.200000 7.080000 3.479803 29.312464 871.329529
4.920000 1.200000 7.120000 -12.173191 19.981453 547.445068
4.920000 1.200000 7.160000 -13.833695 2.792381 199.168518
4.920000 1.200000 7.200000 -1.647966 -7.180369 54.273499
4.960000 0.800000 6.800000 1.893051 -36.840019 1360.770630
4.960000 0.800000 6.840000 10.978302 -28.944826 958.326111
4.960000 0.800000 6.880000 13.885532 -20.624193 618.165344
4.960000 0.800000 6.920000 14.334938 -15.275955 438.845276
4.960000 0.800000 6.960000 15.887808 -11.091011 375.432983
4.960000 0.800000 7.000000 17.637503 -4.714809 333.310944
4.960000 0.800000 7.040000 15.868767 3.670691 265.291748
4.960000 0.800000 7.080000 9.246799 9.987843 185.260300
4.960000 0.800000 7.120000 1.087394 10.900784 120.009506
4.960000 0.800000 7.160000 -4.025918 7.690359 75.349640
4.960000 0.800000 7.200000 -5.117385 4.701473 48.291481
4.960000 0.840000 6.800000 25.610298 -14.797119 874.842163
4.960000 0.840000 6.840000 16.885555 8.251347 353.206696
4.960000 0.840000 6.880000 -7.767189 15.545414 301.989136
4.960000 0.840000 6.920000 -28.483522 -0.595718 811.665894
4.960000 0.840000 6.960000 -27.143810 -27.399967 1487.544678
4.960000 0.840000 7.000000 -4.156059 -42.425011 1817.154419
4.960000 0.840000 7.040000 21.994728 -33.467823 1603.863281
4.960000 0.840000 7.080000 31.594988 -8.446270 1069.582764
4.960000 0.840000 7.120000 20.237814 13.349152 587.768982
4.960000 0.840000 7.160000 -0.053951 18.794756 353.245758
4.960000 0.840000 7.200000 -14.019523 10.105906 298.676331
4.960000 0.880000 6.800000 20.349977 20.475868 833.382751
4.960000 0.880000 6.840000 -19.736538 39.491470 1949.107178
4.960000 0.880000 6.880000 -67.883850 16.145752 4868.902344
4.960000 0.880000 6.920000 -82.739296 -43.077602 8701.470703
4.960000 0.880000 6.960000 -44.676277 -97.237930 11451.184570
4.960000 0.880000 7.000000 23.152206 -104.710434 11500.299805
4.960000 0.880000 7.040000 72.746414 -59.933823 8884.103516
4.960000 0.880000 7.080000 72.146935 2.094646 5209.567871
4.960000 0.880000 7.120000 30.688261 37.393913 2340.074219
4.960000 0.880000 7.160000 -13.704882 29.786671 1075.069458
4.960000 0.880000 7.200000 -30.259279 -0.994420 916.612854
4.960000 0.920000 6.800000 -14.274439 37.742031 1628.220581
4.960000 0.920000 6.840000 -77.151413 25.180847 6586.415527
4.960000 0.920000 6.880000 -116.183548 -45.999153 15614.539062
4.960000 0.920000 6.920000 -84.256317 -135.862854 25557.841797
4.960000 0.920000 6.960000 12.173088 -176.820526 31413.681641
4.960000 0.920000 7.000000 110.854477 -132.667297 29889.326172
4.960000 0.920000 7.040000 144.359268 -33.128700 21937.109375
4.960000 0.920000 7.080000 97.204613 50.660858 12015.258789
4.960000 0.920000 7.120000 15.849648 67.020447 4742.951660
4.960000 0.920000 7.160000 -36.023483 23.585382 1853.961670
4.960000 0.920000 7.200000 -32.147789 -28.689598 1856.573364
4.960000 0.960000 6.800000 -50.803780 18.523737 2924.152832
4.960000 0.960000 6.840000 -105.505806 -37.545959 12541.173828
4.960000 0.960000 6.880000 -96.800980 -138.562683 28570.046875
4.960000 0.960000 6.920000 -1.388206 -212.317276 45080.550781
4.960000 0.960000 6.960000 130.206573 -191.894638 53777.304688
4.960000 0.960000 7.000000 208.679230 -79.136551 49809.613281
4.960000 0.960000 7.040000 181.341675 50.846474 35470.167969
4.960000 0.960000 7.080000 77.370575 111.961136 18521.501953
4.960000 0.960000 7.120000 -20.100790 78.549324 6574.038086
4.960000 0.960000 7.160000 -47.329411 -0.168980 2240.101562
4.960000 0.960000 7.200000 -8.803766 -52.056633 2787.399414
4.960000 1.000000 6.800000 -57.491310 -24.062901 3884.273926
4.960000 1.000000 6.840000 -72.893028 -105.535187 16451.070312
4.960000 1.000000 6.880000 -5.972797 -191.156342 36576.421875
4.960000 1.000000 6.920000 123.654465 -203.117355 56547.085938
4.960000 1.000000 6.960000 233.127106 -109.308334 66296.554688
4.960000 1.000000 7.000000 242.630890 39.024204 60392.636719
4.960000 1.000000 7.040000 145.779617 144.533142 42141.527344
4.960000 1.000000 7.080000 16.527401 144.758972 21228.314453
4.960000 1.000000 7.120000 -55.049858 61.788399 6848.292969
4.960000 1.000000 7.160000 -37.375298 -24.391951 1991.880127
4.960000 1.000000 7.200000 26.054247 -49.852982 3164.143555
4.960000 1.040000 6.800000 -27.410833 -55.876884 3873.580078
4.960000 1.040000 6.840000 1.966919 -126.127930 15912.124023
4.960000 1.040000 6.880000 97.171387 -158.981934 34717.535156
4.960000 1.040000 6.920000 205.230560 -103.824837 52899.179688
4.960000 1.040000 6.960000 246.344147 24.434576 61282.484375
4.960000 1.040000 7.000000 182.665497 147.798218 55210.996094
4.960000 1.040000 7.040000 55.160309 187.004791 38013.453125
4.960000 1.040000 7.080000 -48.814297 127.574722 18658.144531
4.960000 1.040000 7.120000 -68.456161 28.729641 5511.638184
4.960000 1.040000 7.160000 -15.595021 -31.710794 1248.779175
4.960000 1.040000 7.200000 46.064854 -22.823549 2642.885254
4.960000 1.080000 6.800000 15.280046 -52.336868 2972.627441
4.960000 1.080000 6.840000 64.648453 -84.998535 11404.173828
4.960000 1.080000 6.880000 141.317123 -65.665619 24282.503906
4.960000 1.080000 6.920000 190.198761 16.790787 36457.500000
4.960000 1.080000 6.960000 165.189301 120.577209 41826.367188
4.960000 1.080000 7.000000 72.213257 179.531204 37446.207031
4.960000 1.080000 7.040000 -30.944714 157.163391 25657.908203
4.960000 1.080000 7.080000 -80.737839 77.112556 12464.945312
4.960000 1.080000 7.120000 -58.687592 1.618713 3446.853516
4.960000 1.080000 7.160000 -1.195538 -21.444334 461.288788
4.960000 1.080000 7.200000 37.752266 5.987389 1461.082520
4.960000 1.120000 6.800000 37.968987 -19.508965 1822.243652
4.960000 1.120000 6.840000 73.843811 -18.036510 5778.224121
4.960000 1.120000 6.880000 106.138901 18.509846 11608.080078
4.960000 1.120000 6.920000 104.225258 78.225510 16982.134766
4.960000 1.120000 6.960000 57.694717 126.375565 19299.462891
4.960000 1.120000 7.000000 -11.410973 131.212341 17346.888672
4.960000 1.120000 7.040000 -63.474098 89.912460 12113.211914
4.960000 1.120000 7.080000 -71.704971 31.308304 6121.812988
4.960000 1.120000 7.120000 -41.743721 -7.397213 1797.256958
4.960000 1.120000 7.160000 -3.909281 -9.225077 100.384521
4.960000 1.120000 7.200000 13.339163 13.297054 354.744904
4.960000 1.160000 6.800000 28.558031 14.056025 1013.132996
4.960000 1.160000 6.840000 36.006779 23.814892 1863.637207
4.960000 1.160000 6.880000 35.686455 41.013966 2955.668457
4.960000 1.160000 6.920000 23.029404 58.373302 3937.795898
4.960000 1.160000 6.960000 -0.208046 66.798859 4462.130859
4.960000 1.160000 7.000000 -26.019119 60.339596 4317.861328
4.960000 1.160000 7.040000 -43.815132 40.083961 3526.489746
4.960000 1.160000 7.080000 -46.229050 14.462196 2346.280029
4.960000 1.160000 7.120000 -33.809326 -4.991648 1167.987061
4.960000 1.160000 7.160000 -15.183756 -10.420340 339.129944
4.960000 1.160000 7.200000 -1.877495 -2.639994 10.494553
4.960000 1.200000 6.800000 2.922266 25.155550 641.341309
4.960000 1.200000 6.840000 -6.847397 20.508892 467.501495
4.960000 1.200000 6.880000 -8.623020 9.671656 167.897400
4.960000 1.200000 6.920000 0.065903 3.755125 14.105308
4.960000 1.200000 6.960000 9.245312 10.948929 205.354828
4.960000 1.200000 7.000000 5.489830 25.749069 693.152832
4.960000 1.200000 7.040000 -13.239555 32.146957 1208.712646
4.960000 1.200000 7.080000 -33.001308 19.271515 1460.477539
4.960000 1.200000 7.120000 -35.981232 -6.241192 1333.601562
4.960000 1.200000 7.160000 -18.090027 -24.812935 942.930847
4.960000 1.200000 7.200000 5.959267 -22.090729 523.513184
5.000000 0.800000 6.800000 16.664537 -18.783081 630.510986
5.000000 0.800000 6.840000 16.443682 -11.374980 399.784821
5.000000 0.800000 6.880000 14.432463 -8.735691 284.608276
5.000000 0.800000 6.920000 15.924536 -8.213600 321.054077
5.000000 0.800000 6.960000 20.166176 -4.084198 423.355316
5.000000 0.800000 7.000000 21.321960 4.990562 479.531708
5.000000 0.800000 7.040000 15.628685 13.937146 438.499847
5.000000 0.800000 7.080000 6.047421 16.987598 325.149780
5.000000 0.800000 7.120000 -1.087101 14.183044 202.340546
5.000000 0.800000 7.160000 -3.310590 10.873026 129.182693
5.000000 0.800000 7.200000 -4.376282 10.941712 138.872910
5.000000 0.840000 6.800000 19.186783 6.096507 405.300018
5.000000 0.840000 6.840000 -0.709881 16.315243 266.691071
5.000000 0.840000 6.880000 -22.580387 5.198708 536.900452
5.000000 0.840000 6.920000 -26.684206 -20.663231 1139.015991
5.000000 0.840000 6.960000 -7.503151 -40.353436 1684.697021
5.000000 0.840000 7.000000 20.615173 -37.382725 1822.453491
5.000000 0.840000 7.040000 36.383865 -14.051861 1521.240479
5.000000 0.840000 7.080000 29.933775 11.933331 1038.435303
5.000000 0.840000 7.120000 9.152824 23.888554 654.437134
5.000000 0.840000 7.160000 -10.144617 18.971270 462.822327
5.000000 0.840000 7.200000 -18.562456 6.527896 387.178223
5.000000 0.880000 6.800000 -3.724002 23.802330 580.419067
5.000000 0.880000 6.840000 -45.101040 15.818295 2284.322266
5.000000 0.880000 6.880000 -69.491226 -30.577568 5764.018555
5.000000 0.880000 6.920000 -46.956882 -86.990265 9772.254883
5.000000 0.880000 6.960000 15.265480 -109.366898 12194.153320
5.000000 0.880000 7.000000 75.154816 -77.380196 11635.941406
5.000000 0.880000 7.040000 91.294312 -13.511490 8517.211914
5.000000 0.880000 7.080000 57.800377 36.703178 4688.006836
5.000000 0.880000 7.120000 6.193262 43.828117 1959.260376
5.000000 0.880000 7.160000 -25.312366 15.902265 893.597900
5.000000 0.880000 7.200000 -23.864540 -15.559215 811.605469
5.000000 0.920000 6.800000 -35.085297 13.491199 1412.990479
5.000000 0.920000 6.840000 -78.199905 -30.124994 7022.740234
5.000000 0.920000 6.880000 -70.624840 -109.375191 16950.800781
5.000000 0.920000 6.920000 5.362923 -165.702606 27486.115234
5.000000 0.920000 6.960000 107.777328 -146.803955 33167.351562
5.000000 0.920000 7.000000 165.831146 -56.895050 30737.015625
5.000000 0.920000 7.040000 140.763138 43.037766 21666.511719
5.000000 0.920000 7.080000 58.786911 87.014160 11027.365234
5.000000 0.920000 7.120000 -14.798693 58.894180 3687.525635
5.000000 0.920000 7.160000 -33.790939 -0.712727 1142.335571
5.000000 0.920000 7.200000 -5.508814 -37.903507 1467.022949
5.000000 0.960000 6.800000 -46.222790 -21.419991 2595.362305
5.000000 0.960000 6.840000 -60.942646 -94.998528 12738.726562
5.000000 0.960000 6.880000 0.527397 -173.146103 29979.849609
5.000000 0.960000 6.920000 119.668922 -182.755310 47720.156250
5.000000 0.960000 6.960000 218.584213 -94.899521 56784.976562
5.000000 0.960000 7.000000 224.218323 40.925972 51948.789062
5.000000 0.960000 7.040000 133.684006 134.530487 35969.867188
5.000000 0.960000 7.080000 17.258160 131.448181 17576.468750
5.000000 0.960000 7.120000 -44.143509 55.934311 5077.296875
5.000000 0.960000 7.160000 -26.551872 -18.276978 1039.049805
5.000000 0.960000 7.200000 27.039011 -37.304459 2122.730713
5.000000 1.000000 6.800000 -23.649895 -53.676102 3440.441406
5.000000 1.000000 6.840000 5.736166 -127.541656 16299.777344
5.000000 1.000000 6.880000 106.486153 -162.612213 37782.031250
5.000000 1.000000 6.920000 221.175507 -103.079300 59543.945312
5.000000 1.000000 6.960000 263.035095 34.180248 70355.750000
5.000000 1.000000 7.000000 192.788864 163.775330 63989.906250
5.000000 1.000000 7.040000 57.342262 201.706665 43973.714844
5.000000 1.000000 7.080000 -49.152622 136.581055 21070.365234
5.000000 1.000000 7.120000 -65.769211 34.825470 5538.402344
5.000000 1.000000 7.160000 -10.746132 -22.830025 636.689392
5.000000 1.000000 7.200000 46.995892 -10.378160 2316.320068
5.000000 1.040000 6.800000 17.032595 -56.176888 3445.952148
5.000000 1.040000 6.840000 76.717094 -98.429276 15573.834961
5.000000 1.040000 6.880000 173.162888 -75.289352 35653.871094
5.000000 1.040000 6.920000 234.486633 28.952019 55822.199219
5.000000 1.040000 6.960000 200.848557 159.411652 65752.218750
5.000000 1.040000 7.000000 82.021622 230.353363 59790.218750
5.000000 1.040000 7.040000 -45.493065 197.761398 41179.187500
5.000000 1.040000 7.080000 -102.149185 96.597900 19765.609375
5.000000 1.040000 7.120000 -70.584549 7.439655 5037.527344
5.000000 1.040000 7.160000 -2.154398 -14.366283 211.031540
5.000000 1.040000 7.200000 36.993378 20.425619 1785.715942
5.000000 1.080000 6.800000 44.605160 -26.625313 2698.527588
5.000000 1.080000 6.840000 101.630859 -28.444065 11137.896484
5.000000 1.080000 6.880000 155.598312 28.438082 25019.558594
5.000000 1.080000 6.920000 152.755814 124.811134 38912.156250
5.000000 1.080000 6.960000 75.694641 200.300537 45849.984375
5.000000 1.080000 7.000000 -35.211647 201.919266 42011.250000
5.000000 1.080000 7.040000 -112.027115 130.026611 29456.994141
5.000000 1.080000 7.080000 -114.969856 38.061184 14666.720703
5.000000 1.080000 7.120000 -62.231579 -13.791485 4062.974365
5.000000 1.080000 7.160000 -7.962812 -7.089813 113.671837
5.000000 1.080000 7.200000 7.596437 27.935257 838.084473
5.000000 1.120000 6.800000 40.187988 11.182540 1740.123657
5.000000 1.120000 6.840000 69.256287 30.473721 5725.080566
5.000000 1.120000 6.880000 77.179604 78.993629 12196.685547
5.000000 1.120000 6.920000 42.821404 129.832489 18690.146484
5.000000 1.120000 6.960000 -24.329697 146.814453 22146.417969
5.000000 1.120000 7.000000 -88.116096 114.315041 20832.375000
5.000000 1.120000 7.040000 -113.346466 51.106930 15459.338867
5.000000 1.120000 7.080000 -92.898758 -4.705166 8652.318359
5.000000 1.120000 7.120000 -50.514626 -25.831699 3219.003906
5.000000 1.120000 7.160000 -18.530737 -14.138157 543.275696
5.000000 1.120000 7.200000 -12.286993 7.082280 201.128891
5.000000 1.160000 6.800000 12.400072 30.072708 1058.129639
5.000000 1.160000 6.840000 13.998665 42.202759 1977.035522
5.000000 1.160000 6.880000 4.060833 57.807510 3358.198730
5.000000 1.160000 6.920000 -18.117416 66.797707 4790.174316
5.000000 1.160000 6.960000 -45.532318 61.152618 5812.834961
5.000000 1.160000 7.000000 -67.166565 39.796913 6095.142090
5.000000 1.160000 7.040000 -73.856499 9.460205 5544.277832
5.000000 1.160000 7.080000 -63.097008 -18.558668 4325.656738
5.000000 1.160000 7.120000 -40.490852 -34.011040 2796.260010
5.000000 1.160000 7.160000 -17.079729 -32.997551 1380.555542
5.000000 1.160000 7.200000 -3.517960 -20.222755 421.335876
5.000000 1.200000 6.800000 -13.902324 23.110981 727.392029
5.000000 1.200000 6.840000 -19.818007 14.848446 613.229736
5.000000 1.200000 6.880000 -17.189156 5.550458 326.274658
5.000000 1.200000 6.920000 -9.418163 4.724998 111.027405
5.000000 1.200000 6.960000 -8.311543 13.430603 249.462845
5.000000 1.200000 7.000000 -21.195393 19.834755 842.662170
5.000000 1.200000 7.040000 -40.066345 9.858398 1702.500000
5.000000 1.200000 7.080000 -46.385529 -16.750492 2432.196289
5.000000 1.200000 7.120000 -28.987724 -42.538818 2649.839111
5.000000 1.200000 7.160000 2.724596 -47.059563 2222.025879
5.000000 1.200000 7.200000 25.274418 -26.868101 1360.691040
5.040000 0.800000 6.800000 11.296130 3.766824 141.791519
5.040000 0.800000 6.840000 5.507442 2.880331 38.628227
5.040000 0.800000 6.880000 5.714452 -2.275593 37.833282
5.040000 0.800000 6.920000 12.600069 -3.188690 168.929474
5.040000 0.800000 6.960000 18.401608 4.531746 359.155884
5.040000 0.800000 7.000000 15.539848 15.714764 488.440674
5.040000 0.800000 7.040000 5.170319 21.239765 477.859833
5.040000 0.800000 7.080000 -4.324638 18.122084 347.112396
5.040000 0.800000 7.120000 -7.063376 12.274630 200.557816
5.040000 0.800000 7.160000 -6.054502 10.825521 153.848923
5.040000 0.800000 7.200000 -8.732850 13.273815 252.456848
5.040000 0.840000 6.800000 -1.827974 13.596836 188.215439
5.040000 0.840000 6.840000 -18.702831 6.422985 391.050629
5.040000 0.840000 6.880000 -24.002020 -14.371582 782.639343
5.040000 0.840000 6.920000 -9.704449 -33.249924 1199.733643
5.040000 0.840000 6.960000 15.231735 -34.356422 1412.369507
5.040000 0.840000 7.000000 32.586720 -16.057079 1319.724121
5.040000 0.840000 7.040000 30.863838 8.267227 1020.923584
5.040000 0.840000 7.080000 13.766663 22.753815 707.257080
5.040000 0.840000 7.120000 -5.605301 21.741659 504.119141
5.040000 0.840000 7.160000 -17.091831 11.117800 415.736176
5.040000 0.840000 7.200000 -19.785496 -0.299989 391.555847
5.040000 0.880000 6.800000 -21.795063 5.908436 509.934387
5.040000 0.880000 6.840000 -43.122784 -20.524080 2280.812256
5.040000 0.880000 6.880000 -34.534363 -63.745445 5256.104004
5.040000 0.880000 6.920000 10.204277 -90.262527 8251.451172
5.040000 0.880000 6.960000 64.725365 -74.107826 9681.342773
5.040000 0.880000 7.000000 90.875549 -22.125244 8747.891602
5.040000 0.880000 7.040000 71.655319 30.477737 6063.377441
5.040000 0.880000 7.080000 24.873421 50.226299 3141.368164
5.040000 0.880000 7.120000 -14.465956 32.173904 1244.424072
5.040000 0.880000 7.160000 -24.588020 -0.731783 605.106262
5.040000 0.880000 7.200000 -11.231671 -21.957289 608.272949
5.040000 0.920000 6.800000 -28.626396 -19.470497 1198.570801
5.040000 0.920000 6.840000 -35.675701 -67.978035 5893.768555
5.040000 0.920000 6.880000 8.015553 -117.748764 13929.020508
5.040000 0.920000 6.920000 88.167343 -119.897957 22149.000000
5.040000 0.920000 6.960000 151.368042 -57.330425 26199.060547
5.040000 0.920000 7.000000 150.148880 34.095062 23707.158203
5.040000 0.920000 7.040000 85.863380 93.677223 16147.941406
5.040000 0.920000 7.080000 7.592529 87.552986 7723.171875
5.040000 0.920000 7.120000 -31.671040 34.875080 2219.325928
5.040000 0.920000 7.160000 -18.799498 -14.756582 571.177856
5.040000 0.920000 7.200000 16.111809 -27.764566 1030.461548
5.040000 0.960000 6.800000 -10.444065 -43.868397 2033.514771
5.040000 0.960000 6.840000 13.162313 -98.768410 9928.445312
5.040000 0.960000 6.880000 91.845291 -123.389626 23660.558594
5.040000 0.960000 6.920000 180.008728 -73.847939 37856.660156
5.040000 0.960000 6.960000 209.172775 35.264511 44996.835938
5.040000 0.960000 7.000000 150.013885 135.366745 40828.320312
5.040000 0.960000 7.040000 42.035172 161.056168 27706.044922
5.040000 0.960000 7.080000 -39.718010 106.290390 12875.167969
5.040000 0.960000 7.120000 -49.458874 25.858257 3114.829590
5.040000 0.960000 7.160000 -4.937614 -17.373165 326.206909
5.040000 0.960000 7.200000 38.535309 -6.409950 1526.057373
5.040000 1.000000 6.800000 22.906857 -45.506374 2595.554199
5.040000 1.000000 6.840000 74.935608 -81.577805 12270.283203
5.040000 1.000000 6.880000 160.624680 -59.318783 29319.005859
5.040000 1.000000 6.920000 213.923340 36.373638 47086.238281
5.040000 1.000000 6.960000 179.887390 154.418060 56204.410156
5.040000 1.000000 7.000000 69.148727 215.558838 51247.160156
5.040000 1.000000 7.040000 -46.049206 181.180222 34946.804688
5.040000 1.000000 7.080000 -93.276093 86.791809 16233.248047
5.040000 1.000000 7.120000 -60.409050 7.900661 3711.673828
5.040000 1.000000 7.160000 1.696197 -7.504578 59.195766
5.040000 1.000000 7.200000 32.913746 25.558393 1736.546143
5.040000 1.040000 6.800000 46.781269 -20.124142 2593.468262
5.040000 1.040000 6.840000 105.197014 -22.498501 11572.594727
5.040000 1.040000 6.880000 161.684128 37.916801 27579.441406
5.040000 1.040000 6.920000 156.672302 140.896240 44397.960938
5.040000 1.040000 6.960000 71.321167 219.520050 53275.757812
5.040000 1.040000 7.000000 -48.093262 216.141510 49030.113281
5.040000 1.040000 7.040000 -126.134911 134.385956 33969.601562
5.040000 1.040000 7.080000 -122.214859 36.272343 16252.154297
5.040000 1.040000 7.120000 -61.840153 -13.081467 3995.329346
5.040000 1.040000 7.160000 -7.002039 0.568834 49.352123
5.040000 1.040000 7.200000 2.265680 38.027328 1451.211060
5.040000 1.080000 6.800000 43.455627 14.235657 2091.045410
5.040000 1.080000 6.840000 83.050522 37.842255 8329.425781
5.040000 1.080000 6.880000 94.660873 102.955940 19560.605469
5.040000 1.080000 6.920000 46.983688 171.101273 31483.111328
5.040000 1.080000 6.960000 -45.134483 189.852295 38081.015625
5.040000 1.080000 7.000000 -127.646698 139.252563 35684.957031
5.040000 1.080000 7.040000 -151.624039 51.282845 25619.779297
5.040000 1.080000 7.080000 -113.705154 -17.276251 13227.331055
5.040000 1.080000 7.120000 -54.924976 -32.729820 4087.994141
5.040000 1.080000 7.160000 -21.121284 -7.958302 509.443237
5.040000 1.080000 7.200000 -24.663441 17.738667 922.945557
5.040000 1.120000 6.800000 17.536255 33.393150 1422.622803
5.040000 1.120000 6.840000 29.242041 59.926422 4446.272949
5.040000 1.120000 6.880000 11.579723 98.757935 9887.219727
5.040000 1.120000 6.920000 -38.738926 119.351219 15745.417969
5.040000 1.120000 6.960000 -97.250854 99.201859 19298.738281
5.040000 1.120000 7.000000 -129.843414 44.204407 18813.341797
5.040000 1.120000 7.040000 -120.068558 -15.272743 14649.715820
5.040000 1.120000 7.080000 -80.848190 -48.952164 8932.744141
5.040000 1.120000 7.120000 -41.067177 -49.038055 4091.244141
5.040000 1.120000 7.160000 -21.279799 -31.279140 1431.214478
5.040000 1.120000 7.200000 -20.960476 -16.956827 726.875549
5.040000 1.160000 6.800000 -9.914742 28.165041 891.571655
5.040000 1.160000 6.840000 -14.763067 38.668411 1713.194092
5.040000 1.160000 6.880000 -31.368645 45.630951 3066.175537
5.040000 1.160000 6.920000 -54.106838 40.231339 4546.110352
5.040000 1.160000 6.960000 -72.718147 20.527161 5709.292969
5.040000 1.160000 7.000000 -78.678223 -7.986702 6254.050293
5.040000 1.160000 7.040000 -69.150230 -36.061440 6082.181641
5.040000 1.160000 7.080000 -47.317673 -55.003506 5264.347656
5.040000 1.160000 7.120000 -20.669346 -59.655231 3985.968506
5.040000 1.160000 7.160000 1.475905 -50.253132 2527.555420
5.040000 1.160000 7.200000 11.664536 -33.121883 1233.120605
5.040000 1.200000 6.800000 -21.729042 9.780896 567.817200
5.040000 1.200000 6.840000 -24.553600 2.438586 608.825989
5.040000 1.200000 6.880000 -21.402641 -4.430973 477.706573
5.040000 1.200000 6.920000 -16.854210 -4.747459 306.602753
5.040000 1.200000 6.960000 -19.583149 -1.345055 385.308899
5.040000 1.200000 7.000000 -30.454632 -5.466763 957.370117
5.040000 1.200000 7.040000 -37.464798 -24.195641 1989.040039
5.040000 1.200000 7.080000 -26.059448 -49.068710 3086.833008
5.040000 1.200000 7.120000 4.196815 -60.441513 3670.789795
5.040000 1.200000 7.160000 35.009529 -45.991066 3340.845215
5.040000 1.200000 7.200000 44.406883 -15.006180 2197.156738
5.080000 0.800000 6.800000 -10.166464 12.320908 255.161743
5.080000 0.800000 6.840000 -12.470925 1.380178 157.428864
5.080000 0.800000 6.880000 -3.907162 -6.706778 60.246780
5.080000 0.800000 6.920000 7.825703 -3.296999 72.111824
5.080000 0.800000 6.960000 11.079647 8.826499 200.665649
5.080000 0.800000 7.000000 2.766357 18.093315 335.020782
5.080000 0.800000 7.040000 -8.569419 16.613445 349.441498
5.080000 0.800000 7.080000 -12.642383 8.325062 229.136490
5.080000 0.800000 7.120000 -8.848722 3.522186 90.705688
5.080000 0.800000 7.160000 -6.059673 6.382585 77.457031
5.080000 0.800000 7.200000 -11.237433 10.109087 228.473541
5.080000 0.840000 6.800000 -20.702200 0.533694 428.865906
5.080000 0.840000 6.840000 -22.134388 -15.026300 715.720825
5.080000 0.840000 6.880000 -9.824203 -28.996523 937.313293
5.080000 0.840000 6.920000 10.327168 -29.703337 988.938599
5.080000 0.840000 6.960000 24.825413 -15.462751 855.397827
5.080000 0.840000 7.000000 24.625851 3.820621 621.029663
5.080000 0.840000 7.040000 12.238258 15.912281 402.975647
5.080000 0.840000 7.080000 -2.443813 16.250130 270.038940
5.080000 0.840000 7.120000 -11.747082 9.098410 220.774994
5.080000 0.840000 7.160000 -14.999339 0.721833 225.501221
5.080000 0.840000 7.200000 -15.136522 -6.605474 272.746582
5.080000 0.880000 6.800000 -18.371790 -20.343262 751.370972
5.080000 0.880000 6.840000 -14.061775 -42.722469 2022.942871
5.080000 0.880000 6.880000 11.802975 -60.007431 3740.202148
5.080000 0.880000 6.920000 48.406387 -52.913002 5142.963867
5.080000 0.880000 6.960000 71.425293 -19.291538 5473.735840
5.080000 0.880000 7.000000 63.943768 21.367455 4545.373535
5.080000 0.880000 7.040000 31.504431 43.561817 2890.161133
5.080000 0.880000 7.080000 -2.990036 36.681606 1354.480591
5.080000 0.880000 7.120000 -18.959999 11.725609 496.971466
5.080000 0.880000 7.160000 -13.422480 -10.925039 299.519440
5.080000 0.880000 7.200000 1.078814 -19.339352 375.174377
5.080000 0.920000 6.800000 2.281456 -35.254185 1248.062622
5.080000 0.920000 6.840000 19.507225 -60.246384 4010.158447
5.080000 0.920000 6.880000 63.271702 -67.099037 8505.588867
5.080000 0.920000 6.920000 108.121193 -34.414280 12874.535156
5.080000 0.920000 6.960000 118.218964 27.287762 14720.345703
5.080000 0.920000 7.000000 80.629982 79.908386 12886.543945
5.080000 0.920000 7.040000 19.371311 89.573685 8398.692383
5.080000 0.920000 7.080000 -24.491112 55.747162 3707.560547
5.080000 0.920000 7.120000 -27.765896 9.753240 866.070618
5.080000 0.920000 7.160000 -1.797283 -14.732170 220.267059
5.080000 0.920000 7.200000 23.225040 -9.783100 635.111572
5.080000 0.960000 6.800000 30.524227 -29.308647 1790.725342
5.080000 0.960000 6.840000 62.240025 -46.056473 5995.019531
5.080000 0.960000 6.880000 113.179337 -27.624956 13572.701172
5.080000 0.960000 6.920000 142.329819 35.304050 21504.152344
5.080000 0.960000 6.960000 115.627472 109.844315 25435.484375
5.080000 0.960000 7.000000 41.317783 145.465637 22867.410156
5.080000 0.960000 7.040000 -32.967201 118.758827 15190.495117
5.080000 0.960000 7.080000 -60.776924 54.703018 6686.254883
5.080000 0.960000 7.120000 -36.116558 3.271425 1315.108032
5.080000 0.960000 7.160000 6.069901 -5.270846 64.625519
5.080000 0.960000 7.200000 26.437824 17.278532 997.506226
5.080000 1.000000 6.800000 46.184151 -2.710355 2140.321777
5.080000 1.000000 6.840000 83.763657 -1.482161 7018.546875
5.080000 1.000000 6.880000 120.575363 43.251335 16409.095703
5.080000 1.000000 6.920000 112.885612 117.986534 26663.984375
5.080000 1.000000 6.960000 46.530132 173.284943 32192.724609
5.080000 1.000000 7.000000 -43.233788 166.264618 29513.083984
5.080000 1.000000 7.040000 -99.099075 101.077431 20037.273438
5.080000 1.000000 7.080000 -91.551758 26.472103 9082.497070
5.080000 1.000000 7.120000 -42.668755 -7.966957 1884.094971
5.080000 1.000000 7.160000 -1.519997 6.092010 39.422981
5.080000 1.000000 7.200000 2.594311 35.509979 1267.689087
5.080000 1.040000 6.800000 37.066048 27.187424 2113.047852
5.080000 1.040000 6.840000 66.286690 46.167793 6525.390625
5.080000 1.040000 6.880000 73.482117 100.120789 15423.792969
5.080000 1.040000 6.920000 30.083311 156.590179 25425.490234
5.080000 1.040000 6.960000 -51.189552 168.991760 31178.585938
5.080000 1.040000 7.000000 -121.458298 120.060829 29166.720703
5.080000 1.040000 7.040000 -137.132172 40.491852 20444.822266
5.080000 1.040000 7.080000 -97.974457 -17.206390 9895.053711
5.080000 1.040000 7.120000 -44.570023 -24.553659 2589.369141
5.080000 1.040000 7.160000 -18.855198 1.999311 359.515747
5.080000 1.040000 7.200000 -27.767826 23.427885 1319.917969
5.080000 1.080000 6.800000 10.221535 40.206795 1721.066040
5.080000 1.080000 6.840000 21.737543 65.823486 4805.252441
5.080000 1.080000 6.880000 2.598114 105.847748 11210.496094
5.080000 1.080000 6.920000 -52.331455 125.789169 18561.496094
5.080000 1.080000 6.960000 -114.665909 99.670349 23082.449219
5.080000 1.080000 7.000000 -144.524124 36.130943 22192.667969
5.080000 1.080000 7.040000 -125.242462 -26.926285 16410.699219
5.080000 1.080000 7.080000 -77.054550 -54.842678 8945.123047
5.080000 1.080000 7.120000 -36.976158 -44.357483 3334.822754
5.080000 1.080000 7.160000 -25.706387 -21.070625 1104.789551
5.080000 1.080000 7.200000 -33.882320 -11.489724 1280.025391
5.080000 1.120000 6.800000 -14.528006 30.728542 1155.306274
5.080000 1.120000 6.840000 -18.556129 49.197487 2764.722656
5.080000 1.120000 6.880000 -44.999649 63.608044 6070.951660
5.080000 1.120000 6.920000 -83.557304 53.965755 9894.125977
5.080000 1.120000 6.960000 -110.370163 16.761070 12462.506836
5.080000 1.120000 7.000000 -107.772415 -30.602844 12551.427734
5.080000 1.120000 7.040000 -78.588104 -63.969185 10268.146484
5.080000 1.120000 7.080000 -42.085922 -71.521286 6886.519531
5.080000 1.120000 7.120000 -16.818834 -60.206871 3907.740723
5.080000 1.120000 7.160000 -7.380116 -45.650078 2138.395752
5.080000 1.120000 7.200000 -5.953476 -37.529938 1443.940063
5.080000 1.160000 6.800000 -22.719986 11.039715 638.073059
5.080000 1.160000 6.840000 -31.576738 15.604184 1240.580933
5.080000 1.160000 6.880000 -46.316765 11.044731 2267.228760
5.080000 1.160000 6.920000 -57.932762 -4.689644 3378.197510
5.080000 1.160000 6.960000 -59.579082 -26.550858 4254.615234
5.080000 1.160000 7.000000 -50.144531 -47.317337 4753.404297
5.080000 1.160000 7.040000 -32.439560 -61.895538 4883.382812
5.080000 1.160000 7.080000 -10.221394 -67.575470 4670.921387
5.080000 1.160000 7.120000 12.083712 -62.777168 4086.989014
5.080000 1.160000 7.160000 28.481987 -48.142765 3128.949463
5.080000 1.160000 7.200000 33.446743 -29.070276 1963.765503
5.080000 1.200000 6.800000 -16.866257 -2.323204 289.867889
5.080000 1.200000 6.840000 -20.152966 -8.639809 480.788330
5.080000 1.200000 6.880000 -17.545553 -15.993221 563.629578
5.080000 1.200000 6.920000 -12.741467 -18.729507 513.139404
5.080000 1.200000 6.960000 -12.262283 -19.405167 526.924072
5.080000 1.200000 7.000000 -14.895824 -26.246502 910.764404
5.080000 1.200000 7.040000 -10.169212 -41.274235 1806.975342
5.080000 1.200000 7.080000 9.978552 -53.505669 2962.428223
5.080000 1.200000 7.120000 38.672295 -47.769722 3777.492676
5.080000 1.200000 7.160000 56.694679 -21.664873 3683.653320
5.080000 1.200000 7.200000 50.411701 8.224377 2608.979980
5.120000 0.800000 6.800000 -29.882610 -0.472916 893.194031
5.120000 0.800000 6.840000 -21.691628 -15.042421 696.801147
5.120000 0.800000 6.880000 -5.225708 -18.044621 352.916351
5.120000 0.800000 6.920000 6.080000 -7.589059 94.560226
5.120000 0.800000 6.960000 3.790180 5.514950 44.780136
5.120000 0.800000 7.000000 -6.875809 8.934519 127.102371
5.120000 0.800000 7.040000 -13.179878 1.626608 176.355042
5.120000 0.800000 7.080000 -8.984397 -6.011676 116.859634
5.120000 0.800000 7.120000 -0.946281 -4.607851 22.127739
5.120000 0.800000 7.160000 0.013452 3.430096 11.765739
5.120000 0.800000 7.200000 -8.122735 7.082297 116.137749
5.120000 0.840000 6.800000 -21.606527 -23.107725 1000.808960
5.120000 0.840000 6.840000 -7.635614 -31.870640 1074.040283
5.120000 0.840000 6.880000 9.749611 -28.886497 929.484680
5.120000 0.840000 6.920000 20.030666 -15.175873 631.534729
5.120000 0.840000 6.960000 17.952885 -0.084225 322.313141
5.120000 0.840000 7.000000 7.963972 7.247849 115.956146
5.120000 0.840000 7.040000 -1.017147 5.628284 32.712173
5.120000 0.840000 7.080000 -4.346138 0.818497 19.558853
5.120000 0.840000 7.120000 -4.394201 -2.044768 23.490084
5.120000 0.840000 7.160000 -5.280388 -3.563271 40.579399
5.120000 0.840000 7.200000 -6.771347 -7.294355 99.058762
5.120000 0.880000 6.800000 4.745370 -34.174755 1190.432495
5.120000 0.880000 6.840000 19.943829 -35.583435 1663.937256
5.120000 0.880000 6.880000 36.700569 -26.692715 2059.432861
5.120000 0.880000 6.920000 45.794037 -7.330803 2150.834473
5.120000 0.880000 6.960000 40.484436 14.234810 1841.619263
5.120000 0.880000 7.000000 23.039013 26.780701 1248.002075
5.120000 0.880000 7.040000 3.588326 24.769121 626.385437
5.120000 0.880000 7.080000 -7.611095 12.153399 205.633865
5.120000 0.880000 7.120000 -7.310736 -1.721959 56.411999
5.120000 0.880000 7.160000 0.161663 -9.649065 93.130592
5.120000 0.880000 7.200000 8.181136 -10.702166 181.467346
5.120000 0.920000 6.800000 33.957039 -20.786776 1585.170410
5.120000 0.920000 6.840000 46.602341 -16.201523 2434.267334
5.120000 0.920000 6.880000 60.504333 -0.789089 3661.396973
5.120000 0.920000 6.920000 63.403633 26.131870 4702.895508
5.120000 0.920000 6.960000 46.359581 52.307644 4885.300293
5.120000 0.920000 7.000000 14.839897 61.141060 3958.451904
5.120000 0.920000 7.040000 -13.235334 46.592087 2345.996582
5.120000 0.920000 7.080000 -21.859152 19.543219 859.759888
5.120000 0.920000 7.120000 -10.183933 -1.184216 105.114861
5.120000 0.920000 7.160000 8.072750 -4.733486 87.575180
5.120000 0.920000 7.200000 18.075893 4.200765 344.384338
5.120000 0.960000 6.800000 44.475220 11.992918 2121.875244
5.120000 0.960000 6.840000 52.732239 19.961393 3179.146240
5.120000 0.960000 6.880000 59.758568 41.030209 5254.564453
5.120000 0.960000 6.920000 49.481094 71.180450 7515.035156
5.120000 0.960000 6.960000 16.331295 91.063446 8559.261719
5.120000 0.960000 7.000000 -24.584137 83.098610 7509.758789
5.120000 0.960000 7.040000 -48.177929 49.847042 4805.840332
5.120000 0.960000 7.080000 -41.644054 13.965277 1929.256226
5.120000 0.960000 7.120000 -16.031170 -1.490742 259.220734
5.120000 0.960000 7.160000 4.875726 6.932544 71.832870
5.120000 0.960000 7.200000 6.984837 22.580265 558.656311
5.120000 1.000000 6.800000 26.930117 42.474884 2529.346924
5.120000 1.000000 6.840000 30.580627 51.419323 3579.121582
5.120000 1.000000 6.880000 27.163822 73.599670 6154.784668
5.120000 1.000000 6.920000 2.164845 96.504242 9317.754883
5.120000 1.000000 6.960000 -39.904984 97.817688 11160.707031
5.120000 1.000000 7.000000 -74.881409 68.283546 10269.868164
5.120000 1.000000 7.040000 -79.918312 23.943047 6960.206055
5.120000 1.000000 7.080000 -55.319397 -6.590911 3103.675781
5.120000 1.000000 7.120000 -24.431396 -7.932789 659.822266
5.120000 1.000000 7.160000 -11.201998 9.313914 212.233765
5.120000 1.000000 7.200000 -18.420036 21.559088 804.091980
5.120000 1.040000 6.800000 -6.420843 49.687141 2510.039307
5.120000 1.040000 6.840000 -6.891640 57.897789 3399.648682
5.120000 1.040000 6.880000 -20.177176 74.186310 5910.726562
5.120000 1.040000 6.920000 -51.979446 80.525688 9186.249023
5.120000 1.040000 6.960000 -87.350739 60.781147 11324.499023
5.120000 1.040000 7.000000 -102.135086 19.388556 10807.492188
5.120000 1.040000 7.040000 -85.943390 -19.720890 7775.179688
5.120000 1.040000 7.080000 -52.841625 -34.307190 3969.220703
5.120000 1.040000 7.120000 -28.099396 -23.790800 1355.578247
5.120000 1.040000 7.160000 -24.507500 -7.597063 658.332947
5.120000 1.040000 7.200000 -32.589783 -4.222153 1079.920532
5.120000 1.080000 6.800000 -31.603170 31.383892 1983.708984
5.120000 1.080000 6.840000 -35.617508 37.473198 2672.847412
5.120000 1.080000 6.880000 -52.985329 42.727730 4633.104004
5.120000 1.080000 6.920000 -78.576965 32.197067 7210.990234
5.120000 1.080000 6.960000 -94.888229 2.129707 9008.312500
5.120000 1.080000 7.000000 -88.057533 -33.847607 8899.790039
5.120000 1.080000 7.040000 -61.516441 -55.996292 6919.857422
5.120000 1.080000 7.080000 -32.975494 -56.067505 4230.948242
5.120000 1.080000 7.120000 -17.866570 -43.366173 2199.839355
5.120000 1.080000 7.160000 -16.393097 -33.683693 1403.324829
5.120000 1.080000 7.200000 -16.833923 -33.482384 1404.451050
5.120000 1.120000 6.800000 -33.851486 5.253258 1173.519775
5.120000 1.120000 6.840000 -40.501392 7.598275 1698.096558
5.120000 1.120000 6.880000 -54.027229 2.104612 2923.370850
5.120000 1.120000 6.920000 -64.537712 -15.851488 4416.385742
5.120000 1.120000 6.960000 -62.068676 -40.332710 5479.248047
5.120000 1.120000 7.000000 -45.525681 -59.670395 5633.143555
5.120000 1.120000 7.040000 -23.062544 -66.335800 4932.319336
5.120000 1.120000 7.080000 -4.269237 -61.947865 3855.764160
5.120000 1.120000 7.120000 7.294209 -53.355759 2900.042480
5.120000 1.120000 7.160000 14.188028 -45.281811 2251.742432
5.120000 1.120000 7.200000 19.459515 -37.507637 1785.495605
5.120000 1.160000 6.800000 -19.548840 -8.302984 451.096680
5.120000 1.160000 6.840000 -26.713921 -11.400272 843.599731
5.120000 1.160000 6.880000 -30.986219 -22.201332 1453.044922
5.120000 1.160000 6.920000 -27.474531 -35.469406 2012.928589
5.120000 1.160000 6.960000 -17.666584 -45.291885 2363.463135
5.120000 1.160000 7.000000 -5.798794 -50.313435 2565.067627
5.120000 1.160000 7.040000 6.585085 -52.342281 2783.077637
5.120000 1.160000 7.080000 20.783562 -51.210938 3054.516602
5.120000 1.160000 7.120000 35.937267 -43.521023 3185.566650
5.120000 1.160000 7.160000 46.265236 -27.703136 2907.936035
5.120000 1.160000 7.200000 45.640228 -9.035478 2164.670410
5.120000 1.200000 6.800000 -7.629573 -4.961781 82.829651
5.120000 1.200000 6.840000 -11.502773 -13.848887 324.105469
5.120000 1.200000 6.880000 -6.151976 -22.866583 560.727417
5.120000 1.200000 6.920000 2.719664 -24.977154 631.254761
5.120000 1.200000 6.960000 7.488762 -23.031532 586.533020
5.120000 1.200000 7.000000 9.193146 -24.816410 700.368103
5.120000 1.200000 7.040000 16.590193 -31.019331 1237.433350
5.120000 1.200000 7.080000 33.826984 -31.626316 2144.488770
5.120000 1.200000 7.120000 51.748402 -16.864170 2962.297119
5.120000 1.200000 7.160000 55.028191 9.211770 3112.958496
5.120000 1.200000 7.200000 38.978813 29.390022 2383.121338
5.160000 0.800000 6.800000 -31.873829 -24.282772 1605.593994
5.160000 0.800000 6.840000 -14.204874 -33.065674 1295.117188
5.160000 0.800000 6.880000 3.418882 -26.826576 731.354004
5.160000 0.800000 6.920000 9.218901 -12.264255 235.400070
5.160000 0.800000 6.960000 2.892267 -2.704514 15.679604
5.160000 0.800000 7.000000 -4.584769 -4.596456 42.147514
5.160000 0.800000 7.040000 -3.062340 -11.497849 141.578445
5.160000 0.800000 7.080000 6.043716 -12.025134 181.130356
5.160000 0.800000 7.120000 12.069312 -2.835575 153.708771
5.160000 0.800000 7.160000 7.557898 7.822071 118.306602
5.160000 0.800000 7.200000 -3.257279 9.656699 103.861710
5.160000 0.840000 6.800000 -3.886569 -38.815426 1521.742798
5.160000 0.840000 6.840000 13.619639 -32.517368 1242.873901
5.160000 0.840000 6.880000 21.613041 -16.917444 753.323486
5.160000 0.840000 6.920000 16.872133 -2.860918 292.853729
5.160000 0.840000 6.960000 6.428649 1.106668 42.552238
5.160000 0.840000 7.000000 0.592605 -3.711212 14.124276
5.160000 0.840000 7.040000 3.016110 -8.590759 82.898071
5.160000 0.840000 7.080000 8.213378 -7.031116 116.896179
5.160000 0.840000 7.120000 8.743351 -1.118156 77.696465
5.160000 0.840000 7.160000 3.713188 1.967698 17.659601
5.160000 0.840000 7.200000 -0.773740 -1.232078 2.116688
5.160000 0.880000 6.800000 29.329905 -25.425156 1506.681885
5.160000 0.880000 6.840000 34.624065 -8.569879 1272.268799
5.160000 0.880000 6.880000 28.647680 6.423001 861.944519
5.160000 0.880000 6.920000 16.638676 12.662189 437.176544
5.160000 0.880000 6.960000 6.720084 9.876695 142.708618
5.160000 0.880000 7.000000 3.482495 3.638877 25.369202
5.160000 0.880000 7.040000 5.331190 -0.180475 28.454161
5.160000 0.880000 7.080000 7.613600 -0.190672 58.003254
5.160000 0.880000 7.120000 7.774882 0.884750 61.231579
5.160000 0.880000 7.160000 7.172390 0.470403 51.664455
5.160000 0.880000 7.200000 8.287613 -0.810628 69.341644
5.160000 0.920000 6.800000 41.982979 11.660444 1898.536499
5.160000 0.920000 6.840000 30.805698 26.374258 1644.592529
5.160000 0.920000 6.880000 15.607969 30.839897 1194.708008
5.160000 0.920000 6.920000 3.726908 26.722469 727.980225
5.160000 0.920000 6.960000 -1.840591 19.318651 376.598083
5.160000 0.920000 7.000000 -2.483300 12.908776 172.803284
5.160000 0.920000 7.040000 -0.826734 8.749107 77.230370
5.160000 0.920000 7.080000 1.721410 6.417423 44.146576
5.160000 0.920000 7.120000 4.756404 5.773798 55.960133
5.160000 0.920000 7.160000 7.492777 7.074636 106.192184
5.160000 0.920000 7.200000 8.665614 9.724915 169.666824
5.160000 0.960000 6.800000 21.256992 47.311165 2690.206055
5.160000 0.960000 6.840000 0.848692 48.570423 2359.806152
5.160000 0.960000 6.880000 -13.214685 39.753059 1754.933716
5.160000 0.960000 6.920000 -18.524891 28.727787 1168.457275
5.160000 0.960000 6.960000 -18.526953 20.349615 757.354858
5.160000 0.960000 7.000000 -16.835253 14.598314 496.536530
5.160000 0.960000 7.040000 -14.000645 10.142134 298.880920
5.160000 0.960000 7.080000 -9.492199 7.640770 148.483200
5.160000 0.960000 7.120000 -4.819750 8.658879 98.206177
5.160000 0.960000 7.160000 -3.026635 12.321345 160.976074
5.160000 0.960000 7.200000 -4.921184 14.954673 247.860291
5.160000 1.000000 6.800000 -19.570225 55.162762 3425.923828
5.160000 1.000000 6.840000 -36.322041 41.741501 3061.643555
5.160000 1.000000 6.880000 -41.131264 25.397373 2336.807373
5.160000 1.000000 6.920000 -38.271420 13.726639 1653.122192
5.160000 1.000000 6.960000 -33.940506 7.283697 1205.010132
5.160000 1.000000 7.000000 -30.226879 2.962694 922.441772
5.160000 1.000000 7.040000 -25.792898 -0.372175 665.412109
5.160000 1.000000 7.080000 -20.523935 -1.081079 422.400665
5.160000 1.000000 7.120000 -17.133926 1.324857 295.326691
5.160000 1.000000 7.160000 -17.583059 3.742488 323.170197
5.160000 1.000000 7.200000 -19.438469 2.577479 384.497467
5.160000 1.040000 6.800000 -50.896618 30.467056 3518.707275
5.160000 1.040000 6.840000 -55.992859 11.199293 3260.624268
5.160000 1.040000 6.880000 -51.089703 -3.942029 2625.697266
5.160000 1.040000 6.920000 -43.032593 -11.875175 1992.823853
5.160000 1.040000 6.960000 -36.428581 -15.284910 1560.669922
5.160000 1.040000 7.000000 -31.359913 -17.344164 1284.264160
5.160000 1.040000 7.040000 -26.539320 -18.460991 1045.143677
5.160000 1.040000 7.080000 -22.478264 -17.963228 827.949951
5.160000 1.040000 7.120000 -20.457140 -17.014748 707.996216
5.160000 1.040000 7.160000 -19.450653 -17.922127 699.530518
5.160000 1.040000 7.200000 -16.136938 -20.495512 680.466797
5.160000 1.080000 6.800000 -52.080296 -5.602158 2743.741455
5.160000 1.080000 6.840000 -47.993576 -20.539192 2725.241699
5.160000 1.080000 6.880000 -38.971970 -30.009941 2419.411133
5.160000 1.080000 6.920000 -29.538883 -33.856018 2018.775635
5.160000 1.080000 6.960000 -22.117733 -34.315872 1666.773193
5.160000 1.080000 7.000000 -16.954002 -33.595119 1416.070312
5.160000 1.080000 7.040000 -13.400906 -33.036098 1270.968018
5.160000 1.080000 7.080000 -10.409209 -33.443443 1226.815552
5.160000 1.080000 7.120000 -6.377792 -34.785141 1250.682251
5.160000 1.080000 7.160000 0.052516 -35.372726 1251.232544
5.160000 1.080000 7.200000 8.155139 -32.354473 1113.318237
5.160000 1.120000 6.800000 -28.850334 -25.212650 1468.019531
5.160000 1.120000 6.840000 -24.117092 -33.350800 1693.910034
5.160000 1.120000 6.880000 -16.002485 -39.181862 1791.297852
5.160000 1.120000 6.920000 -6.559046 -40.680794 1697.948120
5.160000 1.120000 6.960000 0.850722 -38.234787 1462.622681
5.160000 1.120000 7.000000 4.485616 -35.095940 1251.845703
5.160000 1.120000 7.040000 6.365594 -34.616203 1238.802246
5.160000 1.120000 7.080000 10.708598 -36.549477 1450.538330
5.160000 1.120000 7.120000 19.461338 -36.569427 1716.066650
5.160000 1.120000 7.160000 29.438608 -30.292482 1784.266113
5.160000 1.120000 7.200000 34.582184 -18.079519 1522.796509
5.160000 1.160000 6.800000 -6.180843 -18.800659 391.667603
5.160000 1.160000 6.840000 -5.628090 -26.045986 710.068787
5.160000 1.160000 6.880000 1.929989 -32.264500 1044.722778
5.160000 1.160000 6.920000 12.179824 -31.837330 1161.963745
5.160000 1.160000 6.960000 18.332973 -26.282387 1026.861816
5.160000 1.160000 7.000000 19.218079 -22.277521 865.622437
5.160000 1.160000 7.040000 20.736694 -23.227589 969.531372
5.160000 1.160000 7.080000 28.455982 -24.384357 1404.339844
5.160000 1.160000 7.120000 39.793644 -17.901358 1903.992676
5.160000 1.160000 7.160000 45.460735 -2.523597 2073.047119
5.160000 1.160000 7.200000 39.344582 13.430483 1728.374023
5.160000 1.200000 6.800000 -3.592428 -1.795548 16.129536
5.160000 1.200000 6.840000 -3.252426 -14.295675 214.944611
5.160000 1.200000 6.880000 7.664978 -20.901634 495.630219
5.160000 1.200000 6.920000 18.549240 -16.752213 624.710938
5.160000 1.200000 6.960000 21.406845 -8.858130 536.719482
5.160000 1.200000 7.000000 19.727039 -6.299297 428.837219
5.160000 1.200000 7.040000 22.910543 -8.364316 594.854797
5.160000 1.200000 7.080000 33.100388 -5.236239 1123.053833
5.160000 1.200000 7.120000 40.709908 9.201841 1741.970459
5.160000 1.200000 7.160000 34.942200 27.871782 1997.793457
5.160000 1.200000 7.200000 17.422478 36.637985 1645.884644
5.200000 0.800000 6.800000 -15.638939 -41.015366 1926.836670
5.200000 0.800000 6.840000 3.636950 -39.544724 1577.012573
5.200000 0.800000 6.880000 15.624144 -27.121317 979.679688
5.200000 0.800000 6.920000 15.810429 -13.998582 445.929932
5.200000 0.800000 6.960000 10.216887 -8.879924 183.237823
5.200000 0.800000 7.000000 8.615012 -10.757085 189.933319
5.200000 0.800000 7.040000 14.160949 -10.968498 320.840424
5.200000 0.800000 7.080000 20.465422 -3.210496 429.140778
5.200000 0.800000 7.120000 18.999447 9.409466 449.517029
5.200000 0.800000 7.160000 8.600931 17.713688 387.750763
5.200000 0.800000 7.200000 -3.272844 16.237360 274.363373
5.200000 0.840000 6.800000 18.124735 -36.308437 1646.808594
5.200000 0.840000 6.840000 26.820732 -19.780792 1110.631470
5.200000 0.840000 6.880000 21.672611 -4.691495 491.712219
5.200000 0.840000 6.920000 10.279790 -0.820299 106.346970
5.200000 0.840000 6.960000 4.531993 -7.006045 69.623634
5.200000 0.840000 7.000000 9.267455 -12.978763 254.334000
5.200000 0.840000 7.040000 18.269398 -9.927486 432.325897
5.200000 0.840000 7.080000 21.334112 1.002725 456.149811
5.200000 0.840000 7.120000 14.749028 10.774015 333.613220
5.200000 0.840000 7.160000 4.299994 12.220339 167.826630
5.200000 0.840000 7.200000 -1.651701 6.882228 50.093178
5.200000 0.880000 6.800000 37.505016 -3.544840 1419.192139
5.200000 0.880000 6.840000 25.004269 14.281620 829.178101
5.200000 0.880000 6.880000 5.186835 15.613629 270.688690
5.200000 0.880000 6.920000 -5.793981 1.920170 37.257263
5.200000 0.880000 6.960000 -0.357328 -12.934054 167.417450
5.200000 0.880000 7.000000 14.437078 -15.661259 453.704254
5.200000 0.880000 7.040000 24.584671 -5.104883 630.465881
5.200000 0.880000 7.080000 22.399660 8.437792 572.941101
5.200000 0.880000 7.120000 12.214935 14.303859 353.805023
5.200000 0.880000 7.160000 4.011451 11.119444 139.733765
5.200000 0.880000 7.200000 2.859434 5.859982 42.515755
5.200000 0.920000 6.800000 23.180717 35.365162 1788.040283
5.200000 0.920000 6.840000 -5.653543 36.127396 1337.151245
5.200000 0.920000 6.880000 -24.224209 14.923733 809.530151
5.200000 0.920000 6.920000 -19.467417 -11.324718 507.229553
5.200000 0.920000 6.960000 2.491822 -22.747856 523.674133
5.200000 0.920000 7.000000 22.974285 -13.312963 705.052734
5.200000 0.920000 7.040000 27.716015 6.032574 804.569458
5.200000 0.920000 7.080000 17.721987 19.359705 688.867004
5.200000 0.920000 7.120000 4.968407 19.956184 422.934357
5.200000 0.920000 7.160000 -0.584703 13.436243 180.874496
5.200000 0.920000 7.200000 1.020378 9.022289 82.442871
5.200000 0.960000 6.800000 -18.007406 50.055988 2829.868652
5.200000 0.960000 6.840000 -44.741943 25.925640 2673.980469
5.200000 0.960000 6.880000 -44.440979 -10.248503 2080.032471
5.200000 0.960000 6.920000 -18.135992 -32.905518 1411.687256
5.200000 0.960000 6.960000 13.529079 -28.218559 979.323120
5.200000 0.960000 7.000000 28.647396 -4.194350 838.265869
5.200000 0.960000 7.040000 21.474056 18.797672 814.487549
5.200000 0.960000 7.080000 3.674678 26.353230 707.995911
5.200000 0.960000 7.120000 -9.130669 19.723003 472.365967
5.200000 0.960000 7.160000 -10.836068 10.115309 219.739838
5.200000 0.960000 7.200000 -6.402027 6.179356 79.170387
5.200000 1.000000 6.800000 -56.325668 27.867119 3949.157227
5.200000 1.000000 6.840000 -63.278595 -11.311237 4132.125000
5.200000 1.000000 6.880000 -39.112160 -43.708633 3440.205566
5.200000 1.000000 6.920000 -0.484364 -47.927994 2297.327148
5.200000 1.000000 6.960000 26.216936 -24.443649 1284.819824
5.200000 1.000000 7.000000 26.434364 6.645553 742.939026
5.200000 1.000000 7.040000 6.885479 23.828259 615.195740
5.200000 1.000000 7.080000 -13.729465 20.655680 615.155334
5.200000 1.000000 7.120000 -21.708857 6.795055 517.447205
5.200000 1.000000 7.160000 -17.064718 -4.030270 307.447693
5.200000 1.000000 7.200000 -8.713238 -5.712697 108.555420
5.200000 1.040000 6.800000 -63.889900 -14.143439 4281.956543
5.200000 1.040000 6.840000 -48.247375 -49.016293 4730.406250
5.200000 1.040000 6.880000 -11.534941 -62.742653 4069.695312
5.200000 1.040000 6.920000 22.612566 -46.619225 2684.680176
5.200000 1.040000 6.960000 33.271523 -13.879445 1299.633301
5.200000 1.040000 7.000000 18.287601 12.041349 479.430481
5.200000 1.040000 7.040000 -6.423596 16.457214 312.102509
5.200000 1.040000 7.080000 -21.815296 2.785782 483.667725
5.200000 1.040000 7.120000 -20.385057 -13.943318 609.966675
5.200000 1.040000 7.160000 -8.588652 -21.108702 519.342224
5.200000 1.040000 7.200000 2.075239 -16.841549 287.944366
5.200000 1.080000 6.800000 -38.772301 -43.777466 3419.757812
5.200000 1.080000 6.840000 -13.400725 -61.759872 3993.861084
5.200000 1.080000 6.880000 18.749695 -56.902454 3589.440430
5.200000 1.080000 6.920000 37.655518 -31.520908 2411.505615
5.200000 1.080000 6.960000 32.811699 -2.981935 1085.499512
5.200000 1.080000 7.000000 11.336805 10.213705 232.842926
5.200000 1.080000 7.040000 -8.710427 2.736987 83.362640
5.200000 1.080000 7.080000 -13.300572 -15.045261 403.265137
5.200000 1.080000 7.120000 -2.407992 -27.304491 751.333618
5.200000 1.080000 7.160000 12.612902 -25.720205 820.614197
5.200000 1.080000 7.200000 20.063192 -14.067196 600.417664
5.200000 1.120000 6.800000 -5.687864 -42.125053 1806.871948
5.200000 1.120000 6.840000 13.941968 -46.489529 2355.654785
5.200000 1.120000 6.880000 33.140335 -35.246780 2340.617432
5.200000 1.120000 6.920000 39.073948 -13.637592 1712.757324
5.200000 1.120000 6.960000 28.180485 4.095508 810.912903
5.200000 1.120000 7.000000 10.129459 6.377934 143.283997
5.200000 1.120000 7.040000 -0.031315 -5.659272 32.028343
5.200000 1.120000 7.080000 5.227693 -19.311800 400.274384
5.200000 1.120000 7.120000 19.890007 -21.719170 867.334717
5.200000 1.120000 7.160000 30.695349 -10.865625 1060.266235
5.200000 1.120000 7.200000 29.317657 3.982575 875.385925
5.200000 1.160000 6.800000 7.622431 -19.172880 425.700775
5.200000 1.160000 6.840000 17.397598 -22.747250 820.113770
5.200000 1.160000 6.880000 28.696568 -16.207823 1086.186523
5.200000 1.160000 6.920000 31.418098 -2.442874 993.064575
5.200000 1.160000 6.960000 22.984859 7.674859 587.207214
5.200000 1.160000 7.000000 11.961100 6.227743 181.852692
5.200000 1.160000 7.040000 9.762248 -3.077390 104.771812
5.200000 1.160000 7.080000 18.727671 -8.254034 418.854736
5.200000 1.160000 7.120000 29.418156 -1.388596 867.356079
5.200000 1.160000 7.160000 30.371288 13.114840 1094.414185
5.200000 1.160000 7.200000 19.927567 23.326332 941.225708
5.200000 1.200000 6.800000 -4.393416 -2.017166 23.371067
5.200000 1.200000 6.840000 4.154561 -12.621870 176.571976
5.200000 1.200000 6.880000 17.438393 -10.841108 421.627167
5.200000 1.200000 6.920000 22.965025 0.375500 527.533386
5.200000 1.200000 6.960000 17.907162 9.319000 407.510193
5.200000 1.200000 7.000000 11.068828 9.049896 204.419556
5.200000 1.200000 7.040000 11.679670 4.746572 158.944641
5.200000 1.200000 7.080000 18.261791 6.645597 377.656982
5.200000 1.200000 7.120000 20.597244 17.136648 717.911133
5.200000 1.200000 7.160000 12.313235 27.418507 903.390259
5.200000 1.200000 7.200000 -0.963490 27.790943 773.264832
