#kx 	ky 	kz 	real 	imag 	intensity
0.800000 -7.200000 -7.200000 -55.482075 5.890162 3112.954590
0.800000 -7.200000 -7.160000 -44.033722 -24.537355 2541.050293
0.800000 -7.200000 -7.120000 -14.742303 -30.079231 1122.095581
0.800000 -7.200000 -7.080000 2.135041 -9.190874 89.030571
0.800000 -7.200000 -7.040000 -8.607725 13.328441 251.740265
0.800000 -7.200000 -7.000000 -33.013329 13.509327 1272.381836
0.800000 -7.200000 -6.960000 -44.802757 -7.626079 2065.444092
0.800000 -7.200000 -6.920000 -33.323090 -27.699020 1877.664062
0.800000 -7.200000 -6.880000 -12.594437 -28.212936 954.589600
0.800000 -7.200000 -6.840000 -3.845536 -12.974595 183.128265
0.800000 -7.200000 -6.800000 -12.666203 -1.075888 161.590225
0.800000 -7.160000 -7.200000 -44.247360 -32.362396 3005.153564
0.800000 -7.160000 -7.160000 -16.359657 -47.719090 2544.750000
0.800000 -7.160000 -7.120000 9.270718 -34.345795 1265.579834
0.800000 -7.160000 -7.080000 10.327958 -9.115759 189.763779
0.800000 -7.160000 -7.040000 -9.488220 1.480655 92.218658
0.800000 -7.160000 -7.000000 -26.496965 -11.530238 835.035583
0.800000 -7.160000 -6.960000 -22.731857 -32.538414 1575.485840
0.800000 -7.160000 -6.920000 -3.202641 -39.892651 1601.680542
0.800000 -7.160000 -6.880000 12.166359 -28.394020 954.240723
0.800000 -7.160000 -6.840000 10.783801 -12.040011 261.252228
0.800000 -7.160000 -6.800000 -1.214521 -6.624567 45.359951
0.800000 -7.120000 -7.200000 -6.928503 -48.259773 2377.009766
0.800000 -7.120000 -7.160000 20.037546 -41.115208 2091.963623
0.800000 -7.120000 -7.120000 28.924812 -17.996399 1160.515137
0.800000 -7.120000 -7.080000 16.441101 -1.605256 272.886658
0.800000 -7.120000 -7.040000 -0.198372 -5.143412 26.494034
0.800000 -7.120000 -7.000000 -2.494307 -20.317162 419.008606
0.800000 -7.120000 -6.960000 10.668476 -28.316236 915.625671
0.800000 -7.120000 -6.920000 24.195717 -20.313879 998.086426
0.800000 -7.120000 -6.880000 24.519360 -5.126175 627.476624
0.800000 -7.120000 -6.840000 13.341057 2.520310 184.335754
0.800000 -7.120000 -6.800000 3.234706 -1.771762 13.602467
0.800000 -7.080000 -7.200000 27.652285 -30.632805 1703.017578
0.800000 -7.080000 -7.160000 37.985039 -10.202314 1546.950439
0.800000 -7.080000 -7.120000 29.630322 7.363726 932.180420
0.800000 -7.080000 -7.080000 14.865946 9.230697 306.202087
0.800000 -7.080000 -7.040000 9.689085 -0.183784 93.912140
0.800000 -7.080000 -7.000000 17.097595 -5.764894 325.561768
0.800000 -7.080000 -6.960000 25.458126 1.078409 649.279175
0.800000 -7.080000 -6.920000 22.677526 13.683321 701.503479
0.800000 -7.080000 -6.880000 9.636918 18.735235 443.879211
0.800000 -7.080000 -6.840000 -1.759570 11.435837 133.874451
0.800000 -7.080000 -6.800000 -2.545106 -0.074214 6.483072
0.800000 -7.040000 -7.200000 35.536324 3.290791 1273.659668
0.800000 -7.040000 -7.160000 27.481863 20.585817 1179.028687
0.800000 -7.040000 -7.120000 12.554182 24.062614 736.616882
0.800000 -7.040000 -7.080000 5.277149 16.489408 299.748901
0.800000 -7.040000 -7.040000 9.431741 11.276367 216.114197
0.800000 -7.040000 -7.000000 14.828396 17.065857 511.124786
0.800000 -7.040000 -6.960000 9.521639 28.061588 878.114380
0.800000 -7.040000 -6.920000 -6.246207 30.670898 979.719116
0.800000 -7.040000 -6.880000 -19.850018 18.815811 748.057983
0.800000 -7.040000 -6.840000 -19.822472 0.843996 393.642731
0.800000 -7.040000 -6.800000 -7.917131 -9.473827 152.434372
0.800000 -7.000000 -7.200000 18.196547 26.488680 1032.764404
0.800000 -7.000000 -7.160000 2.085639 31.414633 991.229065
0.800000 -7.000000 -7.120000 -8.706182 23.819363 643.159668
0.800000 -7.000000 -7.080000 -7.680731 15.446277 297.581085
0.800000 -7.000000 -7.040000 -2.339085 16.854834 289.556732
0.800000 -7.000000 -7.000000 -5.382722 25.533579 680.937317
0.800000 -7.000000 -6.960000 -19.958885 28.350979 1202.135132
0.800000 -7.000000 -6.920000 -35.090973 15.993782 1487.177368
0.800000 -7.000000 -6.880000 -36.489609 -6.196377 1369.886719
0.800000 -7.000000 -6.840000 -21.335197 -22.785786 974.382690
0.800000 -7.000000 -6.800000 -1.147111 -23.412071 549.440918
0.800000 -6.960000 -7.200000 -3.392383 27.748301 781.476440
0.800000 -6.960000 -7.160000 -17.486240 23.030184 836.157959
0.800000 -6.960000 -7.120000 -21.961378 11.961760 625.385803
0.800000 -6.960000 -7.080000 -17.815752 5.792883 350.958527
0.800000 -6.960000 -7.040000 -15.324215 8.294279 303.626617
0.800000 -6.960000 -7.000000 -22.165499 11.459424 622.627747
0.800000 -6.960000 -6.960000 -33.962685 4.266433 1171.666382
0.800000 -6.960000 -6.920000 -37.786575 -14.558334 1639.770386
0.800000 -6.960000 -6.880000 -25.366554 -33.578636 1770.986816
0.800000 -6.960000 -6.840000 -2.190005 -39.022949 1527.586670
0.800000 -6.960000 -6.800000 17.171072 -27.843756 1070.120361
0.800000 -6.920000 -7.200000 -12.423890 18.078606 481.189026
0.800000 -6.920000 -7.160000 -23.391008 10.359623 654.461060
0.800000 -6.920000 -7.120000 -25.403877 -1.639637 648.045410
0.800000 -6.920000 -7.080000 -20.311892 -9.138590 496.086761
0.800000 -6.920000 -7.040000 -16.162630 -10.132360 363.895325
0.800000 -6.920000 -7.000000 -17.610224 -11.028265 431.742615
0.800000 -6.920000 -6.960000 -20.133791 -18.683947 754.459412
0.800000 -6.920000 -6.920000 -14.682810 -31.497240 1207.661011
0.800000 -6.920000 -6.880000 1.950180 -39.506317 1564.552368
0.800000 -6.920000 -6.840000 22.243017 -33.891472 1643.383667
0.800000 -6.920000 -6.800000 34.027206 -16.017578 1414.413574
0.800000 -6.880000 -7.200000 -11.518576 13.914527 326.291626
0.800000 -6.880000 -7.160000 -23.573927 3.665076 569.162842
0.800000 -6.880000 -7.120000 -23.880611 -12.863252 735.746887
0.800000 -6.880000 -7.080000 -12.995699 -23.889072 739.575989
0.800000 -6.880000 -7.040000 -0.517343 -24.264698 589.043213
0.800000 -6.880000 -7.000000 5.424463 -19.345896 403.688477
0.800000 -6.880000 -6.960000 6.173062 -17.680063 350.691315
0.800000 -6.880000 -6.920000 9.648775 -20.875553 528.887573
0.800000 -6.880000 -6.880000 20.192308 -21.822258 883.940247
0.800000 -6.880000 -6.840000 32.549110 -12.975197 1227.800293
0.800000 -6.880000 -6.800000 36.594177 4.555319 1359.884766
0.800000 -6.840000 -7.200000 -14.798088 17.614122 529.240723
0.800000 -6.840000 -7.160000 -27.352360 -0.935663 749.027100
0.800000 -6.840000 -7.120000 -19.629103 -23.599323 942.229736
0.800000 -6.840000 -7.080000 2.806211 -32.168434 1042.682983
0.800000 -6.840000 -7.040000 22.289703 -21.793850 971.802734
0.800000 -6.840000 -7.000000 26.327547 -4.168339 710.514771
0.800000 -6.840000 -6.960000 18.414288 5.532391 369.693359
0.800000 -6.840000 -6.920000 12.077197 3.706792 159.598999
0.800000 -6.840000 -6.880000 15.516800 0.061467 240.774857
0.800000 -6.840000 -6.840000 23.466663 5.399294 579.836670
0.800000 -6.840000 -6.800000 23.979715 19.385082 950.808105
0.800000 -6.800000 -7.200000 -28.160341 16.604263 1068.706421
0.800000 -6.800000 -7.160000 -32.233501 -12.594798 1197.627563
0.800000 -6.800000 -7.120000 -9.676937 -34.043945 1252.633301
0.800000 -6.800000 -7.080000 21.513119 -29.148922 1312.473877
0.800000 -6.800000 -7.040000 36.489510 -2.872379 1339.734863
0.800000 -6.800000 -7.000000 26.509935 22.212204 1196.158691
0.800000 -6.800000 -6.960000 5.151932 28.076115 814.810608
0.800000 -6.800000 -6.920000 -7.095963 16.986492 338.893616
0.800000 -6.800000 -6.880000 -3.019396 6.077634 46.054382
0.800000 -6.800000 -6.840000 6.642400 8.287165 112.798584
0.800000 -6.800000 -6.800000 6.815018 20.042051 448.128265
0.840000 -7.200000 -7.200000 -47.345528 -30.233620 3155.670654
0.840000 -7.200000 -7.160000 -16.237583 -44.735840 2264.954590
0.840000 -7.200000 -7.120000 9.645050 -27.280237 837.238342
0.840000 -7.200000 -7.080000 6.294538 0.437314 39.812458
0.840000 -7.200000 -7.040000 -18.683151 7.962034 412.454132
0.840000 -7.200000 -7.000000 -35.774391 -11.878741 1420.911499
0.840000 -7.200000 -6.960000 -25.694115 -36.973919 2027.258179
0.840000 -7.200000 -6.920000 1.180875 -40.988800 1681.476196
0.840000 -7.200000 -6.880000 17.794102 -21.131222 763.158569
0.840000 -7.200000 -6.840000 9.931555 0.940686 99.520668
0.840000 -7.200000 -6.800000 -10.368061 3.986664 123.390175
0.840000 -7.160000 -7.200000 -15.182962 -53.288040 3070.137695
0.840000 -7.160000 -7.160000 17.692963 -45.249893 2360.593750
0.840000 -7.160000 -7.120000 28.328396 -17.053892 1093.333252
0.840000 -7.160000 -7.080000 12.343428 2.620607 159.227783
0.840000 -7.160000 -7.040000 -8.313220 -2.924376 77.661598
0.840000 -7.160000 -7.000000 -10.032143 -22.685238 615.263855
0.840000 -7.160000 -6.960000 8.040545 -32.085670 1094.140625
0.840000 -7.160000 -6.920000 25.465719 -19.994961 1048.301270
0.840000 -7.160000 -6.880000 24.174610 0.950097 585.314514
0.840000 -7.160000 -6.840000 7.241356 10.218353 156.851974
0.840000 -7.160000 -6.800000 -6.928021 1.951964 51.807644
0.840000 -7.120000 -7.200000 24.289112 -43.201527 2456.333008
0.840000 -7.120000 -7.160000 41.972046 -19.378698 2137.186523
0.840000 -7.120000 -7.120000 35.750549 5.320628 1306.410889
0.840000 -7.120000 -7.080000 17.824196 12.614738 476.833557
0.840000 -7.120000 -7.040000 8.096032 4.360280 84.557777
0.840000 -7.120000 -7.000000 12.969912 -2.638587 175.180756
0.840000 -7.120000 -6.960000 20.859043 3.138982 444.952881
0.840000 -7.120000 -6.920000 17.630203 15.832018 561.476868
0.840000 -7.120000 -6.880000 3.246595 20.690540 438.638824
0.840000 -7.120000 -6.840000 -9.122927 11.916660 225.234589
0.840000 -7.120000 -6.800000 -9.121317 -1.158878 84.541428
0.840000 -7.080000 -7.200000 41.298050 -7.997087 1769.482300
0.840000 -7.080000 -7.160000 39.525642 15.076708 1789.583496
0.840000 -7.080000 -7.120000 25.885849 27.655668 1434.913086
0.840000 -7.080000 -7.080000 13.908772 28.449005 1002.799805
0.840000 -7.080000 -7.040000 9.187531 27.230469 825.909119
0.840000 -7.080000 -7.000000 5.207745 30.976871 986.687195
0.840000 -7.080000 -6.960000 -5.982983 34.979580 1259.367188
0.840000 -7.080000 -6.920000 -21.785385 29.242947 1329.752930
0.840000 -7.080000 -6.880000 -30.426409 12.111429 1072.453125
0.840000 -7.080000 -6.840000 -24.371878 -5.605073 625.405273
0.840000 -7.080000 -6.800000 -9.881992 -11.542448 230.881866
0.840000 -7.040000 -7.200000 26.746166 23.729055 1278.425537
0.840000 -7.040000 -7.160000 15.231294 34.687687 1435.227905
0.840000 -7.040000 -7.120000 4.350413 37.729080 1442.409668
0.840000 -7.040000 -7.080000 -3.362254 39.851616 1599.456055
0.840000 -7.040000 -7.040000 -13.979490 44.023918 2133.531494
0.840000 -7.040000 -7.000000 -32.202053 43.342094 2915.509277
0.840000 -7.040000 -6.960000 -51.712337 28.562569 3489.986084
0.840000 -7.040000 -6.920000 -58.463463 0.910629 3418.805908
0.840000 -7.040000 -6.880000 -44.850250 -25.105522 2641.832031
0.840000 -7.040000 -6.840000 -19.377108 -33.952457 1528.241699
0.840000 -7.040000 -6.800000 -0.025188 -24.182976 584.816956
0.840000 -7.000000 -7.200000 -1.143465 30.504950 931.859436
0.840000 -7.000000 -7.160000 -10.404795 31.136042 1077.712769
0.840000 -7.000000 -7.120000 -16.806240 32.304306 1326.017944
0.840000 -7.000000 -7.080000 -27.196810 36.048164 2039.136719
0.840000 -7.000000 -7.040000 -46.365311 34.335426 3328.663574
0.840000 -7.000000 -7.000000 -67.304024 16.691940 4808.452637
0.840000 -7.000000 -6.960000 -74.089691 -16.332516 5756.033203
0.840000 -7.000000 -6.920000 -56.578274 -49.021740 5604.232422
0.840000 -7.000000 -6.880000 -22.167189 -62.227585 4363.656250
0.840000 -7.000000 -6.840000 8.650537 -50.464050 2621.452148
0.840000 -7.000000 -6.800000 19.904774 -26.987408 1124.520264
0.840000 -6.960000 -7.200000 -17.196838 16.643402 572.734131
0.840000 -6.960000 -7.160000 -21.550827 15.707569 711.165894
0.840000 -6.960000 -7.120000 -28.759602 17.491219 1133.057373
0.840000 -6.960000 -7.080000 -43.650940 15.474527 2144.865479
0.840000 -6.960000 -7.040000 -61.135620 -0.140800 3737.583740
0.840000 -6.960000 -7.000000 -67.032478 -30.630596 5431.586426
0.840000 -6.960000 -6.960000 -50.091145 -63.065346 6486.360352
0.840000 -6.960000 -6.920000 -14.160492 -78.496094 6362.156250
0.840000 -6.960000 -6.880000 22.398510 -67.750122 5091.772461
0.840000 -6.960000 -6.840000 41.021393 -39.710655 3259.690918
0.840000 -6.960000 -6.800000 37.857567 -13.537606 1616.462158
0.840000 -6.920000 -7.200000 -14.259348 3.589414 216.212906
0.840000 -6.920000 -7.160000 -19.893814 4.567138 416.622589
0.840000 -6.920000 -7.120000 -30.602621 1.551657 938.928101
0.840000 -6.920000 -7.080000 -42.045280 -11.670799 1904.013184
0.840000 -6.920000 -7.040000 -44.189793 -35.412903 3206.811523
0.840000 -6.920000 -7.000000 -28.930222 -60.351013 4479.202637
0.840000 -6.920000 -6.960000 1.613898 -72.382004 5241.758789
0.840000 -6.920000 -6.920000 34.329346 -63.172462 5169.264160
0.840000 -6.920000 -6.880000 53.895576 -37.277298 4294.330078
0.840000 -6.920000 -6.840000 53.980625 -8.911100 2993.315674
0.840000 -6.920000 -6.800000 40.948090 9.143569 1760.350952
0.840000 -6.880000 -7.200000 -6.847691 5.029019 72.181908
0.840000 -6.880000 -7.160000 -17.904270 1.855267 324.004913
0.840000 -6.880000 -7.120000 -25.911999 -11.443228 802.379150
0.840000 -6.880000 -7.080000 -23.101234 -30.518990 1465.075806
0.840000 -6.880000 -7.040000 -7.175290 -46.068115 2173.756104
0.840000 -6.880000 -7.000000 16.631313 -49.631905 2739.926514
0.840000 -6.880000 -6.960000 38.659302 -38.849205 3003.802246
0.840000 -6.880000 -6.920000 50.628220 -18.518200 2906.140381
0.840000 -6.880000 -6.880000 50.027191 2.911306 2511.195557
0.840000 -6.880000 -6.840000 40.337990 18.519085 1970.109985
0.840000 -6.880000 -6.800000 27.578836 26.155521 1444.703613
0.840000 -6.840000 -7.200000 -11.517605 13.248582 308.180145
0.840000 -6.840000 -7.160000 -21.958054 -1.442828 484.237885
0.840000 -6.840000 -7.120000 -16.959026 -21.189938 736.622070
0.840000 -6.840000 -7.080000 1.977386 -32.028008 1029.703247
0.840000 -6.840000 -7.040000 23.195913 -26.998714 1266.980957
0.840000 -6.840000 -7.000000 35.065281 -10.740963 1344.942261
0.840000 -6.840000 -6.960000 34.648472 6.203121 1238.995361
0.840000 -6.840000 -6.920000 27.450157 16.779865 1035.074951
0.840000 -6.840000 -6.880000 20.194851 21.461184 868.414429
0.840000 -6.840000 -6.840000 14.765433 24.502939 818.412048
0.840000 -6.840000 -6.800000 8.650873 27.890194 852.700500
0.840000 -6.800000 -7.200000 -26.887714 10.357883 830.234924
0.840000 -6.800000 -7.160000 -24.840309 -13.347445 795.195251
0.840000 -6.800000 -7.120000 -3.709183 -26.545406 718.416626
0.840000 -6.800000 -7.080000 19.978718 -18.222813 731.220093
0.840000 -6.800000 -7.040000 28.392460 4.219646 823.937195
0.840000 -6.800000 -7.000000 18.046703 22.894567 849.844727
0.840000 -6.800000 -6.960000 0.959966 26.199936 687.358154
0.840000 -6.800000 -6.920000 -8.428163 17.780397 387.176453
0.840000 -6.800000 -6.880000 -6.545866 10.159421 146.062195
0.840000 -6.800000 -6.840000 -1.531523 11.182651 127.397232
0.840000 -6.800000 -6.800000 -2.796551 17.465298 312.857330
0.880000 -7.200000 -7.200000 -16.685711 -50.451332 2823.749756
0.880000 -7.200000 -7.160000 16.751926 -38.684830 1777.143066
0.880000 -7.200000 -7.120000 22.962772 -6.838405 574.052734
0.880000 -7.200000 -7.080000 -0.468668 11.023966 121.747475
0.880000 -7.200000 -7.040000 -25.019669 -2.943726 634.649353
0.880000 -7.200000 -7.000000 -22.090271 -32.026012 1513.645630
0.880000 -7.200000 -6.960000 6.776411 -43.627014 1949.236206
0.880000 -7.200000 -6.920000 32.496609 -24.147297 1639.121460
0.880000 -7.200000 -6.880000 29.962322 7.539516 954.585083
0.880000 -7.200000 -6.840000 3.815967 21.413399 473.095276
0.880000 -7.200000 -6.800000 -18.610348 7.941244 409.408386
0.880000 -7.160000 -7.200000 19.245710 -48.710846 2743.144043
0.880000 -7.160000 -7.160000 39.159622 -20.252609 1943.644165
0.880000 -7.160000 -7.120000 28.542450 8.491776 886.781677
0.880000 -7.160000 -7.080000 3.706319 12.863893 179.216537
0.880000 -7.160000 -7.040000 -7.297558 -4.487795 73.394653
0.880000 -7.160000 -7.000000 5.396732 -18.650320 376.959167
0.880000 -7.160000 -6.960000 24.534235 -10.604850 714.391541
0.880000 -7.160000 -6.920000 26.252031 12.679424 849.936951
0.880000 -7.160000 -6.880000 6.369428 27.339174 788.000000
0.880000 -7.160000 -6.840000 -16.237188 19.380766 639.260376
0.880000 -7.160000 -6.800000 -21.460615 -1.070583 461.704163
0.880000 -7.120000 -7.200000 42.555786 -19.720701 2199.900879
0.880000 -7.120000 -7.160000 43.050991 10.188302 1957.189331
0.880000 -7.120000 -7.120000 24.825687 27.611929 1378.733398
0.880000 -7.120000 -7.080000 6.881081 26.453037 747.112427
0.880000 -7.120000 -7.040000 1.535454 19.026514 364.365845
0.880000 -7.120000 -7.000000 3.162102 19.381348 385.635529
0.880000 -7.120000 -6.960000 -1.981426 26.867451 725.785950
0.880000 -7.120000 -6.920000 -17.526134 28.352272 1111.016724
0.880000 -7.120000 -6.880000 -31.886990 15.344267 1252.226562
0.880000 -7.120000 -6.840000 -31.807583 -4.610227 1032.976562
0.880000 -7.120000 -6.800000 -18.267609 -15.734592 581.282959
0.880000 -7.080000 -7.200000 36.288868 15.136566 1545.997559
0.880000 -7.080000 -7.160000 25.437120 34.336754 1826.059814
0.880000 -7.080000 -7.120000 9.198738 43.446121 1972.182251
0.880000 -7.080000 -7.080000 -5.923838 46.097061 2160.030762
0.880000 -7.080000 -7.040000 -21.459265 46.260818 2600.563232
0.880000 -7.080000 -7.000000 -40.439819 40.655682 3288.263428
0.880000 -7.080000 -6.960000 -58.052605 22.873413 3893.298096
0.880000 -7.080000 -6.920000 -62.647812 -5.469757 3954.666504
0.880000 -7.080000 -6.880000 -47.818230 -30.994484 3247.240967
0.880000 -7.080000 -6.840000 -22.007191 -39.085594 2012.000122
0.880000 -7.080000 -6.800000 -3.050104 -28.541237 823.905334
0.880000 -7.040000 -7.200000 9.244432 30.275204 1002.047485
0.880000 -7.040000 -7.160000 -0.772314 39.095490 1529.053711
0.880000 -7.040000 -7.120000 -14.390538 47.694389 2481.842529
0.880000 -7.040000 -7.080000 -37.008377 52.797165 4157.160645
0.880000 -7.040000 -7.040000 -67.605797 43.404778 6454.518555
0.880000 -7.040000 -7.000000 -92.287033 11.749765 8654.953125
0.880000 -7.040000 -6.960000 -92.464310 -34.026428 9707.446289
0.880000 -7.040000 -6.920000 -62.288456 -70.947296 8913.371094
0.880000 -7.040000 -6.880000 -17.621031 -78.600525 6488.542969
0.880000 -7.040000 -6.840000 14.935040 -57.294346 3505.697510
0.880000 -7.040000 -6.800000 20.338264 -28.332119 1216.354004
0.880000 -7.000000 -7.200000 -13.303290 19.976339 576.031677
0.880000 -7.000000 -7.160000 -18.513054 27.308121 1088.466553
0.880000 -7.000000 -7.120000 -36.283684 37.200813 2700.406250
0.880000 -7.000000 -7.080000 -69.182747 32.775917 5860.513184
0.880000 -7.000000 -7.040000 -100.259521 -0.400422 10052.131836
0.880000 -7.000000 -7.000000 -103.177414 -55.544594 13730.781250
0.880000 -7.000000 -6.960000 -66.018173 -103.777435 15128.155273
0.880000 -7.000000 -6.920000 -5.736628 -115.721786 13424.441406
0.880000 -7.000000 -6.880000 42.997898 -86.745720 9373.638672
0.880000 -7.000000 -6.840000 56.059967 -41.307648 4849.041992
0.880000 -7.000000 -6.800000 38.832947 -11.266733 1634.937134
0.880000 -6.960000 -7.200000 -14.892046 1.950106 225.575958
0.880000 -6.960000 -7.160000 -21.597004 13.135098 638.961365
0.880000 -6.960000 -7.120000 -47.390404 16.916988 2532.034912
0.880000 -6.960000 -7.080000 -79.383911 -6.924189 6349.749512
0.880000 -6.960000 -7.040000 -88.661079 -58.603497 11295.157227
0.880000 -6.960000 -7.000000 -55.732277 -111.096588 15448.539062
0.880000 -6.960000 -6.960000 8.426532 -129.457794 16830.326172
0.880000 -6.960000 -6.920000 67.730255 -100.602371 14708.224609
0.880000 -6.960000 -6.880000 89.868202 -45.246040 10123.498047
0.880000 -6.960000 -6.840000 72.202408 0.023739 5213.187988
0.880000 -6.960000 -6.800000 40.569920 13.783442 1835.901611
0.880000 -6.920000 -7.200000 -2.810603 -2.782264 15.640482
0.880000 -6.920000 -7.160000 -17.935379 7.139760 372.653992
0.880000 -6.920000 -7.120000 -45.217758 -3.762497 2058.802002
0.880000 -6.920000 -7.080000 -59.521225 -42.566853 5354.712891
0.880000 -6.920000 -7.040000 -37.833996 -89.791626 9493.947266
0.880000 -6.920000 -7.000000 17.274475 -112.023087 12847.579102
0.880000 -6.920000 -6.960000 75.705574 -90.061279 13842.368164
0.880000 -6.920000 -6.920000 103.258995 -36.383614 11986.187500
0.880000 -6.920000 -6.880000 89.377167 15.095881 8216.163086
0.880000 -6.920000 -6.840000 53.562729 37.599941 4282.721680
0.880000 -6.920000 -6.800000 25.430040 31.550579 1642.125977
0.880000 -6.880000 -7.200000 2.433696 8.121845 71.887245
0.880000 -6.880000 -7.160000 -18.371178 6.853415 384.469482
0.880000 -6.880000 -7.120000 -34.057938 -17.690582 1472.899780
0.880000 -6.880000 -7.080000 -23.626446 -53.794701 3452.078857
0.880000 -6.880000 -7.040000 15.721750 -74.864281 5851.833984
0.880000 -6.880000 -7.000000 62.840473 -61.506508 7731.975586
0.880000 -6.880000 -6.960000 88.596375 -18.978260 8209.492188
0.880000 -6.880000 -6.920000 79.549957 26.684254 7040.245117
0.880000 -6.880000 -6.880000 47.636383 50.377003 4807.067383
0.880000 -6.880000 -6.840000 17.650345 47.319145 2550.636230
0.880000 -6.880000 -6.800000 5.292809 32.926189 1112.147705
0.880000 -6.840000 -7.200000 -9.172474 17.650623 395.678772
0.880000 -6.840000 -7.160000 -23.762804 2.354192 570.213074
0.880000 -6.840000 -7.120000 -20.054003 -23.226807 941.647583
0.880000 -6.840000 -7.080000 5.210842 -39.643051 1598.724365
0.880000 -6.840000 -7.040000 37.413212 -31.952332 2420.699951
0.880000 -6.840000 -7.000000 55.330524 -2.955391 3070.201416
0.880000 -6.840000 -6.960000 48.486229 28.987738 3191.203125
0.880000 -6.840000 -6.920000 24.776012 45.423717 2677.165039
0.880000 -6.840000 -6.880000 2.032444 42.110260 1777.404907
0.880000 -6.840000 -6.840000 -7.672588 29.719189 942.098755
0.880000 -6.840000 -6.800000 -6.388356 21.822060 517.013428
0.880000 -6.800000 -7.200000 -26.171459 9.824205 781.460266
0.880000 -6.800000 -7.160000 -24.567955 -10.043814 704.462585
0.880000 -6.800000 -7.120000 -6.941460 -21.966785 530.723511
0.880000 -6.800000 -7.080000 14.098395 -15.879716 450.930115
0.880000 -6.800000 -7.040000 23.068562 3.731873 546.085388
0.880000 -6.800000 -7.000000 14.843295 22.105545 708.978516
0.880000 -6.800000 -6.960000 -1.969753 27.311893 749.819458
0.880000 -6.800000 -6.920000 -13.917246 19.676292 580.846191
0.880000 -6.800000 -6.880000 -14.638201 9.393813 302.520630
0.880000 -6.800000 -6.840000 -8.762724 5.964165 112.356598
0.880000 -6.800000 -6.800000 -5.548717 10.125352 133.311005
0.920000 -7.200000 -7.200000 17.147114 -43.535580 2189.370117
0.920000 -7.200000 -7.160000 32.998219 -12.675565 1249.552368
0.920000 -7.200000 -7.120000 15.526280 14.552034 452.827087
0.920000 -7.200000 -7.080000 -14.440773 11.218975 334.401306
0.920000 -7.200000 -7.040000 -23.317425 -17.076977 835.325439
0.920000 -7.200000 -7.000000 -0.240116 -38.064949 1448.997925
0.920000 -7.200000 -6.960000 31.467905 -26.983624 1718.344971
0.920000 -7.200000 -6.920000 39.060707 7.475153 1581.616821
0.920000 -7.200000 -6.880000 14.535896 32.815815 1288.169922
0.920000 -7.200000 -6.840000 -18.144350 26.926121 1054.233398
0.920000 -7.200000 -6.800000 -29.379568 -0.205606 863.201294
0.920000 -7.160000 -7.200000 38.875824 -23.965645 2085.681885
0.920000 -7.160000 -7.160000 36.369205 8.993576 1403.603516
0.920000 -7.160000 -7.120000 11.316753 23.929277 700.679199
0.920000 -7.160000 -7.080000 -9.514889 12.579131 248.767654
0.920000 -7.160000 -7.040000 -7.156326 -6.071525 88.076416
0.920000 -7.160000 -7.000000 10.218525 -7.557869 161.539642
0.920000 -7.160000 -6.960000 17.705467 11.306675 441.324463
0.920000 -7.160000 -6.920000 1.765079 29.702579 885.358704
0.920000 -7.160000 -6.880000 -25.010113 26.313784 1317.920898
0.920000 -7.160000 -6.840000 -38.093384 2.621538 1457.978271
0.920000 -7.160000 -6.800000 -27.705154 -19.435436 1145.311768
0.920000 -7.120000 -7.200000 40.163177 6.017497 1649.291138
0.920000 -7.120000 -7.160000 25.969828 29.596176 1550.365601
0.920000 -7.120000 -7.120000 3.525955 36.010830 1309.212280
0.920000 -7.120000 -7.080000 -11.835495 29.525370 1011.826416
0.920000 -7.120000 -7.040000 -17.725258 22.998814 843.130188
0.920000 -7.120000 -7.000000 -23.502060 21.644627 1020.836670
0.920000 -7.120000 -6.960000 -35.612259 17.916771 1589.243652
0.920000 -7.120000 -6.920000 -47.567753 2.864292 2270.895264
0.920000 -7.120000 -6.880000 -46.683872 -20.214527 2588.011230
0.920000 -7.120000 -6.840000 -29.791155 -36.653221 2230.971436
0.920000 -7.120000 -6.800000 -9.085008 -35.728779 1359.083008
0.920000 -7.080000 -7.200000 20.563614 25.881769 1092.728149
0.920000 -7.080000 -7.160000 5.811406 39.693195 1609.322266
0.920000 -7.080000 -7.120000 -14.088104 46.533401 2363.832031
0.920000 -7.080000 -7.080000 -37.803642 45.307510 3481.885742
0.920000 -7.080000 -7.040000 -62.954441 31.995052 4986.945312
0.920000 -7.080000 -7.000000 -81.084030 3.413761 6586.273926
0.920000 -7.080000 -6.960000 -80.236763 -34.749798 7645.486328
0.920000 -7.080000 -6.920000 -55.711967 -66.377548 7509.802246
0.920000 -7.080000 -6.880000 -18.191498 -75.295258 6000.306641
0.920000 -7.080000 -6.840000 11.588560 -59.519508 3676.866455
0.920000 -7.080000 -6.800000 19.253212 -34.599903 1567.839478
0.920000 -7.040000 -7.200000 -2.751520 23.947296 581.043884
0.920000 -7.040000 -7.160000 -13.945589 35.988956 1489.684448
0.920000 -7.040000 -7.120000 -39.900215 45.028828 3619.622559
0.920000 -7.040000 -7.080000 -78.333344 34.193321 7305.295898
0.920000 -7.040000 -7.040000 -109.120560 -7.280209 11960.297852
0.920000 -7.040000 -7.000000 -106.572708 -67.917679 15970.552734
0.920000 -7.040000 -6.960000 -62.524200 -116.356987 17448.224609
0.920000 -7.040000 -6.920000 2.039070 -124.294212 15453.208984
0.920000 -7.040000 -6.880000 50.758057 -90.479080 10762.843750
0.920000 -7.040000 -6.840000 60.729172 -42.472267 5491.925781
0.920000 -7.040000 -6.800000 40.042614 -13.176344 1777.026978
0.920000 -7.000000 -7.200000 -11.213247 8.486803 197.762741
0.920000 -7.000000 -7.160000 -24.615383 24.230556 1193.036987
0.920000 -7.000000 -7.120000 -61.920109 26.196722 4520.368164
0.920000 -7.000000 -7.080000 -103.058945 -9.516407 10711.708008
0.920000 -7.000000 -7.040000 -110.490906 -78.747818 18409.458984
0.920000 -7.000000 -7.000000 -62.808193 -143.609116 24568.447266
0.920000 -7.000000 -6.960000 20.848787 -160.356445 26148.861328
0.920000 -7.000000 -6.920000 91.939285 -117.134926 22173.421875
0.920000 -7.000000 -6.880000 111.646477 -45.420715 14527.976562
0.920000 -7.000000 -6.840000 82.022812 6.947093 6776.003906
0.920000 -7.000000 -6.800000 40.109756 16.012541 1865.194092
0.920000 -6.960000 -7.200000 -2.777856 -1.096952 8.919787
0.920000 -6.960000 -7.160000 -25.872952 13.962147 864.351135
0.920000 -6.960000 -7.120000 -67.542938 -2.529449 4568.446289
0.920000 -6.960000 -7.080000 -89.067078 -61.443321 11708.226562
0.920000 -6.960000 -7.040000 -55.274651 -132.109406 20508.181641
0.920000 -6.960000 -7.000000 28.363770 -162.731873 27286.166016
0.920000 -6.960000 -6.960000 113.624504 -125.352524 28623.783203
0.920000 -6.960000 -6.920000 148.007233 -42.598351 23720.759766
0.920000 -6.960000 -6.880000 118.705307 30.799391 15039.552734
0.920000 -6.960000 -6.840000 60.540245 54.819511 6670.299805
0.920000 -6.960000 -6.800000 21.418512 34.930374 1678.883667
0.920000 -6.920000 -7.200000 7.102308 5.655930 82.432327
0.920000 -6.920000 -7.160000 -24.743835 9.658720 705.548279
0.920000 -6.920000 -7.120000 -55.169106 -26.274172 3733.962158
0.920000 -6.920000 -7.080000 -43.968140 -87.990768 9675.572266
0.920000 -6.920000 -7.040000 20.342194 -128.763580 16993.865234
0.920000 -6.920000 -7.000000 103.001511 -109.233978 22541.373047
0.920000 -6.920000 -6.960000 149.132111 -34.945873 23461.601562
0.920000 -6.920000 -6.920000 130.641113 46.008080 19183.843750
0.920000 -6.920000 -6.880000 69.357162 84.199203 11899.921875
0.920000 -6.920000 -6.840000 14.716105 69.717728 5077.125488
0.920000 -6.920000 -6.800000 -1.113838 34.633442 1200.715942
0.920000 -6.880000 -7.200000 2.641755 19.907745 403.297211
0.920000 -6.880000 -7.160000 -27.197695 7.302093 793.035156
0.920000 -6.880000 -7.120000 -35.069427 -35.446941 2486.350342
0.920000 -6.880000 -7.080000 0.995667 -76.642395 5875.047852
0.920000 -6.880000 -7.040000 65.096680 -76.850761 10143.617188
0.920000 -6.880000 -7.000000 112.903481 -26.132336 13430.095703
0.920000 -6.880000 -6.960000 109.611908 44.124077 13961.705078
0.920000 -6.880000 -6.920000 60.498386 87.618317 11337.023438
0.920000 -6.880000 -6.880000 4.685715 82.870117 6889.412598
0.920000 -6.880000 -6.840000 -21.002056 48.502266 2793.556152
0.920000 -6.880000 -6.800000 -12.653281 21.298300 613.723145
0.920000 -6.840000 -7.200000 -15.190328 23.735723 794.130615
0.920000 -6.840000 -7.160000 -31.283226 0.385462 978.788818
0.920000 -6.840000 -7.120000 -19.103329 -32.282951 1407.126099
0.920000 -6.840000 -7.080000 19.903627 -44.672935 2391.825439
0.920000 -6.840000 -7.040000 58.395267 -20.500912 3830.294678
0.920000 -6.840000 -7.000000 66.251884 26.319862 5082.047363
0.920000 -6.840000 -6.960000 37.624954 62.817192 5361.636719
0.920000 -6.840000 -6.920000 -4.322670 65.905777 4362.256836
0.920000 -6.840000 -6.880000 -29.202600 41.368057 2564.107910
0.920000 -6.840000 -6.840000 -26.135113 15.456637 921.951782
0.920000 -6.840000 -6.800000 -10.050496 8.919446 180.569000
0.920000 -6.800000 -7.200000 -29.796062 9.897820 985.772217
0.920000 -6.800000 -7.160000 -29.550964 -11.161534 997.839355
0.920000 -6.800000 -7.120000 -11.036439 -25.273556 760.555603
0.920000 -6.800000 -7.080000 12.769226 -19.301979 535.619507
0.920000 -6.800000 -7.040000 23.138704 3.135761 545.232666
0.920000 -6.800000 -7.000000 12.587296 24.398119 753.708191
0.920000 -6.800000 -6.960000 -8.601608 28.814991 904.291382
0.920000 -6.800000 -6.920000 -22.519306 16.402618 776.165039
0.920000 -6.800000 -6.880000 -20.178341 1.364975 409.028595
0.920000 -6.800000 -6.840000 -8.487844 -2.297407 77.321579
0.920000 -6.800000 -6.800000 -1.922411 6.498253 45.922955
0.960000 -7.200000 -7.200000 33.358643 -17.379972 1414.862549
0.960000 -7.200000 -7.160000 24.891586 12.328623 771.585999
0.960000 -7.200000 -7.120000 -3.759350 19.722706 403.117859
0.960000 -7.200000 -7.080000 -22.644520 -1.464323 514.918518
0.960000 -7.200000 -7.040000 -11.528082 -27.654270 897.655334
0.960000 -7.200000 -7.000000 18.503220 -29.395988 1206.493286
0.960000 -7.200000 -6.960000 36.004871 -2.138935 1300.925781
0.960000 -7.200000 -6.920000 21.628738 28.777866 1295.967896
0.960000 -7.200000 -6.880000 -12.143868 34.277435 1322.416138
0.960000 -7.200000 -6.840000 -34.562881 11.005751 1315.719360
0.960000 -7.200000 -6.800000 -28.436092 -16.833456 1091.976562
0.960000 -7.160000 -7.200000 35.594376 2.619829 1273.823120
0.960000 -7.160000 -7.160000 17.034575 23.180517 827.513062
0.960000 -7.160000 -7.120000 -7.414718 20.612160 479.839142
0.960000 -7.160000 -7.080000 -15.980501 2.797936 263.204865
0.960000 -7.160000 -7.040000 -5.679871 -8.119163 98.181732
0.960000 -7.160000 -7.000000 5.475018 -0.065208 29.980068
0.960000 -7.160000 -6.960000 -0.933908 15.988869 256.516113
0.960000 -7.160000 -6.920000 -22.949821 18.487373 868.477295
0.960000 -7.160000 -6.880000 -40.024555 -0.597763 1602.322266
0.960000 -7.160000 -6.840000 -35.303337 -26.578606 1952.747803
0.960000 -7.160000 -6.800000 -13.756336 -37.743912 1613.839722
0.960000 -7.120000 -7.200000 24.624207 19.265072 977.494568
0.960000 -7.120000 -7.160000 5.885927 31.039225 998.077637
0.960000 -7.120000 -7.120000 -13.887255 29.238617 1047.752563
0.960000 -7.120000 -7.080000 -27.070070 19.984531 1132.170166
0.960000 -7.120000 -7.040000 -35.088879 9.973221 1330.694458
0.960000 -7.120000 -7.000000 -42.248905 -1.181198 1786.365234
0.960000 -7.120000 -6.960000 -46.933731 -17.869888 2522.108154
0.960000 -7.120000 -6.920000 -41.734497 -39.024277 3264.662354
0.960000 -7.120000 -6.880000 -23.092087 -54.789612 3535.145996
0.960000 -7.120000 -6.840000 1.152687 -54.966866 3022.684814
0.960000 -7.120000 -6.800000 16.615173 -40.564285 1921.525146
0.960000 -7.080000 -7.200000 7.595880 23.568943 613.192444
0.960000 -7.080000 -7.160000 -8.340393 34.171936 1237.283325
0.960000 -7.080000 -7.120000 -33.651558 36.370174 2455.216797
0.960000 -7.080000 -7.080000 -62.817837 21.781685 4420.522461
0.960000 -7.080000 -7.040000 -82.390503 -12.702160 6949.539551
0.960000 -7.080000 -7.000000 -77.681503 -57.733326 9367.552734
0.960000 -7.080000 -6.960000 -44.809383 -93.200905 10694.289062
0.960000 -7.080000 -6.920000 2.697266 -100.867134 10181.454102
0.960000 -7.080000 -6.880000 41.019444 -78.661827 7870.277832
0.960000 -7.080000 -6.840000 53.094143 -43.471024 4708.717773
0.960000 -7.080000 -6.800000 41.284607 -18.287024 2038.833984
0.960000 -7.040000 -7.200000 -3.567745 16.291466 278.140686
0.960000 -7.040000 -7.160000 -22.787292 30.293339 1436.947021
0.960000 -7.040000 -7.120000 -61.249924 26.359821 4446.393555
0.960000 -7.040000 -7.080000 -97.516251 -13.165960 9682.761719
0.960000 -7.040000 -7.040000 -98.830650 -79.791046 16134.107422
0.960000 -7.040000 -7.000000 -49.987900 -137.578094 21426.523438
0.960000 -7.040000 -6.960000 28.403490 -149.054565 23024.021484
0.960000 -7.040000 -6.920000 92.294296 -106.721642 19907.746094
0.960000 -7.040000 -6.880000 108.571175 -40.510593 13428.808594
0.960000 -7.040000 -6.840000 80.661331 6.983580 6555.020996
0.960000 -7.040000 -6.800000 42.044754 15.090231 1995.476440
0.960000 -7.000000 -7.200000 -3.008728 7.963406 72.468277
0.960000 -7.000000 -7.160000 -32.664497 20.437836 1484.674561
0.960000 -7.000000 -7.120000 -77.793907 -3.721954 6065.745117
0.960000 -7.000000 -7.080000 -96.181877 -71.599213 14377.400391
0.960000 -7.000000 -7.040000 -53.357681 -146.919907 24432.501953
0.960000 -7.000000 -7.000000 40.198910 -174.629517 32111.421875
0.960000 -7.000000 -6.960000 130.384109 -128.548492 33524.730469
0.960000 -7.000000 -6.920000 162.306824 -36.908798 27705.765625
0.960000 -7.000000 -6.880000 125.851547 40.354652 17467.109375
0.960000 -7.000000 -6.840000 61.160038 62.098206 7596.737305
0.960000 -7.000000 -6.800000 19.914133 36.883366 1756.955322
0.960000 -6.960000 -7.200000 3.196489 8.941982 90.176590
0.960000 -6.960000 -7.160000 -35.758324 9.493473 1368.783691
0.960000 -6.960000 -7.120000 -69.857277 -38.001320 6324.139648
0.960000 -6.960000 -7.080000 -51.120224 -114.064423 15623.969727
0.960000 -6.960000 -7.040000 31.872557 -160.683426 26835.023438
0.960000 -6.960000 -7.000000 133.847870 -131.107971 35104.554688
0.960000 -6.960000 -6.960000 186.673706 -35.341545 36096.097656
0.960000 -6.960000 -6.920000 157.784546 64.645004 29074.939453
0.960000 -6.960000 -6.880000 77.544044 107.579819 17586.496094
0.960000 -6.960000 -6.840000 9.460226 83.558792 7071.567871
0.960000 -6.960000 -6.800000 -6.807063 35.382645 1298.267578
0.960000 -6.920000 -7.200000 2.978571 18.914970 366.647980
0.960000 -6.920000 -7.160000 -34.867577 1.748313 1218.804565
0.960000 -6.920000 -7.120000 -43.609489 -56.189854 5059.086914
0.960000 -6.920000 -7.080000 8.094126 -111.921318 12591.896484
0.960000 -6.920000 -7.040000 98.740906 -109.865097 21820.105469
0.960000 -6.920000 -7.000000 165.370636 -35.418518 28601.917969
0.960000 -6.920000 -6.960000 157.646545 66.270241 29244.177734
0.960000 -6.920000 -6.920000 83.314362 127.515137 23201.392578
0.960000 -6.920000 -6.880000 0.397419 116.621643 13600.765625
0.960000 -6.920000 -6.840000 -35.914333 61.616589 5086.443359
0.960000 -6.920000 -6.800000 -19.552446 18.306351 717.420654
0.960000 -6.880000 -7.200000 -9.247589 26.856022 806.763794
0.960000 -6.880000 -7.160000 -34.397835 -3.361846 1194.513062
0.960000 -6.880000 -7.120000 -18.511803 -52.666782 3116.476807
0.960000 -6.880000 -7.080000 42.273643 -73.891502 7247.015137
0.960000 -6.880000 -7.040000 106.481514 -35.658630 12609.850586
0.960000 -6.880000 -7.000000 121.698059 43.740852 16723.679688
0.960000 -6.880000 -6.960000 72.954895 108.969406 17196.748047
0.960000 -6.880000 -6.920000 -2.780865 116.380135 13552.069336
0.960000 -6.880000 -6.880000 -50.647186 71.671349 7701.919922
0.960000 -6.880000 -6.840000 -46.783394 20.495422 2608.748291
0.960000 -6.880000 -6.800000 -14.743566 3.336166 228.502731
0.960000 -6.840000 -7.200000 -26.326124 22.179405 1184.990845
0.960000 -6.840000 -7.160000 -34.886974 -9.695808 1311.109619
0.960000 -6.840000 -7.120000 -8.075770 -39.571884 1631.151978
0.960000 -6.840000 -7.080000 38.461281 -34.854687 2694.119385
0.960000 -6.840000 -7.040000 66.229401 8.832130 4464.339844
0.960000 -6.840000 -7.000000 49.497498 60.281658 6083.880859
0.960000 -6.840000 -6.960000 0.265251 80.263031 6442.224609
0.960000 -6.840000 -6.920000 -42.725410 57.309158 5109.800293
0.960000 -6.840000 -6.880000 -50.032574 16.504471 2775.656006
0.960000 -6.840000 -6.840000 -26.825977 -6.381580 760.357605
0.960000 -6.840000 -6.800000 -3.698952 1.484098 15.884792
0.960000 -6.800000 -7.200000 -35.150795 5.789777 1269.099854
0.960000 -6.800000 -7.160000 -32.400784 -18.488020 1391.617676
0.960000 -6.800000 -7.120000 -8.997384 -31.851002 1095.439209
0.960000 -6.800000 -7.080000 16.866371 -20.683304 712.273560
0.960000 -6.800000 -7.040000 23.442837 6.550190 592.471558
0.960000 -6.800000 -7.000000 6.330353 26.887070 762.987854
0.960000 -6.800000 -6.960000 -17.661671 24.784294 926.195801
0.960000 -6.800000 -6.920000 -27.373735 6.264797 788.569092
0.960000 -6.800000 -6.880000 -17.541786 -8.466507 379.395996
0.960000 -6.800000 -6.840000 -2.299679 -5.649305 37.203171
0.960000 -6.800000 -6.800000 0.422611 9.334803 87.317139
1.000000 -7.200000 -7.200000 25.540800 7.457169 707.941833
1.000000 -7.200000 -7.160000 4.618083 18.913616 379.051575
1.000000 -7.200000 -7.120000 -15.923418 7.188488 305.229584
1.000000 -7.200000 -7.080000 -15.658785 -16.203426 507.748566
1.000000 -7.200000 -7.040000 5.590191 -27.007526 760.656738
1.000000 -7.200000 -7.000000 26.301680 -12.672081 852.359985
1.000000 -7.200000 -6.960000 24.456652 14.180737 799.221069
1.000000 -7.200000 -6.920000 -0.072653 27.950336 781.226562
1.000000 -7.200000 -6.880000 -25.353745 15.711654 889.668457
1.000000 -7.200000 -6.840000 -29.688795 -10.321446 987.956787
1.000000 -7.200000 -6.800000 -12.972303 -26.247322 857.202576
1.000000 -7.160000 -7.200000 18.285923 14.584141 547.072144
1.000000 -7.160000 -7.160000 0.032308 18.037285 325.344696
1.000000 -7.160000 -7.120000 -12.516813 7.149208 207.781784
1.000000 -7.160000 -7.080000 -11.011883 -5.741988 154.231995
1.000000 -7.160000 -7.040000 -2.434303 -7.919655 68.646767
1.000000 -7.160000 -7.000000 -1.037290 -0.231194 1.129422
1.000000 -7.160000 -6.960000 -12.027458 3.849266 159.476593
1.000000 -7.160000 -6.920000 -25.000778 -6.536413 667.763611
1.000000 -7.160000 -6.880000 -24.803453 -26.710560 1328.665283
1.000000 -7.160000 -6.840000 -8.305019 -40.388271 1700.185791
1.000000 -7.160000 -6.800000 11.471151 -36.692219 1477.906250
1.000000 -7.120000 -7.200000 10.489101 17.625526 420.680420
1.000000 -7.120000 -7.160000 -3.677940 21.848331 490.876831
1.000000 -7.120000 -7.120000 -19.147356 17.618504 677.032959
1.000000 -7.120000 -7.080000 -31.488316 5.875326 1026.033447
1.000000 -7.120000 -7.040000 -37.862549 -11.261097 1560.384888
1.000000 -7.120000 -7.000000 -35.864918 -31.211487 2260.449219
1.000000 -7.120000 -6.960000 -23.528763 -49.497410 3003.596191
1.000000 -7.120000 -6.920000 -2.116074 -59.361084 3528.216064
1.000000 -7.120000 -6.880000 21.382030 -55.469658 3534.074219
1.000000 -7.120000 -6.840000 36.760220 -39.385700 2902.547119
1.000000 -7.120000 -6.800000 37.959442 -20.656418 1867.606812
1.000000 -7.080000 -7.200000 4.053339 17.656965 328.197998
1.000000 -7.080000 -7.160000 -13.929435 26.851288 915.020813
1.000000 -7.080000 -7.120000 -42.865540 19.930931 2234.696533
1.000000 -7.080000 -7.080000 -66.156509 -11.477901 4508.425781
1.000000 -7.080000 -7.040000 -63.581795 -58.401073 7453.330078
1.000000 -7.080000 -7.000000 -28.129799 -96.794029 10160.369141
1.000000 -7.080000 -6.960000 25.443695 -103.999771 11463.333984
1.000000 -7.080000 -6.920000 69.445740 -76.289612 10642.816406
1.000000 -7.080000 -6.880000 83.281158 -32.122978 7967.637207
1.000000 -7.080000 -6.840000 67.892975 2.221594 4614.391602
1.000000 -7.080000 -6.800000 42.591629 12.374535 1967.176025
1.000000 -7.040000 -7.200000 -0.027923 16.523399 273.023529
1.000000 -7.040000 -7.160000 -29.680851 24.207773 1466.969238
1.000000 -7.040000 -7.120000 -67.828873 -1.701216 4603.649902
1.000000 -7.040000 -7.080000 -78.851738 -62.024940 10064.689453
1.000000 -7.040000 -7.040000 -37.963783 -123.686874 16739.691406
1.000000 -7.040000 -7.000000 41.954674 -142.604980 22096.375000
1.000000 -7.040000 -6.960000 115.380463 -101.007668 23515.199219
1.000000 -7.040000 -6.920000 139.512268 -24.406002 20059.326172
1.000000 -7.040000 -6.880000 108.499458 38.820141 13279.135742
1.000000 -7.040000 -6.840000 55.297127 56.917786 6297.406250
1.000000 -7.040000 -6.800000 20.640503 37.196800 1809.632324
1.000000 -7.000000 -7.200000 -2.307977 16.476067 276.787537
1.000000 -7.000000 -7.160000 -41.636230 11.001080 1854.599487
1.000000 -7.000000 -7.120000 -70.454590 -39.980423 6562.283203
1.000000 -7.000000 -7.080000 -45.685600 -113.184853 14897.984375
1.000000 -7.000000 -7.040000 38.274899 -152.856628 24830.117188
1.000000 -7.000000 -7.000000 135.056122 -118.310226 32237.464844
1.000000 -7.000000 -6.960000 180.948410 -23.537889 33296.359375
1.000000 -7.000000 -6.920000 148.749298 71.051819 27174.714844
1.000000 -7.000000 -6.880000 70.104034 109.115784 16820.830078
1.000000 -7.000000 -6.840000 5.263744 83.831467 7055.421875
1.000000 -7.000000 -6.800000 -9.734406 36.628403 1436.398560
1.000000 -6.960000 -7.200000 -5.299653 18.668049 376.582397
1.000000 -6.960000 -7.160000 -42.583496 -5.568204 1844.359009
1.000000 -6.960000 -7.120000 -44.841068 -69.360336 6821.578125
1.000000 -6.960000 -7.080000 16.992426 -125.019073 15918.510742
1.000000 -6.960000 -7.040000 115.828987 -115.424408 26739.148438
1.000000 -6.960000 -7.000000 183.492584 -29.421860 34535.171875
1.000000 -6.960000 -6.960000 168.786957 81.406097 35115.988281
1.000000 -6.960000 -6.920000 83.768234 144.483490 27892.595703
1.000000 -6.960000 -6.880000 -7.226496 128.217773 16492.019531
1.000000 -6.960000 -6.840000 -45.325527 65.185265 6303.521973
1.000000 -6.960000 -6.800000 -25.521099 16.289434 916.672119
1.000000 -6.920000 -7.200000 -11.935709 21.319519 596.983032
1.000000 -6.920000 -7.160000 -35.360817 -15.921192 1503.871704
1.000000 -6.920000 -7.120000 -9.991428 -71.327667 5187.464844
1.000000 -6.920000 -7.080000 65.775856 -89.732162 12378.324219
1.000000 -6.920000 -7.040000 140.875549 -36.428299 21172.941406
1.000000 -6.920000 -7.000000 153.246002 63.647869 27535.388672
1.000000 -6.920000 -6.960000 87.380424 142.289429 27881.619141
1.000000 -6.920000 -6.920000 -9.339886 147.247131 21768.951172
1.000000 -6.920000 -6.880000 -68.881523 87.400711 12383.548828
1.000000 -6.920000 -6.840000 -62.363914 20.390854 4305.044922
1.000000 -6.920000 -6.800000 -19.691767 -3.152666 397.704987
1.000000 -6.880000 -7.200000 -22.457577 20.146515 910.224792
1.000000 -6.880000 -7.160000 -29.091887 -18.366840 1183.678711
1.000000 -6.880000 -7.120000 9.321268 -52.343704 2826.749268
1.000000 -6.880000 -7.080000 71.410378 -38.972984 6618.335449
1.000000 -6.880000 -7.040000 104.783173 26.576366 11685.816406
1.000000 -6.880000 -7.000000 74.552895 100.161545 15590.468750
1.000000 -6.880000 -6.960000 -1.350235 126.316261 15957.621094
1.000000 -6.880000 -6.920000 -66.779343 88.848206 12353.484375
1.000000 -6.880000 -6.880000 -78.409225 24.320120 6739.475098
1.000000 -6.880000 -6.840000 -42.876316 -14.301674 2042.916382
1.000000 -6.880000 -6.800000 -4.730138 -6.567657 65.508331
1.000000 -6.840000 -7.200000 -32.851696 11.845825 1219.557495
1.000000 -6.840000 -7.160000 -28.459330 -19.889172 1205.512573
1.000000 -6.840000 -7.120000 6.832023 -35.229839 1287.818115
1.000000 -6.840000 -7.080000 44.580795 -11.606518 2122.158447
1.000000 -6.840000 -7.040000 48.487572 37.394043 3749.359131
1.000000 -6.840000 -7.000000 10.540058 72.127991 5313.540039
1.000000 -6.840000 -6.960000 -39.611050 64.098984 5677.714844
1.000000 -6.840000 -6.920000 -62.396896 22.915295 4418.483398
1.000000 -6.840000 -6.880000 -45.360699 -14.142334 2257.598633
1.000000 -6.840000 -6.840000 -12.443445 -18.699883 504.524933
1.000000 -6.840000 -6.800000 2.320068 3.352087 16.619205
1.000000 -6.800000 -7.200000 -37.294678 -2.272121 1396.055420
1.000000 -6.800000 -7.160000 -28.772129 -26.808842 1546.549316
1.000000 -6.800000 -7.120000 -1.976303 -34.501019 1194.226074
1.000000 -6.800000 -7.080000 20.312868 -17.026920 702.528625
1.000000 -6.800000 -7.040000 19.120964 10.258477 470.847626
1.000000 -6.800000 -7.000000 -2.181091 23.541912 558.978760
1.000000 -6.800000 -6.960000 -22.109184 13.954998 683.557983
1.000000 -6.800000 -6.920000 -23.198496 -4.911827 562.296265
1.000000 -6.800000 -6.880000 -8.796585 -12.391705 230.934235
1.000000 -6.800000 -6.840000 2.258896 -2.147533 9.714510
1.000000 -6.800000 -6.800000 -3.752133 12.558275 171.788788
1.040000 -7.200000 -7.200000 5.569612 14.480768 240.713211
1.040000 -7.200000 -7.160000 -7.972014 7.485628 119.587646
1.040000 -7.200000 -7.120000 -10.158075 -7.998610 167.164261
1.040000 -7.200000 -7.080000 1.837189 -18.471977 344.589203
1.040000 -7.200000 -7.040000 17.548298 -13.661236 494.572113
1.040000 -7.200000 -7.000000 22.058241 2.966866 495.368256
1.040000 -7.200000 -6.960000 10.197355 16.530613 377.247223
1.040000 -7.200000 -6.920000 -8.065641 14.620667 278.818451
1.040000 -7.200000 -6.880000 -17.044552 -0.838759 291.220276
1.040000 -7.200000 -6.840000 -10.416237 -15.815051 358.613831
1.040000 -7.200000 -6.800000 3.294191 -18.314444 346.270538
1.040000 -7.160000 -7.200000 3.785142 9.543308 105.402031
1.040000 -7.160000 -7.160000 -2.018448 5.875113 38.591080
1.040000 -7.160000 -7.120000 -3.734888 0.052220 13.952115
1.040000 -7.160000 -7.080000 -1.937746 -3.632051 16.946657
1.040000 -7.160000 -7.040000 -0.860211 -3.892006 15.887673
1.040000 -7.160000 -7.000000 -3.433018 -4.408836 31.223450
1.040000 -7.160000 -6.960000 -7.004791 -9.819230 145.484375
1.040000 -7.160000 -6.920000 -5.286652 -19.599487 412.088562
1.040000 -7.160000 -6.880000 4.675491 -26.956421 748.508850
1.040000 -7.160000 -6.840000 17.948961 -25.078094 951.076050
1.040000 -7.160000 -6.800000 25.389332 -14.672568 859.902405
1.040000 -7.120000 -7.200000 6.604764 10.271863 149.134064
1.040000 -7.120000 -7.160000 -1.878752 15.511071 244.123032
1.040000 -7.120000 -7.120000 -16.334335 12.259188 417.098206
1.040000 -7.120000 -7.080000 -27.798168 -3.295700 783.599792
1.040000 -7.120000 -7.040000 -26.692780 -26.205786 1399.247681
1.040000 -7.120000 -7.000000 -10.173870 -45.316948 2157.133301
1.040000 -7.120000 -6.960000 15.334831 -50.641930 2799.761963
1.040000 -7.120000 -6.920000 38.212967 -39.894981 3051.840332
1.040000 -7.120000 -6.880000 49.023293 -19.556019 2785.721191
1.040000 -7.120000 -6.840000 45.870037 -0.240505 2104.118164
1.040000 -7.120000 -6.800000 34.568146 9.979395 1294.545044
1.040000 -7.080000 -7.200000 5.722154 16.908497 318.640320
1.040000 -7.080000 -7.160000 -16.005510 23.528282 809.756470
1.040000 -7.080000 -7.120000 -42.734718 5.469114 1856.167358
1.040000 -7.080000 -7.080000 -49.526634 -35.501595 3713.250488
1.040000 -7.080000 -7.040000 -21.504639 -75.737518 6198.621582
1.040000 -7.080000 -7.000000 30.873295 -86.986649 8519.837891
1.040000 -7.080000 -6.960000 77.888123 -59.588882 9617.394531
1.040000 -7.080000 -6.920000 93.488937 -10.639534 8853.380859
1.040000 -7.080000 -6.880000 74.840927 30.160883 6510.843262
1.040000 -7.080000 -6.840000 41.763260 43.824661 3664.770996
1.040000 -7.080000 -6.800000 18.258587 34.038544 1491.998413
1.040000 -7.040000 -7.200000 -2.357492 22.468702 510.400360
1.040000 -7.040000 -7.160000 -35.952591 16.156826 1553.631836
1.040000 -7.040000 -7.120000 -57.595657 -26.531120 4021.160156
1.040000 -7.040000 -7.080000 -35.326614 -83.608597 8238.367188
1.040000 -7.040000 -7.040000 31.253571 -111.500336 13409.111328
1.040000 -7.040000 -7.000000 104.322235 -81.927155 17595.187500
1.040000 -7.040000 -6.960000 136.557892 -8.666603 18723.167969
1.040000 -7.040000 -6.920000 110.223946 62.114880 16007.576172
1.040000 -7.040000 -6.880000 50.505733 89.899765 10632.796875
1.040000 -7.040000 -6.840000 1.524073 71.086189 5055.568848
1.040000 -7.040000 -6.800000 -11.234713 35.947075 1418.410889
1.040000 -7.000000 -7.200000 -13.116830 21.185101 620.859680
1.040000 -7.000000 -7.160000 -44.970123 -5.277375 2050.162598
1.040000 -7.000000 -7.120000 -41.877464 -62.967560 5718.635742
1.040000 -7.000000 -7.080000 16.492832 -108.180183 11974.965820
1.040000 -7.000000 -7.040000 102.327499 -94.263062 19356.441406
1.040000 -7.000000 -7.000000 156.768707 -16.425690 24846.230469
1.040000 -7.000000 -6.960000 139.376831 78.533730 25593.447266
1.040000 -7.000000 -6.920000 63.925541 129.808838 20936.808594
1.040000 -7.000000 -6.880000 -14.108227 113.338898 13044.748047
1.040000 -7.000000 -6.840000 -46.304844 58.212906 5532.880859
1.040000 -7.000000 -6.800000 -29.652973 15.310709 1113.716675
1.040000 -6.960000 -7.200000 -20.020653 14.565166 612.970581
1.040000 -6.960000 -7.160000 -36.231041 -25.166573 1946.044678
1.040000 -6.960000 -7.120000 -4.395498 -75.697159 5749.380371
1.040000 -6.960000 -7.080000 71.174255 -85.813240 12429.686523
1.040000 -6.960000 -7.040000 139.653870 -27.744848 20272.980469
1.040000 -6.960000 -7.000000 144.679413 70.245186 25866.519531
1.040000 -6.960000 -6.960000 76.109741 142.771820 26176.486328
1.040000 -6.960000 -6.920000 -18.336304 142.970230 20776.707031
1.040000 -6.960000 -6.880000 -74.542953 82.202835 12313.958008
1.040000 -6.960000 -6.840000 -66.924805 16.054821 4736.687012
1.040000 -6.960000 -6.800000 -24.753185 -8.143751 679.040833
1.040000 -6.920000 -7.200000 -22.081486 8.461971 559.196960
1.040000 -6.920000 -7.160000 -20.100208 -30.360600 1325.784424
1.040000 -6.920000 -7.120000 25.857637 -57.913746 4022.619385
1.040000 -6.920000 -7.080000 89.602661 -33.857624 9174.975586
1.040000 -6.920000 -7.040000 117.169876 41.360786 15439.495117
1.040000 -6.920000 -7.000000 76.322395 118.764496 19930.113281
1.040000 -6.920000 -6.960000 -9.830387 141.361511 20079.712891
1.040000 -6.920000 -6.920000 -80.595856 95.405304 15597.863281
1.040000 -6.920000 -6.880000 -91.257004 22.061602 8814.554688
1.040000 -6.920000 -6.840000 -50.533676 -21.927423 3034.464355
1.040000 -6.920000 -6.800000 -6.544315 -15.185007 273.412506
1.040000 -6.880000 -7.200000 -24.031883 5.246039 605.052368
1.040000 -6.880000 -7.160000 -12.335707 -24.000082 728.173645
1.040000 -6.880000 -7.120000 28.907650 -30.725418 1779.703613
1.040000 -6.880000 -7.080000 65.858582 6.060417 4374.081055
1.040000 -6.880000 -7.040000 59.244858 66.433548 7923.369629
1.040000 -6.880000 -7.000000 4.385143 103.241135 10677.960938
1.040000 -6.880000 -6.960000 -60.310768 85.374924 10926.265625
1.040000 -6.880000 -6.920000 -87.216858 27.748352 8376.750977
1.040000 -6.880000 -6.880000 -62.889675 -22.700325 4470.416016
1.040000 -6.880000 -6.840000 -17.958813 -31.158144 1293.348877
1.040000 -6.880000 -6.800000 5.215954 -4.936565 51.575851
1.040000 -6.840000 -7.200000 -29.253681 0.754096 856.346558
1.040000 -6.840000 -7.160000 -16.610790 -21.003740 717.075439
1.040000 -6.840000 -7.120000 13.059357 -20.476732 589.843384
1.040000 -6.840000 -7.080000 30.808889 8.678913 1024.511230
1.040000 -6.840000 -7.040000 15.453773 43.169632 2102.436279
1.040000 -6.840000 -7.000000 -23.455231 51.561668 3208.753418
1.040000 -6.840000 -6.960000 -53.460258 25.493614 3507.923584
1.040000 -6.840000 -6.920000 -50.577454 -11.783783 2696.936523
1.040000 -6.840000 -6.880000 -22.095955 -28.569105 1304.425049
1.040000 -6.840000 -6.840000 2.352255 -15.480618 245.182617
1.040000 -6.840000 -6.800000 1.275023 7.540297 58.481754
1.040000 -6.800000 -7.200000 -34.114864 -10.246769 1268.820312
1.040000 -6.800000 -7.160000 -20.977028 -30.550570 1373.373047
1.040000 -6.800000 -7.120000 3.847059 -31.676493 1018.200073
1.040000 -6.800000 -7.080000 18.849060 -12.844261 520.262146
1.040000 -6.800000 -7.040000 12.666393 8.241840 228.365448
1.040000 -6.800000 -7.000000 -5.497492 13.685589 217.517761
1.040000 -6.800000 -6.960000 -16.749752 2.836723 288.601196
1.040000 -6.800000 -6.920000 -12.359413 -9.046755 234.598877
1.040000 -6.800000 -6.880000 -1.482487 -8.377172 72.374786
1.040000 -6.800000 -6.840000 0.538946 2.442278 6.255184
1.040000 -6.800000 -6.800000 -10.440605 8.875093 187.773514
1.080000 -7.200000 -7.200000 -7.765741 3.785957 74.640205
1.080000 -7.200000 -7.160000 -3.383638 -6.298330 51.117970
1.080000 -7.200000 -7.120000 6.280750 -9.411645 128.026886
1.080000 -7.200000 -7.080000 14.356056 -4.468692 226.065552
1.080000 -7.200000 -7.040000 15.798187 4.340544 268.423035
1.080000 -7.200000 -7.000000 10.482711 10.858452 227.793213
1.080000 -7.200000 -6.960000 2.714861 11.281391 134.640259
1.080000 -7.200000 -6.920000 -2.229038 6.451273 46.587536
1.080000 -7.200000 -6.880000 -1.974567 0.674089 4.353313
1.080000 -7.200000 -6.840000 1.568702 -1.968521 6.335900
1.080000 -7.200000 -6.800000 4.339362 -0.903446 19.646275
1.080000 -7.160000 -7.200000 2.377991 -1.378580 7.555323
1.080000 -7.160000 -7.160000 7.241266 2.180711 57.191437
1.080000 -7.160000 -7.120000 5.393288 7.167259 80.457153
1.080000 -7.160000 -7.080000 -0.724466 7.126255 51.308365
1.080000 -7.160000 -7.040000 -4.696321 0.796558 22.689930
1.080000 -7.160000 -7.000000 -2.164970 -7.386252 59.243820
1.080000 -7.160000 -6.960000 5.851036 -11.660456 170.200851
1.080000 -7.160000 -6.920000 14.557707 -9.511677 302.398834
1.080000 -7.160000 -6.880000 19.452900 -2.789400 386.196075
1.080000 -7.160000 -6.840000 19.052689 4.458086 382.879486
1.080000 -7.160000 -6.800000 14.989878 8.803029 302.189758
1.080000 -7.120000 -7.200000 10.372769 7.723049 167.239838
1.080000 -7.120000 -7.160000 1.362873 18.424269 341.311096
1.080000 -7.120000 -7.120000 -15.863529 14.605051 464.959076
1.080000 -7.120000 -7.080000 -24.459173 -5.584059 629.432861
1.080000 -7.120000 -7.040000 -13.077917 -28.530466 985.019409
1.080000 -7.120000 -7.000000 13.527046 -36.726677 1531.829712
1.080000 -7.120000 -6.960000 38.505962 -23.674843 2043.207275
1.080000 -7.120000 -6.920000 47.100052 1.462715 2220.554443
1.080000 -7.120000 -6.880000 37.677109 22.694986 1934.626953
1.080000 -7.120000 -6.840000 20.565956 30.144772 1331.665771
1.080000 -7.120000 -6.800000 7.821692 25.624153 717.776123
1.080000 -7.080000 -7.200000 4.328267 21.307972 472.763550
1.080000 -7.080000 -7.160000 -20.467266 22.390068 920.224121
1.080000 -7.080000 -7.120000 -39.016037 -3.670582 1535.724243
1.080000 -7.080000 -7.080000 -28.041296 -41.476093 2506.580566
1.080000 -7.080000 -7.040000 12.943075 -61.004761 3889.104004
1.080000 -7.080000 -7.000000 58.668217 -43.526466 5336.512695
1.080000 -7.080000 -6.960000 78.594421 1.618217 6179.701660
1.080000 -7.080000 -6.920000 62.059681 44.999756 5876.381836
1.080000 -7.080000 -6.880000 25.183746 61.842148 4458.672363
1.080000 -7.080000 -6.840000 -5.232185 50.430660 2570.627197
1.080000 -7.080000 -6.800000 -14.215540 28.839287 1033.786011
1.080000 -7.040000 -7.200000 -12.543483 24.343269 749.933716
1.080000 -7.040000 -7.160000 -39.324982 4.680034 1568.356934
1.080000 -7.040000 -7.120000 -38.522545 -38.740730 2984.830566
1.080000 -7.040000 -7.080000 3.353346 -72.045067 5201.736816
1.080000 -7.040000 -7.040000 64.180435 -61.962090 7958.428711
1.080000 -7.040000 -7.000000 101.477585 -6.932039 10345.752930
1.080000 -7.040000 -6.960000 88.014160 58.796844 11203.560547
1.080000 -7.040000 -6.920000 34.909420 93.232224 9910.915039
1.080000 -7.040000 -6.880000 -19.217575 80.942261 6920.964844
1.080000 -7.040000 -6.840000 -41.885040 42.332317 3546.381836
1.080000 -7.040000 -6.800000 -31.329849 11.476521 1113.270020
1.080000 -7.000000 -7.200000 -25.610897 12.832539 820.592041
1.080000 -7.000000 -7.160000 -37.269348 -22.180004 1880.956787
1.080000 -7.000000 -7.120000 -9.038495 -62.251534 3956.947754
1.080000 -7.000000 -7.080000 51.510777 -67.520279 7212.348633
1.080000 -7.000000 -7.040000 103.072777 -19.771477 11014.908203
1.080000 -7.000000 -7.000000 103.818115 56.195465 13936.130859
1.080000 -7.000000 -6.960000 48.900375 110.029076 14497.644531
1.080000 -7.000000 -6.920000 -23.867769 107.859474 12203.335938
1.080000 -7.000000 -6.880000 -66.444504 59.877460 8000.182617
1.080000 -7.000000 -6.840000 -60.511086 8.098537 3727.177979
1.080000 -7.000000 -6.800000 -27.977390 -12.433538 937.327271
1.080000 -6.960000 -7.200000 -24.989874 -2.298244 629.775696
1.080000 -6.960000 -7.160000 -16.630066 -36.136547 1582.409058
1.080000 -6.960000 -7.120000 26.894423 -54.489159 3692.378418
1.080000 -6.960000 -7.080000 79.653465 -27.670298 7110.319824
1.080000 -6.960000 -7.040000 97.596863 38.838257 11033.557617
1.080000 -6.960000 -7.000000 58.032265 102.361237 13845.566406
1.080000 -6.960000 -6.960000 -16.540892 117.407547 14058.133789
1.080000 -6.960000 -6.920000 -75.446617 75.456322 11385.847656
1.080000 -6.960000 -6.880000 -83.111679 11.887359 7048.860352
1.080000 -6.960000 -6.840000 -47.692814 -26.696745 2987.320801
1.080000 -6.960000 -6.800000 -8.699894 -22.862381 598.376648
1.080000 -6.920000 -7.200000 -16.058628 -7.961044 321.257751
1.080000 -6.920000 -7.160000 2.232673 -28.807961 834.883362
1.080000 -6.920000 -7.120000 40.552692 -24.989206 2268.981445
1.080000 -6.920000 -7.080000 67.690651 15.808619 4831.937012
1.080000 -6.920000 -7.040000 52.640724 71.443787 7875.260742
1.080000 -6.920000 -7.000000 -3.580242 100.124748 10037.783203
1.080000 -6.920000 -6.960000 -64.048668 77.475914 10104.749023
1.080000 -6.920000 -6.920000 -86.767960 20.090557 7932.309082
1.080000 -6.920000 -6.880000 -61.578697 -28.736883 4617.744629
1.080000 -6.920000 -6.840000 -17.239443 -37.907654 1734.188599
1.080000 -6.920000 -6.800000 7.668926 -14.164963 259.458588
1.080000 -6.880000 -7.200000 -12.484885 -3.865212 170.812225
1.080000 -6.880000 -7.160000 2.829961 -14.169197 208.774826
1.080000 -6.880000 -7.120000 25.994984 -3.059391 685.099060
1.080000 -6.880000 -7.080000 31.892338 29.493237 1886.972168
1.080000 -6.880000 -7.040000 6.005322 59.203384 3541.104736
1.080000 -6.880000 -7.000000 -37.637608 58.433250 4831.034180
1.080000 -6.880000 -6.960000 -66.349411 23.648792 4961.509766
1.080000 -6.880000 -6.920000 -58.660988 -19.153439 3807.965820
1.080000 -6.880000 -6.880000 -24.478325 -38.009506 2043.910889
1.080000 -6.880000 -6.840000 5.095791 -24.407257 621.681274
1.080000 -6.880000 -6.800000 8.015478 0.871044 65.006607
1.080000 -6.840000 -7.200000 -19.673107 -2.600689 393.794739
1.080000 -6.840000 -7.160000 -9.624142 -12.877259 258.447906
1.080000 -6.840000 -7.120000 5.457905 -7.549256 86.779999
1.080000 -6.840000 -7.080000 8.062511 10.348792 172.101593
1.080000 -6.840000 -7.040000 -7.686665 23.063883 591.027527
1.080000 -6.840000 -7.000000 -28.550905 16.255756 1079.403809
1.080000 -6.840000 -6.960000 -34.982121 -5.496677 1253.962280
1.080000 -6.840000 -6.920000 -21.183912 -22.771912 967.318115
1.080000 -6.840000 -6.880000 -1.031990 -21.057787 444.495392
1.080000 -6.840000 -6.840000 6.532513 -5.277469 70.525398
1.080000 -6.840000 -6.800000 -2.984275 6.252390 47.998276
1.080000 -6.800000 -7.200000 -27.474144 -14.522192 965.722656
1.080000 -6.800000 -7.160000 -14.107189 -29.124485 1047.248413
1.080000 -6.800000 -7.120000 5.265749 -27.851425 803.429993
1.080000 -6.800000 -7.080000 15.554962 -13.440952 422.616028
1.080000 -6.800000 -7.040000 11.518457 0.807472 133.326874
1.080000 -6.800000 -7.000000 1.069268 4.735111 23.564613
1.080000 -6.800000 -6.960000 -4.686779 0.163641 21.992678
1.080000 -6.800000 -6.920000 -3.083809 -3.635112 22.723915
1.080000 -6.800000 -6.880000 -0.770437 -1.593912 3.134130
1.080000 -6.800000 -6.840000 -4.069220 1.880762 20.095814
1.080000 -6.800000 -6.800000 -10.664641 -0.613997 114.111565
1.120000 -7.200000 -7.200000 -5.030201 -10.393393 133.325531
1.120000 -7.200000 -7.160000 10.534284 -7.565075 168.201492
1.120000 -7.200000 -7.120000 16.115707 4.832724 283.071259
1.120000 -7.200000 -7.080000 10.201267 14.418060 311.946320
1.120000 -7.200000 -7.040000 1.506330 14.601473 215.472031
1.120000 -7.200000 -7.000000 -1.401066 9.356647 89.509834
1.120000 -7.200000 -6.960000 1.574121 6.861654 49.560154
1.120000 -7.200000 -6.920000 3.810208 10.077972 116.083214
1.120000 -7.200000 -6.880000 0.440708 14.410246 207.849411
1.120000 -7.200000 -6.840000 -6.357331 13.820683 231.426926
1.120000 -7.200000 -6.800000 -10.391815 7.712156 167.467178
1.120000 -7.160000 -7.200000 10.688719 -5.248240 141.792740
1.120000 -7.160000 -7.160000 13.931406 10.949750 313.981110
1.120000 -7.160000 -7.120000 2.074544 20.650946 430.765289
1.120000 -7.160000 -7.080000 -11.464725 14.836808 351.570801
1.120000 -7.160000 -7.040000 -12.795493 0.310878 163.821289
1.120000 -7.160000 -7.000000 -0.917944 -8.187570 67.878914
1.120000 -7.160000 -6.960000 12.542862 -2.781061 165.057678
1.120000 -7.160000 -6.920000 15.645014 10.907431 363.738525
1.120000 -7.160000 -6.880000 7.163153 20.741343 481.514038
1.120000 -7.160000 -6.840000 -4.105965 20.098213 420.797119
1.120000 -7.160000 -6.800000 -9.199651 12.600067 243.395264
1.120000 -7.120000 -7.200000 12.887350 12.456835 321.256531
1.120000 -7.120000 -7.160000 -3.059472 25.230309 645.928833
1.120000 -7.120000 -7.120000 -23.011381 16.580742 804.444702
1.120000 -7.120000 -7.080000 -26.105831 -7.040990 731.089966
1.120000 -7.120000 -7.040000 -6.778370 -24.270519 635.004395
1.120000 -7.120000 -7.000000 19.954741 -18.931667 756.599731
1.120000 -7.120000 -6.960000 32.726665 5.363102 1099.797485
1.120000 -7.120000 -6.920000 23.004604 29.685997 1410.470215
1.120000 -7.120000 -6.880000 0.895599 37.577507 1412.871216
1.120000 -7.120000 -6.840000 -16.238588 28.251719 1061.851318
1.120000 -7.120000 -6.800000 -19.467308 13.849410 570.782227
1.120000 -7.080000 -7.200000 -3.086478 24.040474 587.470764
1.120000 -7.080000 -7.160000 -27.496017 17.984278 1079.465210
1.120000 -7.080000 -7.120000 -36.052818 -9.833023 1396.494019
1.120000 -7.080000 -7.080000 -15.436173 -36.158951 1545.745117
1.120000 -7.080000 -7.040000 21.698008 -36.007332 1767.331543
1.120000 -7.080000 -7.000000 46.845543 -5.696957 2226.960205
1.120000 -7.080000 -6.960000 40.646072 33.490814 2773.737793
1.120000 -7.080000 -6.920000 9.053810 54.204971 3020.150391
1.120000 -7.080000 -6.880000 -23.705505 46.024483 2680.203857
1.120000 -7.080000 -6.840000 -37.138470 21.432327 1838.610596
1.120000 -7.080000 -6.800000 -29.984632 1.454681 901.194275
1.120000 -7.040000 -7.200000 -22.607731 16.255020 775.335205
1.120000 -7.040000 -7.160000 -36.577614 -8.011305 1402.102905
1.120000 -7.040000 -7.120000 -21.752075 -38.616833 1964.412598
1.120000 -7.040000 -7.080000 17.363523 -46.832630 2494.787109
1.120000 -7.040000 -7.040000 52.628532 -19.176168 3137.487793
1.120000 -7.040000 -7.000000 55.467098 28.461134 3886.635010
1.120000 -7.040000 -6.960000 21.895271 63.016144 4450.437500
1.120000 -7.040000 -6.920000 -24.060993 61.996593 4422.508789
1.120000 -7.040000 -6.880000 -51.498684 31.213528 3626.398926
1.120000 -7.040000 -6.840000 -48.033112 -3.045358 2316.453857
1.120000 -7.040000 -6.800000 -26.519329 -18.249401 1036.315430
1.120000 -7.000000 -7.200000 -26.925091 -4.115673 741.899292
1.120000 -7.000000 -7.160000 -20.956219 -30.755936 1385.090698
1.120000 -7.000000 -7.120000 10.335146 -44.966530 2128.803955
1.120000 -7.000000 -7.080000 47.393978 -27.164143 2984.079834
1.120000 -7.000000 -7.040000 60.175846 17.582741 3930.285400
1.120000 -7.000000 -7.000000 34.124100 60.085228 4774.688965
1.120000 -7.000000 -6.960000 -15.422226 70.186996 5164.059570
1.120000 -7.000000 -6.920000 -54.970490 42.142673 4797.759766
1.120000 -7.000000 -6.880000 -60.692223 -1.221519 3685.038086
1.120000 -7.000000 -6.840000 -36.799404 -29.221609 2208.098633
1.120000 -7.000000 -6.800000 -8.318568 -29.008144 910.671021
1.120000 -6.960000 -7.200000 -13.427950 -17.337412 480.895691
1.120000 -6.960000 -7.160000 4.556330 -30.863350 973.306519
1.120000 -6.960000 -7.120000 33.187103 -24.037838 1679.201416
1.120000 -6.960000 -7.080000 50.281826 7.644056 2586.693604
1.120000 -6.960000 -7.040000 36.930397 46.773800 3551.642578
1.120000 -6.960000 -7.000000 -3.829726 65.299591 4278.703613
1.120000 -6.960000 -6.960000 -46.254089 48.002373 4443.668457
1.120000 -6.960000 -6.920000 -62.089790 6.655044 3899.431641
1.120000 -6.960000 -6.880000 -44.125206 -29.361513 2809.132324
1.120000 -6.960000 -6.840000 -11.113305 -38.079517 1573.555176
1.120000 -6.960000 -6.800000 10.369390 -22.243738 602.308105
1.120000 -6.920000 -7.200000 1.531495 -12.355387 155.001053
1.120000 -6.920000 -7.160000 15.720150 -11.971124 390.430908
1.120000 -6.920000 -7.120000 28.642426 3.123355 830.143921
1.120000 -6.920000 -7.080000 25.927803 28.340828 1475.453491
1.120000 -6.920000 -7.040000 2.121696 46.629745 2178.834961
1.120000 -6.920000 -7.000000 -30.753281 41.550453 2672.204590
1.120000 -6.920000 -6.960000 -50.456364 13.032045 2715.678955
1.120000 -6.920000 -6.920000 -43.117229 -20.149307 2265.090088
1.120000 -6.920000 -6.880000 -15.920437 -35.524857 1515.475708
1.120000 -6.920000 -6.840000 9.168603 -26.282776 774.847595
1.120000 -6.920000 -6.800000 15.294298 -6.124171 271.421021
1.120000 -6.880000 -7.200000 1.016479 0.847734 1.751884
1.120000 -6.880000 -7.160000 4.434576 2.829122 27.669394
1.120000 -6.880000 -7.120000 5.944264 10.302227 141.470154
1.120000 -6.880000 -7.080000 -0.755758 19.570272 383.566742
1.120000 -6.880000 -7.040000 -15.611927 21.403397 701.837646
1.120000 -6.880000 -7.000000 -29.205153 9.931004 951.565735
1.120000 -6.880000 -6.960000 -30.000031 -9.552273 991.247742
1.120000 -6.880000 -6.920000 -15.786167 -23.376740 795.674988
1.120000 -6.880000 -6.880000 2.823870 -21.715187 479.523590
1.120000 -6.880000 -6.840000 11.730939 -8.171523 204.388718
1.120000 -6.880000 -6.800000 6.758520 3.699634 59.364880
1.120000 -6.840000 -7.200000 -12.922538 2.427502 172.884750
1.120000 -6.840000 -7.160000 -12.297325 -4.237665 169.182022
1.120000 -6.840000 -7.120000 -7.561970 -7.036674 106.698166
1.120000 -6.840000 -7.080000 -4.157408 -5.197148 44.294388
1.120000 -6.840000 -7.040000 -4.825232 -3.014719 32.371391
1.120000 -6.840000 -7.000000 -6.728036 -4.384638 64.491524
1.120000 -6.840000 -6.960000 -5.313915 -7.957793 91.564171
1.120000 -6.840000 -6.920000 -0.293125 -8.827581 78.012115
1.120000 -6.840000 -6.880000 3.593619 -4.824978 36.194511
1.120000 -6.840000 -6.840000 2.273829 0.260960 5.238398
1.120000 -6.840000 -6.800000 -2.229685 0.869499 5.727523
1.120000 -6.800000 -7.200000 -20.613384 -14.318976 629.944702
1.120000 -6.800000 -7.160000 -10.477491 -25.744431 772.553528
1.120000 -6.800000 -7.120000 5.080923 -26.858536 747.196716
1.120000 -6.800000 -7.080000 16.745144 -17.454899 585.073364
1.120000 -6.800000 -7.040000 18.903843 -4.168789 374.734100
1.120000 -6.800000 -7.000000 12.980825 5.444918 198.148956
1.120000 -6.800000 -6.960000 4.544037 8.294696 89.450249
1.120000 -6.800000 -6.920000 -1.837833 6.043857 39.905834
1.120000 -6.800000 -6.880000 -4.790702 1.687687 25.799112
1.120000 -6.800000 -6.840000 -4.593131 -2.884597 29.417751
1.120000 -6.800000 -6.800000 -1.438765 -6.282952 41.545532
1.160000 -7.200000 -7.200000 7.415348 -14.093914 253.625793
1.160000 -7.200000 -7.160000 18.298561 4.152966 352.084473
1.160000 -7.200000 -7.120000 9.443697 21.118805 535.187378
1.160000 -7.200000 -7.080000 -7.200773 22.124342 541.337646
1.160000 -7.200000 -7.040000 -14.480816 10.414319 318.152069
1.160000 -7.200000 -7.000000 -7.868560 1.477231 64.096451
1.160000 -7.200000 -6.960000 1.438725 5.427508 31.527771
1.160000 -7.200000 -6.920000 0.161613 16.742388 280.333679
1.160000 -7.200000 -6.880000 -12.430225 21.490662 616.359009
1.160000 -7.200000 -6.840000 -24.479834 12.979462 767.728699
1.160000 -7.200000 -6.800000 -24.939562 -1.571681 624.451904
1.160000 -7.160000 -7.200000 17.338650 1.130543 301.906921
1.160000 -7.160000 -7.160000 8.759523 22.582342 586.691406
1.160000 -7.160000 -7.120000 -12.872965 25.934124 838.291992
1.160000 -7.160000 -7.080000 -25.813560 9.980733 765.954956
1.160000 -7.160000 -7.040000 -18.716394 -7.741985 410.241730
1.160000 -7.160000 -7.000000 -0.886275 -9.537142 91.742561
1.160000 -7.160000 -6.960000 8.583414 5.080604 99.487534
1.160000 -7.160000 -6.920000 0.414694 20.505651 420.653717
1.160000 -7.160000 -6.880000 -16.876953 21.892702 764.121948
1.160000 -7.160000 -6.840000 -27.390648 9.321381 837.135742
1.160000 -7.160000 -6.800000 -24.061939 -4.556866 599.741943
1.160000 -7.120000 -7.200000 8.598046 18.469700 415.056213
1.160000 -7.120000 -7.160000 -14.335442 26.044561 883.824036
1.160000 -7.120000 -7.120000 -32.775387 10.250177 1179.292114
1.160000 -7.120000 -7.080000 -29.019238 -13.776931 1031.919922
1.160000 -7.120000 -7.040000 -6.789860 -23.280430 588.080566
1.160000 -7.120000 -7.000000 12.953279 -9.718154 262.229950
1.160000 -7.120000 -6.960000 12.454394 13.952756 349.791321
1.160000 -7.120000 -6.920000 -6.785717 26.783232 763.387451
1.160000 -7.120000 -6.880000 -27.408382 19.507862 1131.776123
1.160000 -7.120000 -6.840000 -33.788418 1.040443 1142.739746
1.160000 -7.120000 -6.800000 -25.312769 -12.642929 800.579956
1.160000 -7.080000 -7.200000 -11.785964 19.805946 531.184448
1.160000 -7.080000 -7.160000 -32.028034 8.176159 1092.644531
1.160000 -7.080000 -7.120000 -33.365654 -16.625477 1389.673340
1.160000 -7.080000 -7.080000 -12.589642 -32.463139 1212.354370
1.160000 -7.080000 -7.040000 13.156879 -24.314495 764.298096
1.160000 -7.080000 -7.000000 21.760210 1.742877 476.544373
1.160000 -7.080000 -6.960000 6.053667 24.193327 621.963989
1.160000 -7.080000 -6.920000 -20.622520 25.590530 1080.163574
1.160000 -7.080000 -6.880000 -37.529743 7.047462 1458.148315
1.160000 -7.080000 -6.840000 -34.762756 -15.102317 1436.529175
1.160000 -7.080000 -6.800000 -19.459555 -25.365906 1022.103455
1.160000 -7.040000 -7.200000 -23.638556 2.510898 565.085938
1.160000 -7.040000 -7.160000 -27.780794 -17.225754 1068.499146
1.160000 -7.040000 -7.120000 -12.646738 -33.997887 1315.796265
1.160000 -7.040000 -7.080000 11.966797 -32.027580 1168.970093
1.160000 -7.040000 -7.040000 26.518742 -10.198689 807.256897
1.160000 -7.040000 -7.000000 18.310120 15.693782 581.555237
1.160000 -7.040000 -6.960000 -7.211119 25.812950 718.308655
1.160000 -7.040000 -6.920000 -30.974506 12.948805 1127.091553
1.160000 -7.040000 -6.880000 -36.474953 -12.115770 1477.213989
1.160000 -7.040000 -6.840000 -22.815643 -30.859955 1472.890381
1.160000 -7.040000 -6.800000 -3.309402 -32.767685 1084.673340
1.160000 -7.000000 -7.200000 -14.693935 -16.379314 484.193695
1.160000 -7.000000 -7.160000 -5.024662 -27.814388 798.887451
1.160000 -7.000000 -7.120000 12.421563 -28.147587 946.581848
1.160000 -7.000000 -7.080000 25.870657 -13.797632 859.665527
1.160000 -7.000000 -7.040000 24.076790 7.565742 636.932312
1.160000 -7.000000 -7.000000 5.941954 21.210720 485.201477
1.160000 -7.000000 -6.960000 -17.007717 16.538155 562.773010
1.160000 -7.000000 -6.920000 -28.804119 -3.841254 844.432556
1.160000 -7.000000 -6.880000 -21.694801 -25.606178 1126.340820
1.160000 -7.000000 -6.840000 -2.269773 -34.258015 1178.763428
1.160000 -7.000000 -6.800000 14.658089 -26.671791 926.244019
1.160000 -6.960000 -7.200000 5.530832 -17.682770 343.270477
1.160000 -6.960000 -7.160000 14.615957 -14.996398 438.518158
1.160000 -6.960000 -7.120000 20.581911 -6.253540 462.721802
1.160000 -6.960000 -7.080000 19.522812 5.578323 412.257874
1.160000 -6.960000 -7.040000 9.936153 14.746680 316.191711
1.160000 -6.960000 -7.000000 -4.677082 14.850039 242.398758
1.160000 -6.960000 -6.960000 -15.895650 3.731019 266.592194
1.160000 -6.960000 -6.920000 -15.583607 -12.917043 409.698792
1.160000 -6.960000 -6.880000 -2.976296 -24.259220 597.368103
1.160000 -6.960000 -6.840000 13.406260 -22.730759 696.415161
1.160000 -6.960000 -6.800000 22.325294 -10.764101 614.284607
1.160000 -6.920000 -7.200000 15.340380 -1.063896 236.459137
1.160000 -6.920000 -7.160000 12.736593 6.390945 203.065002
1.160000 -6.920000 -7.120000 6.925894 9.467359 137.598892
1.160000 -6.920000 -7.080000 1.873010 8.842186 81.692413
1.160000 -6.920000 -7.040000 -1.757952 6.741351 48.536209
1.160000 -6.920000 -7.000000 -4.735299 3.233796 32.880493
1.160000 -6.920000 -6.960000 -5.710382 -2.653179 39.647827
1.160000 -6.920000 -6.920000 -1.856382 -9.153567 87.233948
1.160000 -6.920000 -6.880000 6.701223 -11.472673 176.528625
1.160000 -6.920000 -6.840000 14.877993 -6.592916 264.821198
1.160000 -6.920000 -6.800000 16.801453 2.432911 288.207886
1.160000 -6.880000 -7.200000 4.581083 13.966207 216.041260
1.160000 -6.880000 -7.160000 -6.327648 12.843718 205.000214
1.160000 -6.880000 -7.120000 -11.566727 3.535047 146.285721
1.160000 -6.880000 -7.080000 -7.473597 -5.350490 84.482384
1.160000 -6.880000 -7.040000 0.694998 -7.035369 49.979435
1.160000 -6.880000 -7.000000 5.469118 -2.742055 37.430119
1.160000 -6.880000 -6.960000 4.911214 1.395261 26.066778
1.160000 -6.880000 -6.920000 2.998361 1.835526 12.359323
1.160000 -6.880000 -6.880000 3.623950 0.622725 13.520796
1.160000 -6.880000 -6.840000 6.145533 1.423490 39.793892
1.160000 -6.880000 -6.800000 7.323626 4.623564 75.012833
1.160000 -6.840000 -7.200000 -13.407620 9.334415 266.895599
1.160000 -6.840000 -7.160000 -19.357264 -2.802213 382.556030
1.160000 -6.840000 -7.120000 -12.795177 -16.522812 436.719910
1.160000 -6.840000 -7.080000 2.724775 -20.446480 425.482941
1.160000 -6.840000 -7.040000 15.587976 -11.374498 372.364227
1.160000 -6.840000 -7.000000 16.973942 2.966116 296.912567
1.160000 -6.840000 -6.960000 8.362574 11.676277 206.268097
1.160000 -6.840000 -6.920000 -1.270507 10.420399 110.198898
1.160000 -6.840000 -6.880000 -4.404761 3.714483 33.199310
1.160000 -6.840000 -6.840000 -0.747160 -0.959119 1.478158
1.160000 -6.840000 -6.800000 4.673566 0.091281 21.850550
1.160000 -6.800000 -7.200000 -15.783634 -10.746493 364.610229
1.160000 -6.800000 -7.160000 -8.869099 -22.657467 592.021667
1.160000 -6.800000 -7.120000 7.220836 -27.028368 782.673157
1.160000 -6.800000 -7.080000 23.427296 -17.915770 869.812988
1.160000 -6.800000 -7.040000 28.719555 0.549063 825.114258
1.160000 -6.800000 -7.000000 19.675581 16.637159 663.923584
1.160000 -6.800000 -6.960000 3.576008 20.597530 437.046112
1.160000 -6.800000 -6.920000 -7.858747 12.360638 214.545288
1.160000 -6.800000 -6.880000 -7.947254 0.672550 63.611164
1.160000 -6.800000 -6.840000 0.575612 -4.694241 22.367224
1.160000 -6.800000 -6.800000 9.103909 -0.319366 82.983162
1.200000 -7.200000 -7.200000 15.924446 -6.009032 289.696442
1.200000 -7.200000 -7.160000 12.660608 16.445356 430.740723
1.200000 -7.200000 -7.120000 -7.036162 24.597488 654.544006
1.200000 -7.200000 -7.080000 -22.595795 13.066723 681.309204
1.200000 -7.200000 -7.040000 -20.374655 -3.479448 427.233124
1.200000 -7.200000 -7.000000 -6.799250 -7.221732 98.383209
1.200000 -7.200000 -6.960000 0.202337 3.908501 15.317320
1.200000 -7.200000 -6.920000 -8.815212 15.273969 311.002075
1.200000 -7.200000 -6.880000 -25.184313 12.290134 785.297058
1.200000 -7.200000 -6.840000 -32.408855 -3.993096 1066.278687
1.200000 -7.200000 -6.800000 -24.004929 -19.001429 937.290894
1.200000 -7.160000 -7.200000 14.960167 10.120182 326.224670
1.200000 -7.160000 -7.160000 -4.304444 25.053797 646.221008
1.200000 -7.160000 -7.120000 -26.531189 16.800117 986.147949
1.200000 -7.160000 -7.080000 -31.146273 -5.056319 995.656616
1.200000 -7.160000 -7.040000 -16.337120 -18.808582 620.664246
1.200000 -7.160000 -7.000000 0.639418 -12.803319 164.333832
1.200000 -7.160000 -6.960000 2.103404 3.926686 19.843172
1.200000 -7.160000 -6.920000 -12.507171 12.512020 312.979980
1.200000 -7.160000 -6.880000 -27.794361 3.898516 787.724915
1.200000 -7.160000 -6.840000 -29.385448 -13.369936 1042.259766
1.200000 -7.160000 -6.800000 -17.804396 -23.889353 887.697632
1.200000 -7.120000 -7.200000 0.190049 18.624485 346.907562
1.200000 -7.120000 -7.160000 -23.474918 17.167830 845.806152
1.200000 -7.120000 -7.120000 -35.633965 -3.447419 1281.664062
1.200000 -7.120000 -7.080000 -25.931831 -24.562008 1275.752197
1.200000 -7.120000 -7.040000 -4.616694 -28.012032 805.987732
1.200000 -7.120000 -7.000000 8.126617 -13.155588 239.111420
1.200000 -7.120000 -6.960000 1.788434 3.784871 17.523741
1.200000 -7.120000 -6.920000 -15.598316 6.341081 283.516785
1.200000 -7.120000 -6.880000 -26.953751 -6.970983 775.099304
1.200000 -7.120000 -6.840000 -23.017994 -23.373793 1076.162231
1.200000 -7.120000 -6.800000 -9.421049 -29.777630 975.463379
1.200000 -7.080000 -7.200000 -14.983806 10.211967 328.798706
1.200000 -7.080000 -7.160000 -29.536194 -3.351849 883.621582
1.200000 -7.080000 -7.120000 -27.574791 -24.246679 1348.270508
1.200000 -7.080000 -7.080000 -9.920975 -35.717995 1374.200928
1.200000 -7.080000 -7.040000 8.954222 -29.061096 924.725403
1.200000 -7.080000 -7.000000 13.924836 -11.428535 324.512451
1.200000 -7.080000 -6.960000 2.663220 1.010518 8.113890
1.200000 -7.080000 -6.920000 -13.073601 -2.175989 175.653961
1.200000 -7.080000 -6.880000 -18.878626 -17.094044 648.608887
1.200000 -7.080000 -6.840000 -10.430237 -30.482494 1037.972290
1.200000 -7.080000 -6.800000 4.245572 -32.359951 1065.191284
1.200000 -7.040000 -7.200000 -14.873873 -7.355844 275.340515
1.200000 -7.040000 -7.160000 -16.792561 -20.142441 687.708008
1.200000 -7.040000 -7.120000 -7.901175 -31.873772 1078.365845
1.200000 -7.040000 -7.080000 7.707989 -33.777889 1200.358887
1.200000 -7.040000 -7.040000 19.671112 -23.587606 943.327820
1.200000 -7.040000 -7.000000 19.462366 -8.765461 455.617004
1.200000 -7.040000 -6.960000 8.203835 -1.049965 68.405327
1.200000 -7.040000 -6.920000 -3.628645 -6.414157 54.308472
1.200000 -7.040000 -6.880000 -5.127787 -19.582691 409.775970
1.200000 -7.040000 -6.840000 5.423218 -28.678360 851.859619
1.200000 -7.040000 -6.800000 19.291906 -25.879745 1041.938843
1.200000 -7.000000 -7.200000 1.297991 -15.622226 245.738724
1.200000 -7.000000 -7.160000 3.328195 -18.765549 363.222687
1.200000 -7.000000 -7.120000 8.298267 -22.491350 574.722107
1.200000 -7.000000 -7.080000 17.186861 -22.504654 801.847656
1.200000 -7.000000 -7.040000 25.067287 -15.155102 858.046021
1.200000 -7.000000 -7.000000 24.963688 -3.699134 636.869324
1.200000 -7.000000 -6.960000 16.081493 2.906268 267.060822
1.200000 -7.000000 -6.920000 6.544638 -1.159750 44.177303
1.200000 -7.000000 -6.880000 6.155159 -11.562042 171.566803
1.200000 -7.000000 -6.840000 16.166571 -17.161983 555.891724
1.200000 -7.000000 -6.800000 27.328270 -11.135508 870.833862
1.200000 -6.960000 -7.200000 17.014242 -4.727268 311.831512
1.200000 -6.960000 -7.160000 11.810531 -1.550714 141.893341
1.200000 -6.960000 -7.120000 9.047019 -6.710919 126.884995
1.200000 -6.960000 -7.080000 15.420481 -11.963377 380.913635
1.200000 -6.960000 -7.040000 25.537102 -7.863478 713.977844
1.200000 -6.960000 -7.000000 28.160702 4.252098 811.105469
1.200000 -6.960000 -6.960000 19.716127 13.190376 562.711670
1.200000 -6.960000 -6.920000 8.987919 10.707840 195.440521
1.200000 -6.960000 -6.880000 7.365328 1.154697 55.581379
1.200000 -6.960000 -6.840000 15.925097 -3.314416 264.594086
1.200000 -6.960000 -6.800000 24.260584 3.529325 601.032043
1.200000 -6.920000 -7.200000 15.268972 15.098229 461.098053
1.200000 -6.920000 -7.160000 0.914707 13.468660 182.241501
1.200000 -6.920000 -7.120000 -2.987329 -0.541653 9.217522
1.200000 -6.920000 -7.080000 8.972994 -10.418938 189.068878
1.200000 -6.920000 -7.040000 24.442623 -4.126629 614.470886
1.200000 -6.920000 -7.000000 27.358265 12.788244 912.013855
1.200000 -6.920000 -6.960000 15.423439 23.937059 810.865234
1.200000 -6.920000 -6.920000 1.667750 20.200912 410.858276
1.200000 -6.920000 -6.880000 -0.659708 8.742333 76.863602
1.200000 -6.920000 -6.840000 7.868985 3.668859 75.381454
1.200000 -6.920000 -6.800000 15.152775 10.124276 332.107544
1.200000 -6.880000 -7.200000 -2.745816 23.568321 563.005249
1.200000 -6.880000 -7.160000 -17.155363 10.491909 404.386658
1.200000 -6.880000 -7.120000 -12.412052 -9.764257 249.399750
1.200000 -6.880000 -7.080000 8.447620 -16.464302 342.435547
1.200000 -6.880000 -7.040000 25.760954 -2.287290 668.858459
1.200000 -6.880000 -7.000000 23.812614 19.428658 944.513306
1.200000 -6.880000 -6.960000 6.341373 29.212511 893.583801
1.200000 -6.880000 -6.920000 -8.920902 21.153309 527.044983
1.200000 -6.880000 -6.880000 -9.284036 6.997190 135.153992
1.200000 -6.880000 -6.840000 1.286947 1.950624 5.461169
1.200000 -6.880000 -6.800000 9.038252 9.180372 165.969238
1.200000 -6.840000 -7.200000 -18.056908 12.292514 477.157806
1.200000 -6.840000 -7.160000 -22.332680 -7.082952 548.916809
1.200000 -6.840000 -7.120000 -6.493824 -23.334778 586.681580
1.200000 -6.840000 -7.080000 17.821365 -19.623932 702.699768
1.200000 -6.840000 -7.040000 29.710842 2.517704 889.072937
1.200000 -6.840000 -7.000000 19.703777 24.465290 986.789246
1.200000 -6.840000 -6.960000 -1.565010 28.951572 840.642822
1.200000 -6.840000 -6.920000 -14.881367 16.089357 480.322510
1.200000 -6.840000 -6.880000 -11.182772 1.224728 126.554344
1.200000 -6.840000 -6.840000 1.663861 -1.417593 4.778004
1.200000 -6.840000 -6.800000 9.015825 8.503910 153.601593
1.200000 -6.800000 -7.200000 -14.254265 -5.247388 230.719147
1.200000 -6.800000 -7.160000 -8.214383 -19.331076 441.166565
1.200000 -6.800000 -7.120000 10.733506 -24.088493 695.463623
1.200000 -6.800000 -7.080000 28.965420 -10.780695 955.218933
1.200000 -6.800000 -7.040000 30.930555 13.018763 1126.187500
1.200000 -6.800000 -7.000000 14.601940 29.598976 1089.316040
1.200000 -6.800000 -6.960000 -6.275102 27.638052 803.238831
1.200000 -6.800000 -6.920000 -15.222309 12.391997 385.280273
1.200000 -6.800000 -6.880000 -8.024202 -0.244907 64.447807
1.200000 -6.800000 -6.840000 4.798405 1.034303 24.094475
1.200000 -6.800000 -6.800000 9.060173 13.509854 264.602905
