#kx 	ky 	kz 	real 	imag 	intensity
2.800000 0.800000 4.800000 -22.042274 8.240924 553.774719
2.800000 0.800000 4.840000 -22.776390 -0.488178 519.002258
2.800000 0.800000 4.880000 -19.006371 -8.572973 434.738007
2.800000 0.800000 4.920000 -11.883784 -13.959682 336.097076
2.800000 0.800000 4.960000 -2.990002 -15.590515 252.004272
2.800000 0.800000 5.000000 5.947861 -12.916922 202.223907
2.800000 0.800000 5.040000 12.756624 -6.037014 199.177002
2.800000 0.800000 5.080000 15.172386 3.521315 242.600967
2.800000 0.800000 5.120000 12.261358 12.753848 313.001556
2.800000 0.800000 5.160000 5.382879 18.682859 378.024628
2.800000 0.800000 5.200000 -2.641159 20.169758 413.794830
2.800000 0.840000 4.800000 -22.749531 -7.478278 573.465759
2.800000 0.840000 4.840000 -18.630482 -11.989687 490.847443
2.800000 0.840000 4.880000 -13.405327 -14.728009 396.617065
2.800000 0.840000 4.920000 -7.373106 -15.141196 283.618530
2.800000 0.840000 4.960000 -1.852984 -12.464511 158.797577
2.800000 0.840000 5.000000 0.937248 -7.388360 55.466297
2.800000 0.840000 5.040000 -0.047197 -2.618324 6.857850
2.800000 0.840000 5.080000 -2.984983 -0.867116 9.662016
2.800000 0.840000 5.120000 -4.399094 -1.972355 23.242208
2.800000 0.840000 5.160000 -2.731865 -2.591719 14.180092
2.800000 0.840000 5.200000 -0.564942 0.394291 0.474625
2.800000 0.880000 4.800000 -11.728677 -20.179295 544.765747
2.800000 0.880000 4.840000 -6.955381 -18.667377 396.848297
2.800000 0.880000 4.880000 -4.046575 -16.549255 290.252594
2.800000 0.880000 4.920000 -2.435380 -13.883194 198.674149
2.800000 0.880000 4.960000 -3.094222 -11.008066 130.751740
2.800000 0.880000 5.000000 -6.365630 -10.420861 149.115601
2.800000 0.880000 5.040000 -9.133490 -14.658583 298.294678
2.800000 0.880000 5.080000 -6.163404 -21.940254 519.362305
2.800000 0.880000 5.120000 4.263983 -25.394159 663.044922
2.800000 0.880000 5.160000 16.336781 -18.630535 613.987244
2.800000 0.880000 5.200000 20.018770 -3.029135 409.926819
2.800000 0.920000 4.800000 5.428475 -21.327862 484.346039
2.800000 0.920000 4.840000 6.673570 -15.333637 279.656982
2.800000 0.920000 4.880000 4.710607 -11.395097 152.038055
2.800000 0.920000 4.920000 0.911676 -9.896747 98.776749
2.800000 0.920000 4.960000 -4.008222 -12.180022 164.418777
2.800000 0.920000 5.000000 -6.744743 -20.074955 448.495361
2.800000 0.920000 5.040000 -1.426371 -31.352961 985.042664
2.800000 0.920000 5.080000 14.535530 -37.501671 1617.656982
2.800000 0.920000 5.120000 34.399105 -29.198776 2035.866943
2.800000 0.920000 5.160000 44.225281 -6.119781 1993.327271
2.800000 0.920000 5.200000 33.970093 19.201551 1522.666748
2.800000 0.960000 4.800000 17.884480 -9.821021 416.307068
2.800000 0.960000 4.840000 13.707535 -3.184150 198.035324
2.800000 0.960000 4.880000 7.149030 -1.490573 53.330437
2.800000 0.960000 4.920000 0.690467 -5.026908 25.746550
2.800000 0.960000 4.960000 -2.468749 -14.302469 210.655350
2.800000 0.960000 5.000000 3.003491 -27.049232 740.681885
2.800000 0.960000 5.040000 20.313416 -35.012589 1638.516235
2.800000 0.960000 5.080000 43.724155 -27.545742 2670.569580
2.800000 0.960000 5.120000 58.245766 -1.767569 3395.693604
2.800000 0.960000 5.160000 50.047058 30.582500 3439.997314
2.800000 0.960000 5.200000 19.759197 48.976631 2789.136230
2.800000 1.000000 4.800000 17.870384 6.402067 360.337097
2.800000 1.000000 4.840000 9.452502 9.817505 185.733200
2.800000 1.000000 4.880000 1.379302 6.557867 44.908089
2.800000 1.000000 4.920000 -2.741201 -2.502028 13.774326
2.800000 1.000000 4.960000 1.327286 -14.788213 220.452927
2.800000 1.000000 5.000000 16.541523 -23.343155 818.524902
2.800000 1.000000 5.040000 38.885574 -18.204521 1843.492432
2.800000 1.000000 5.080000 55.084007 5.344753 3062.814209
2.800000 1.000000 5.120000 50.158669 38.571236 4003.632324
2.800000 1.000000 5.160000 20.836729 61.483994 4214.450684
2.800000 1.000000 5.200000 -17.910484 57.186882 3591.124756
2.800000 1.040000 4.800000 6.824916 16.606003 322.338806
2.800000 1.040000 4.840000 -2.618524 14.917645 229.392792
2.800000 1.040000 4.880000 -8.182107 6.962414 115.422089
2.800000 1.040000 4.920000 -6.240829 -4.050704 55.356144
2.800000 1.040000 4.960000 5.262257 -12.277291 178.423233
2.800000 1.040000 5.000000 23.461193 -9.688388 644.292419
2.800000 1.040000 5.040000 38.103157 8.577333 1525.421265
2.800000 1.040000 5.080000 35.945366 37.027512 2663.105957
2.800000 1.040000 5.120000 11.599721 59.302277 3651.313477
2.800000 1.040000 5.160000 -24.532948 58.582775 4033.807129
2.800000 1.040000 5.200000 -50.903580 31.896336 3608.550537
2.800000 1.080000 4.800000 -6.478503 15.837877 292.809357
2.800000 1.080000 4.840000 -13.720678 9.672091 281.806366
2.800000 1.080000 4.880000 -14.226837 -0.102995 202.413498
2.800000 1.080000 4.920000 -6.460832 -7.950442 104.951874
2.800000 1.080000 4.960000 6.969357 -7.474957 104.446915
2.800000 1.080000 5.000000 18.252972 5.051240 358.685974
2.800000 1.080000 5.040000 17.294828 25.944099 972.207397
2.800000 1.080000 5.080000 -0.832394 43.198032 1866.762817
2.800000 1.080000 5.120000 -29.384153 43.273033 2735.983887
2.800000 1.080000 5.160000 -51.881977 22.055910 3178.202637
2.800000 1.080000 5.200000 -53.441101 -9.651653 2949.105469
2.800000 1.120000 4.800000 -13.995016 7.834170 257.234711
2.800000 1.120000 4.840000 -17.280079 -0.701424 299.093140
2.800000 1.120000 4.880000 -12.869871 -8.826458 243.539948
2.800000 1.120000 4.920000 -3.084381 -10.426079 118.216522
2.800000 1.120000 4.960000 5.293767 -2.558128 34.567989
2.800000 1.120000 5.000000 4.490309 11.396893 150.052032
2.800000 1.120000 5.040000 -8.605156 22.218096 567.692505
2.800000 1.120000 5.080000 -28.491011 20.361805 1226.340820
2.800000 1.120000 5.120000 -43.171352 3.492054 1875.960083
2.800000 1.120000 5.160000 -42.298599 -20.184891 2196.601318
2.800000 1.120000 5.200000 -25.450445 -36.800308 2001.987793
2.800000 1.160000 4.800000 -14.698309 -0.115098 216.053528
2.800000 1.160000 4.840000 -13.847209 -8.967185 272.155609
2.800000 1.160000 4.880000 -6.572693 -13.363714 221.789139
2.800000 1.160000 4.920000 0.840161 -9.388494 88.849701
2.800000 1.160000 4.960000 0.878120 0.004214 0.771113
2.800000 1.160000 5.000000 -8.767673 6.322930 116.851517
2.800000 1.160000 5.040000 -22.261683 2.017121 499.651306
2.800000 1.160000 5.080000 -29.368155 -12.868351 1028.083008
2.800000 1.160000 5.120000 -23.495659 -29.808449 1440.589600
2.800000 1.160000 5.160000 -7.363948 -38.021324 1499.848877
2.800000 1.160000 5.200000 8.799711 -32.964554 1164.096802
2.800000 1.200000 4.800000 -13.251087 -4.682233 197.514618
2.800000 1.200000 4.840000 -8.690775 -12.557453 233.219208
2.800000 1.200000 4.880000 -0.728537 -12.986286 169.174393
2.800000 1.200000 4.920000 2.203945 -6.541097 47.643326
2.800000 1.200000 4.960000 -3.981803 -1.345562 17.665291
2.800000 1.200000 5.000000 -14.029526 -5.725617 229.610291
2.800000 1.200000 5.040000 -17.252834 -19.608093 682.137573
2.800000 1.200000 5.080000 -7.479352 -33.292599 1164.337769
2.800000 1.200000 5.120000 10.394495 -35.616444 1376.576538
2.800000 1.200000 5.160000 23.921814 -24.218597 1158.793701
2.800000 1.200000 5.200000 23.904572 -8.135994 637.622925
2.840000 0.800000 4.800000 -33.868729 1.132064 1148.372437
2.840000 0.800000 4.840000 -28.463610 -11.550821 943.598511
2.840000 0.800000 4.880000 -17.328417 -18.343395 636.754150
2.840000 0.800000 4.920000 -5.950247 -18.022350 360.210541
2.840000 0.800000 4.960000 2.173807 -13.375588 183.631805
2.840000 0.800000 5.000000 7.124851 -7.383410 105.278244
2.840000 0.800000 5.040000 10.111650 -0.582928 102.585281
2.840000 0.800000 5.080000 10.572790 7.658752 170.440384
2.840000 0.800000 5.120000 6.533792 16.165979 304.029358
2.840000 0.800000 5.160000 -2.309481 21.375599 462.249939
2.840000 0.800000 5.200000 -12.755184 20.190456 570.349243
2.840000 0.840000 4.800000 -23.440760 -21.022728 991.424316
2.840000 0.840000 4.840000 -8.123159 -24.553326 668.851501
2.840000 0.840000 4.880000 5.383747 -16.448168 299.526978
2.840000 0.840000 4.920000 8.530598 -1.954585 76.591499
2.840000 0.840000 4.960000 0.370407 8.564839 73.493675
2.840000 0.840000 5.000000 -11.271781 8.241184 194.970154
2.840000 0.840000 5.040000 -16.542759 -0.547073 273.962158
2.840000 0.840000 5.080000 -12.026131 -8.732991 220.892960
2.840000 0.840000 5.120000 -3.108562 -8.880283 88.522598
2.840000 0.840000 5.160000 1.548370 -1.434748 4.455952
2.840000 0.840000 5.200000 -2.164494 6.522327 47.225788
2.840000 0.880000 4.800000 0.825416 -28.586214 817.852966
2.840000 0.880000 4.840000 17.558119 -16.375645 576.449280
2.840000 0.880000 4.880000 20.125643 6.879460 452.368469
2.840000 0.880000 4.920000 2.579754 25.690403 666.651978
2.840000 0.880000 4.960000 -25.137541 24.179962 1216.566528
2.840000 0.880000 5.000000 -42.690483 0.602112 1822.839844
2.840000 0.880000 5.040000 -35.704548 -28.967979 2113.958496
2.840000 0.880000 5.080000 -8.562551 -42.800957 1905.239136
2.840000 0.880000 5.120000 18.651356 -31.411285 1334.541870
2.840000 0.880000 5.160000 26.793493 -5.057829 743.472900
2.840000 0.880000 5.200000 12.911242 15.719044 413.788513
2.840000 0.920000 4.800000 22.426924 -15.145796 732.362061
2.840000 0.920000 4.840000 28.087637 10.872473 907.125977
2.840000 0.920000 4.880000 9.193317 37.249458 1472.039185
2.840000 0.920000 4.920000 -28.767807 41.249908 2529.141602
2.840000 0.920000 4.960000 -60.839531 12.049099 3846.629395
2.840000 0.920000 5.000000 -60.485054 -35.447868 4914.993164
2.840000 0.920000 5.040000 -23.107124 -68.668549 5249.308594
2.840000 0.920000 5.080000 27.110014 -63.072876 4713.140625
2.840000 0.920000 5.120000 55.431999 -23.081570 3605.465332
2.840000 0.920000 5.160000 44.606377 21.311512 2443.909424
2.840000 0.920000 5.200000 7.728775 39.550373 1623.966064
2.840000 0.960000 4.800000 25.634985 9.529346 747.960938
2.840000 0.960000 4.840000 12.431584 37.620995 1569.883545
2.840000 0.960000 4.880000 -25.171078 49.298012 3063.876953
2.840000 0.960000 4.920000 -66.330093 25.267008 5038.103027
2.840000 0.960000 4.960000 -78.147278 -28.545515 6921.843750
2.840000 0.960000 5.000000 -43.397888 -78.508011 8046.884766
2.840000 0.960000 5.040000 20.261456 -87.367668 8043.635742
2.840000 0.960000 5.080000 70.306442 -45.932499 7052.790039
2.840000 0.960000 5.120000 72.792664 17.009150 5588.083008
2.840000 0.960000 5.160000 30.028547 57.327049 4188.104492
2.840000 0.960000 5.200000 -22.642200 51.160191 3130.034180
2.840000 1.000000 4.800000 8.899665 26.756624 795.120972
2.840000 1.000000 4.840000 -19.340036 42.450905 2176.116455
2.840000 1.000000 4.880000 -59.119614 29.443993 4362.077148
2.840000 1.000000 4.920000 -80.788322 -17.050817 6817.483398
2.840000 1.000000 4.960000 -58.680569 -72.460449 8693.925781
2.840000 1.000000 5.000000 2.747528 -96.629967 9344.899414
2.840000 1.000000 5.040000 65.633408 -66.581192 8740.798828
2.840000 1.000000 5.080000 86.157059 0.774674 7423.638672
2.840000 1.000000 5.120000 50.658844 59.148136 6064.820312
2.840000 1.000000 5.160000 -12.421701 69.697273 5012.008789
2.840000 1.000000 5.200000 -56.420391 31.764143 4192.221191
2.840000 1.040000 4.800000 -13.849699 24.494934 791.815918
2.840000 1.040000 4.840000 -43.479752 21.085960 2335.106445
2.840000 1.040000 4.880000 -66.829041 -10.096294 4568.055664
2.840000 1.040000 4.920000 -58.922264 -57.347160 6760.530273
2.840000 1.040000 4.960000 -12.830816 -88.665337 8026.171875
2.840000 1.040000 5.000000 47.317497 -75.506760 7940.215820
2.840000 1.040000 5.040000 80.420692 -19.671362 6854.450195
2.840000 1.040000 5.080000 61.221771 43.039436 5600.498047
2.840000 1.040000 5.120000 3.105994 69.414009 4827.951660
2.840000 1.040000 5.160000 -51.343510 43.833725 4557.551270
2.840000 1.040000 5.200000 -64.950798 -9.718866 4313.062500
2.840000 1.080000 4.800000 -25.578846 6.882467 701.645691
2.840000 1.080000 4.840000 -43.062668 -9.723372 1948.937256
2.840000 1.080000 4.880000 -43.477116 -41.015148 3572.501953
2.840000 1.080000 4.920000 -16.508192 -68.107826 4911.196289
2.840000 1.080000 4.960000 27.660105 -67.523132 5324.455078
2.840000 1.080000 5.000000 60.659065 -31.908398 4697.667969
2.840000 1.080000 5.040000 56.789993 19.007448 3586.386230
2.840000 1.080000 5.080000 15.844681 50.536640 2805.005859
2.840000 1.080000 5.120000 -33.799076 40.485977 2781.491943
2.840000 1.080000 5.160000 -56.917252 -1.990705 3243.536377
2.840000 1.080000 5.200000 -39.823364 -43.823406 3506.391357
2.840000 1.120000 4.800000 -20.516647 -10.942869 540.679199
2.840000 1.120000 4.840000 -22.129025 -27.590633 1250.936768
2.840000 1.120000 4.880000 -9.046314 -43.851448 2004.785278
2.840000 1.120000 4.920000 15.518059 -46.637566 2415.872559
2.840000 1.120000 4.960000 37.184093 -29.058689 2227.064209
2.840000 1.120000 5.000000 39.473602 1.062550 1559.294312
2.840000 1.120000 5.040000 17.756321 24.021078 892.299133
2.840000 1.120000 5.080000 -14.420364 22.753159 725.653137
2.840000 1.120000 5.120000 -34.221413 -2.569370 1177.706787
2.840000 1.120000 5.160000 -27.546822 -33.373936 1872.646973
2.840000 1.120000 5.200000 -0.621096 -47.269733 2234.813477
2.840000 1.160000 4.800000 -7.203824 -17.269772 350.140076
2.840000 1.160000 4.840000 -0.025936 -24.242146 587.682312
2.840000 1.160000 4.880000 10.837345 -24.091150 697.831604
2.840000 1.160000 4.920000 18.650879 -15.785902 597.049988
2.840000 1.160000 4.960000 17.713074 -4.082188 330.417236
2.840000 1.160000 5.000000 7.864662 2.972298 70.687469
2.840000 1.160000 5.040000 -4.417561 -0.374760 19.655287
2.840000 1.160000 5.080000 -10.008373 -12.772839 263.312927
2.840000 1.160000 5.120000 -3.913765 -25.926901 687.521729
2.840000 1.160000 5.160000 10.472207 -30.430920 1035.708008
2.840000 1.160000 5.200000 23.531107 -23.010500 1083.196045
2.840000 1.200000 4.800000 1.777856 -13.252222 178.782150
2.840000 1.200000 4.840000 7.785126 -10.581068 172.567184
2.840000 1.200000 4.880000 7.917986 -4.192696 80.273209
2.840000 1.200000 4.920000 1.353094 -1.285669 3.483808
2.840000 1.200000 4.960000 -5.909023 -6.734661 80.272217
2.840000 1.200000 5.000000 -5.999767 -18.119701 364.320801
2.840000 1.200000 5.040000 3.779181 -27.198935 754.064270
2.840000 1.200000 5.080000 18.209911 -26.670013 1042.890503
2.840000 1.200000 5.120000 28.216534 -16.271120 1060.922119
2.840000 1.200000 5.160000 28.099880 -2.916788 798.110901
2.840000 1.200000 5.200000 19.699532 4.933086 412.406860
2.880000 0.800000 4.800000 -38.155563 -17.377146 1757.812256
2.880000 0.800000 4.840000 -23.915665 -28.216461 1368.127686
2.880000 0.800000 4.880000 -7.443427 -27.801888 828.349548
2.880000 0.800000 4.920000 3.045055 -19.343555 383.445496
2.880000 0.800000 4.960000 5.892811 -10.304555 140.909073
2.880000 0.800000 5.000000 5.601646 -4.801552 54.433342
2.880000 0.800000 5.040000 6.322453 -0.802757 40.617832
2.880000 0.800000 5.080000 6.938206 5.406734 77.371475
2.880000 0.800000 5.120000 3.161865 13.247116 185.483475
2.880000 0.800000 5.160000 -6.211399 17.486073 344.344208
2.880000 0.800000 5.200000 -16.460072 13.888023 463.811157
2.880000 0.840000 4.800000 -11.746082 -34.764011 1346.506958
2.880000 0.840000 4.840000 11.911295 -25.826077 808.865173
2.880000 0.840000 4.880000 20.892391 -0.567196 436.813721
2.880000 0.840000 4.920000 6.540714 22.480841 548.169128
2.880000 0.840000 4.960000 -20.076382 24.838577 1020.015991
2.880000 0.840000 5.000000 -37.013119 5.321938 1398.293945
2.880000 0.840000 5.040000 -31.178806 -18.592907 1317.814209
2.880000 0.840000 5.080000 -9.758640 -26.984192 823.377686
2.880000 0.840000 5.120000 7.647102 -15.316229 293.065033
2.880000 0.840000 5.160000 7.695279 3.232292 69.665024
2.880000 0.840000 5.200000 -5.774673 11.931421 175.705658
2.880000 0.880000 4.800000 19.480114 -25.426868 1026.000488
2.880000 0.880000 4.840000 34.069443 9.197306 1245.317383
2.880000 0.880000 4.880000 12.824692 48.969223 2562.457520
2.880000 0.880000 4.920000 -37.752052 59.292370 4940.802734
2.880000 0.880000 4.960000 -82.138550 24.332703 7338.821777
2.880000 0.880000 5.000000 -84.665276 -34.695518 8371.988281
2.880000 0.880000 5.040000 -41.773346 -75.071480 7380.739258
2.880000 0.880000 5.080000 13.814877 -69.056015 4959.583984
2.880000 0.880000 5.120000 41.763203 -26.991013 2472.679688
2.880000 0.880000 5.160000 28.299786 14.375902 1007.544434
2.880000 0.880000 5.200000 -5.856895 25.663143 692.900146
2.880000 0.920000 4.800000 31.549099 4.958596 1019.933350
2.880000 0.920000 4.840000 17.415071 53.004475 3112.759033
2.880000 0.920000 4.880000 -41.122990 78.106880 7791.784668
2.880000 0.920000 4.920000 -109.605164 45.058289 14043.541016
2.880000 0.920000 4.960000 -133.405334 -37.097710 19173.222656
2.880000 0.920000 5.000000 -85.933083 -114.572609 20511.376953
2.880000 0.920000 5.040000 3.728981 -131.725189 17365.431641
2.880000 0.920000 5.080000 72.785843 -79.056870 11547.767578
2.880000 0.920000 5.120000 77.548317 -0.819313 6014.413086
2.880000 0.920000 5.160000 27.992720 44.855637 2795.620361
2.880000 0.920000 5.200000 -26.767130 34.809307 1928.167114
2.880000 0.960000 4.800000 14.653410 32.636662 1279.874146
2.880000 0.960000 4.840000 -31.935064 68.296791 5684.299805
2.880000 0.960000 4.880000 -106.988495 51.822315 14132.089844
2.880000 0.960000 4.920000 -153.052673 -29.474377 24293.859375
2.880000 0.960000 4.960000 -120.875793 -130.700195 31693.498047
2.880000 0.960000 5.000000 -18.530407 -179.572037 32589.492188
2.880000 0.960000 5.040000 87.688385 -137.765076 26668.468750
2.880000 0.960000 5.080000 126.323860 -36.294662 17275.019531
2.880000 0.960000 5.120000 80.285797 50.144379 8960.267578
2.880000 0.960000 5.160000 -2.354329 66.576859 4438.020996
2.880000 0.960000 5.200000 -54.423698 19.915733 3358.575439
2.880000 1.000000 4.800000 -17.345732 35.449097 1557.512817
2.880000 1.000000 4.840000 -77.807274 37.952469 7494.361328
2.880000 1.000000 4.880000 -132.896774 -20.917984 18099.115234
2.880000 1.000000 4.920000 -125.446716 -119.663185 30056.156250
2.880000 1.000000 4.960000 -37.699318 -191.087982 37935.855469
2.880000 1.000000 5.000000 82.413094 -175.983276 37762.031250
2.880000 1.000000 5.040000 154.422089 -77.669334 29878.707031
2.880000 1.000000 5.080000 131.903519 35.973663 18692.644531
2.880000 1.000000 5.120000 41.393120 88.176735 9488.527344
2.880000 1.000000 5.160000 -42.801270 56.103985 4979.605957
2.880000 1.000000 5.200000 -63.310722 -16.358391 4275.844727
2.880000 1.040000 4.800000 -38.526787 11.904177 1626.022827
2.880000 1.040000 4.840000 -84.486969 -17.613035 7448.266602
2.880000 1.040000 4.880000 -95.588562 -90.386032 17306.808594
2.880000 1.040000 4.920000 -39.499378 -162.024139 27812.023438
2.880000 1.040000 4.960000 64.183304 -172.910065 34017.386719
2.880000 1.040000 5.000000 149.888062 -101.374710 32743.263672
2.880000 1.040000 5.040000 157.463928 10.710678 24909.607422
2.880000 1.040000 5.080000 84.121643 88.277382 14869.346680
2.880000 1.040000 5.120000 -12.149431 84.519073 7291.082520
2.880000 1.040000 5.160000 -62.036079 17.674706 4160.870117
2.880000 1.040000 5.200000 -41.556824 -49.721706 4199.217773
2.880000 1.080000 4.800000 -33.282204 -18.216564 1439.548340
2.880000 1.080000 4.840000 -48.277695 -57.537151 5641.259766
2.880000 1.080000 4.880000 -22.640017 -108.657761 12319.079102
2.880000 1.080000 4.920000 44.983826 -130.111908 18952.654297
2.880000 1.080000 4.960000 117.136559 -92.459534 22269.738281
2.880000 1.080000 5.000000 142.893814 -9.231625 20503.865234
2.880000 1.080000 5.040000 100.843796 67.606514 14740.111328
2.880000 1.080000 5.080000 20.196312 88.048767 8160.476562
2.880000 1.080000 5.120000 -41.662094 45.261314 3784.316895
2.880000 1.080000 5.160000 -46.270378 -20.121689 2545.830322
2.880000 1.080000 5.200000 -3.282778 -56.289894 3179.328857
2.880000 1.120000 4.800000 -8.691528 -32.112808 1106.775146
2.880000 1.120000 4.840000 0.331570 -56.442497 3185.865479
2.880000 1.120000 4.880000 32.354797 -71.164215 6111.178711
2.880000 1.120000 4.920000 73.556152 -56.913963 8649.707031
2.880000 1.120000 4.960000 96.403717 -12.645576 9453.586914
2.880000 1.120000 5.000000 81.036949 38.189129 8025.396973
2.880000 1.120000 5.040000 34.078075 63.186516 5153.851074
2.880000 1.120000 5.080000 -13.696079 46.995956 2396.202393
2.880000 1.120000 5.120000 -31.063892 4.675179 986.822693
2.880000 1.120000 5.160000 -11.271301 -30.491720 1056.787231
2.880000 1.120000 5.200000 23.981127 -34.394562 1758.080322
2.880000 1.160000 4.800000 14.079963 -23.525398 751.689697
2.880000 1.160000 4.840000 25.629980 -24.748278 1269.373047
2.880000 1.160000 4.880000 37.570877 -17.237469 1708.701172
2.880000 1.160000 4.920000 43.075413 -2.184452 1860.263062
2.880000 1.160000 4.960000 37.657333 14.124840 1617.585815
2.880000 1.160000 5.000000 22.785095 23.283237 1061.269775
2.880000 1.160000 5.040000 6.167374 20.149860 444.053375
2.880000 1.160000 5.080000 -2.624355 7.097797 57.265968
2.880000 1.160000 5.120000 1.113028 -6.763359 46.981857
2.880000 1.160000 5.160000 13.355217 -11.783347 317.209106
2.880000 1.160000 5.200000 24.039272 -5.045238 603.341003
2.880000 1.200000 4.800000 19.992968 -5.533175 430.334778
2.880000 1.200000 4.840000 17.973217 5.013571 348.172424
2.880000 1.200000 4.880000 7.334767 9.224529 138.890747
2.880000 1.200000 4.920000 -2.388004 2.004459 9.720423
2.880000 1.200000 4.960000 -1.485306 -10.955687 122.233200
2.880000 1.200000 5.000000 10.443707 -18.140779 438.158905
2.880000 1.200000 5.040000 23.949722 -12.935120 740.906494
2.880000 1.200000 5.080000 28.563686 0.525948 816.160767
2.880000 1.200000 5.120000 22.041416 11.795427 624.956177
2.880000 1.200000 5.160000 11.256550 13.821486 317.743378
2.880000 1.200000 5.200000 4.817426 8.303276 92.151985
2.920000 0.800000 4.800000 -25.798868 -36.522972 1999.509033
2.920000 0.800000 4.840000 -6.006563 -38.638546 1529.016113
2.920000 0.800000 4.880000 8.853100 -28.343193 881.713989
2.920000 0.800000 4.920000 12.397858 -14.552836 365.491943
2.920000 0.800000 4.960000 8.413723 -6.446400 112.346802
2.920000 0.800000 5.000000 5.472517 -4.981354 54.762329
2.920000 0.800000 5.040000 7.323328 -3.727493 67.525337
2.920000 0.800000 5.080000 9.559837 2.507423 97.677658
2.920000 0.800000 5.120000 5.759892 11.239878 159.511200
2.920000 0.800000 5.160000 -4.305041 15.095592 246.410294
2.920000 0.800000 5.200000 -13.738310 10.287052 294.564606
2.920000 0.840000 4.800000 9.292889 -36.211205 1397.609131
2.920000 0.840000 4.840000 28.011757 -9.688757 878.530518
2.920000 0.840000 4.880000 17.581902 24.567875 912.703735
2.920000 0.840000 4.920000 -17.995335 37.733521 1747.650635
2.920000 0.840000 4.960000 -50.783791 16.573227 2853.665283
2.920000 0.840000 5.000000 -53.471863 -22.450516 3363.265625
2.920000 0.840000 5.040000 -24.646347 -47.361362 2850.541016
2.920000 0.840000 5.080000 10.388138 -39.777626 1690.172974
2.920000 0.840000 5.120000 23.789503 -10.311279 672.262939
2.920000 0.840000 5.160000 9.937105 13.921989 292.567841
2.920000 0.840000 5.200000 -12.949635 15.634314 412.124817
2.920000 0.880000 4.800000 31.351048 -7.381601 1037.376221
2.920000 0.880000 4.840000 22.539066 43.249153 2378.498779
2.920000 0.880000 4.880000 -33.587070 73.086601 6469.742676
2.920000 0.880000 4.920000 -102.114029 44.726974 12427.777344
2.920000 0.880000 4.960000 -127.542084 -32.992752 17355.505859
2.920000 0.880000 5.000000 -83.996155 -106.296478 18354.294922
2.920000 0.880000 5.040000 -1.363251 -121.678741 14807.574219
2.920000 0.880000 5.080000 59.803108 -72.786484 8874.284180
2.920000 0.880000 5.120000 61.150932 -3.874020 3754.444580
2.920000 0.880000 5.160000 16.559717 32.283920 1316.475708
2.920000 0.880000 5.200000 -27.252949 19.848183 1136.673584
2.920000 0.920000 4.800000 21.128756 28.081411 1234.989990
2.920000 0.920000 4.840000 -30.879150 74.772522 6544.452148
2.920000 0.920000 4.880000 -120.330826 60.010334 18080.748047
2.920000 0.920000 4.920000 -177.474121 -32.925739 32581.167969
2.920000 0.920000 4.960000 -143.212158 -150.504623 43161.367188
2.920000 0.920000 5.000000 -27.888496 -207.820404 43967.089844
2.920000 0.920000 5.040000 90.845009 -162.312408 34598.132812
2.920000 0.920000 5.080000 133.106445 -52.090630 20430.759766
2.920000 0.920000 5.120000 84.025452 38.650433 8554.132812
2.920000 0.920000 5.160000 0.138046 53.442688 2856.139893
2.920000 0.920000 5.200000 -47.479023 6.101514 2291.486084
2.920000 0.960000 4.800000 -14.173378 40.583160 1847.877563
2.920000 0.960000 4.840000 -96.046707 49.618431 11686.958984
2.920000 0.960000 4.880000 -174.316040 -26.875303 31108.363281
2.920000 0.960000 4.920000 -168.443268 -160.313492 54073.550781
2.920000 0.960000 4.960000 -53.594894 -258.450378 69669.015625
2.920000 0.960000 5.000000 104.859131 -241.726822 69427.296875
2.920000 0.960000 5.040000 200.087769 -116.521500 53612.375000
2.920000 0.960000 5.080000 174.148117 26.833981 31047.628906
2.920000 0.960000 5.120000 65.116898 91.604996 12631.685547
2.920000 0.960000 5.160000 -32.411263 54.604645 4032.157227
2.920000 0.960000 5.200000 -52.568977 -25.105799 3393.798340
2.920000 1.000000 4.800000 -45.492641 18.800562 2423.041504
2.920000 1.000000 4.840000 -120.238083 -21.629299 14925.022461
2.920000 1.000000 4.880000 -143.058472 -133.954498 38409.531250
2.920000 1.000000 4.920000 -60.056953 -248.045029 65133.171875
2.920000 1.000000 4.960000 98.793655 -269.335327 82301.703125
2.920000 1.000000 5.000000 231.600586 -164.325119 80641.578125
2.920000 1.000000 5.040000 247.419968 2.004963 61220.660156
2.920000 1.000000 5.080000 144.679688 117.317558 34695.621094
2.920000 1.000000 5.120000 10.594355 116.133560 13599.244141
2.920000 1.000000 5.160000 -57.200443 29.406616 4136.639648
2.920000 1.000000 5.200000 -31.400270 -53.655174 3864.854736
2.920000 1.040000 4.800000 -46.810261 -19.848148 2585.149414
2.920000 1.040000 4.840000 -81.308540 -88.004700 14355.906250
2.920000 1.040000 4.880000 -41.130203 -184.268921 35646.730469
2.920000 1.040000 4.920000 79.968391 -229.551559 59088.863281
2.920000 1.040000 4.960000 213.333542 -166.833710 73344.687500
2.920000 1.040000 5.000000 265.170654 -19.828030 70708.625000
2.920000 1.040000 5.040000 197.002304 118.000946 52734.128906
2.920000 1.040000 5.080000 61.246136 159.351761 29144.074219
2.920000 1.040000 5.120000 -43.450520 94.890671 10892.186523
2.920000 1.040000 5.160000 -55.612778 -5.187026 3119.686279
2.920000 1.040000 5.200000 4.309546 -58.106842 3394.977295
2.920000 1.080000 4.800000 -17.560345 -44.602978 2297.791260
2.920000 1.080000 4.840000 -8.371681 -102.039429 10482.129883
2.920000 1.080000 4.880000 59.603413 -145.200241 24635.675781
2.920000 1.080000 4.920000 157.390869 -121.858696 39621.425781
2.920000 1.080000 4.960000 217.999603 -24.094193 48104.359375
2.920000 1.080000 5.000000 191.040619 94.710274 45466.554688
2.920000 1.080000 5.040000 89.363785 158.691452 33168.863281
2.920000 1.080000 5.080000 -18.046387 131.953842 17737.488281
2.920000 1.080000 5.120000 -62.770103 47.384361 6185.363281
2.920000 1.080000 5.160000 -31.639757 -24.481916 1600.438477
2.920000 1.080000 5.200000 29.565567 -36.331253 2194.082764
2.920000 1.120000 4.800000 18.246878 -38.211388 1793.058594
2.920000 1.120000 4.840000 44.574287 -60.590736 5658.104492
2.920000 1.120000 4.880000 93.088409 -55.869720 11786.877930
2.920000 1.120000 4.920000 133.216919 -9.400421 17835.115234
2.920000 1.120000 4.960000 130.680069 61.084377 20808.582031
2.920000 1.120000 5.000000 77.812393 113.993225 19049.222656
2.920000 1.120000 5.040000 4.132210 115.863884 13441.514648
2.920000 1.120000 5.080000 -45.051765 69.295853 6831.576660
2.920000 1.120000 5.120000 -44.476593 11.011459 2099.419678
2.920000 1.120000 5.160000 -7.431349 -18.722664 405.763092
2.920000 1.120000 5.200000 28.805557 -7.744408 889.735962
2.920000 1.160000 4.800000 34.566441 -10.175137 1298.372314
2.920000 1.160000 4.840000 46.435810 -3.985441 2172.168213
2.920000 1.160000 4.880000 54.659355 11.756104 3125.851074
2.920000 1.160000 4.920000 52.120525 33.049904 3808.845215
2.920000 1.160000 4.960000 36.159050 51.035347 3912.083496
2.920000 1.160000 5.000000 11.526657 56.579468 3334.099854
2.920000 1.160000 5.040000 -11.108917 46.307457 2267.788574
2.920000 1.160000 5.080000 -21.346525 25.797337 1121.176758
2.920000 1.160000 5.120000 -16.071831 6.764336 304.059967
2.920000 1.160000 5.160000 -1.951569 -0.688505 4.282660
2.920000 1.160000 5.200000 9.308367 4.846539 110.134628
2.920000 1.200000 4.800000 25.489788 14.830636 869.677063
2.920000 1.200000 4.840000 12.348267 23.803759 719.098572
2.920000 1.200000 4.880000 -3.276411 18.192680 341.708496
2.920000 1.200000 4.920000 -7.051208 2.285980 54.945244
2.920000 1.200000 4.960000 4.641670 -8.678375 96.859299
2.920000 1.200000 5.000000 20.164795 -3.534470 419.111420
2.920000 1.200000 5.040000 23.747808 13.332932 741.725464
2.920000 1.200000 5.080000 11.099741 26.133873 806.183533
2.920000 1.200000 5.120000 -6.584438 23.281040 585.361694
2.920000 1.200000 5.160000 -14.135559 8.369827 269.868042
2.920000 1.200000 5.200000 -7.214783 -4.434969 71.722038
2.960000 0.800000 4.800000 -1.372025 -40.957886 1679.430908
2.960000 0.800000 4.840000 15.619293 -32.315422 1288.248779
2.960000 0.800000 4.880000 21.640137 -16.296333 733.865967
2.960000 0.800000 4.920000 16.488285 -4.269577 290.092834
2.960000 0.800000 4.960000 9.169487 -1.837311 87.455200
2.960000 0.800000 5.000000 8.082939 -4.200478 82.977921
2.960000 0.800000 5.040000 12.576309 -2.497326 164.400192
2.960000 0.800000 5.080000 14.689114 6.136974 253.432526
2.960000 0.800000 5.120000 8.549465 15.682951 319.048309
2.960000 0.800000 5.160000 -3.049055 18.156467 338.954041
2.960000 0.800000 5.200000 -11.825604 12.227354 289.353119
2.960000 0.840000 4.800000 25.504852 -20.485657 1070.159668
2.960000 0.840000 4.840000 25.661049 14.870840 879.631348
2.960000 0.840000 4.880000 -6.681175 39.125900 1575.474121
2.960000 0.840000 4.920000 -49.228481 26.814720 3142.472656
2.960000 0.840000 4.960000 -66.164978 -16.843445 4661.505859
2.960000 0.840000 5.000000 -41.463684 -57.802216 5060.333008
2.960000 0.840000 5.040000 5.278877 -63.490891 4058.959717
2.960000 0.840000 5.080000 36.783737 -32.084068 2382.430664
2.960000 0.840000 5.120000 31.922760 7.722980 1078.707031
2.960000 0.840000 5.160000 2.316603 24.998310 630.282166
2.960000 0.840000 5.200000 -22.869055 13.749453 712.041077
2.960000 0.880000 4.800000 24.668438 14.880322 829.955811
2.960000 0.880000 4.840000 -15.690414 57.404305 3541.443359
2.960000 0.880000 4.880000 -89.596413 49.500702 10477.836914
2.960000 0.880000 4.920000 -138.288605 -23.794518 19689.917969
2.960000 0.880000 4.960000 -112.375076 -117.926758 26534.878906
2.960000 0.880000 5.000000 -21.061188 -162.915329 26984.978516
2.960000 0.880000 5.040000 71.461990 -125.318512 20811.544922
2.960000 0.880000 5.080000 101.508385 -38.111397 11756.430664
2.960000 0.880000 5.120000 60.146069 30.576567 4552.476074
2.960000 0.880000 5.160000 -5.048288 38.403515 1500.315186
2.960000 0.880000 5.200000 -38.837959 0.320372 1508.489746
2.960000 0.920000 4.800000 -5.974670 35.291275 1281.170776
2.960000 0.920000 4.840000 -85.895615 48.122089 9693.791992
2.960000 0.920000 4.880000 -164.587036 -24.099808 27669.693359
2.960000 0.920000 4.920000 -161.266083 -153.615082 49604.343750
2.960000 0.920000 4.960000 -51.348663 -249.104370 64689.671875
2.960000 0.920000 5.000000 100.299042 -233.079056 64385.746094
2.960000 0.920000 5.040000 189.830551 -113.592812 48938.964844
2.960000 0.920000 5.080000 163.668457 20.726791 27216.962891
2.960000 0.920000 5.120000 61.526554 78.752762 9987.514648
2.960000 0.920000 5.160000 -26.077412 42.773956 2509.642578
2.960000 0.920000 5.200000 -40.906219 -28.184135 2467.664307
2.960000 0.960000 4.800000 -41.791557 21.224884 2197.030029
2.960000 0.960000 4.840000 -128.032898 -20.908215 16829.578125
2.960000 0.960000 4.880000 -156.933121 -146.881180 46202.085938
2.960000 0.960000 4.920000 -65.531853 -276.471130 80730.710938
2.960000 0.960000 4.960000 111.937386 -301.609131 103498.046875
2.960000 0.960000 5.000000 259.708069 -185.325699 101793.890625
2.960000 0.960000 5.040000 276.842407 -2.298908 76647.000000
2.960000 0.960000 5.080000 164.694061 122.427284 42112.574219
2.960000 0.960000 5.120000 21.755445 120.019669 14878.020508
2.960000 0.960000 5.160000 -47.235661 28.972944 3070.639160
2.960000 0.960000 5.200000 -18.682747 -53.106247 3169.318359
2.960000 1.000000 4.800000 -51.777660 -17.817234 2998.379883
2.960000 1.000000 4.840000 -100.781120 -104.236122 21022.003906
2.960000 1.000000 4.880000 -52.194469 -230.790863 55988.683594
2.960000 1.000000 4.920000 103.728622 -292.193115 96136.445312
2.960000 1.000000 4.960000 276.543213 -212.957474 121827.031250
2.960000 1.000000 5.000000 343.808746 -24.977631 118828.335938
2.960000 1.000000 5.040000 257.643066 149.902222 88850.625000
2.960000 1.000000 5.080000 88.011093 201.503983 48349.808594
2.960000 1.000000 5.120000 -39.807266 122.395676 16565.320312
2.960000 1.000000 5.160000 -53.206985 3.840595 2845.733643
2.960000 1.000000 5.200000 16.239109 -53.992615 3178.911133
2.960000 1.040000 4.800000 -25.931877 -50.570004 3229.787598
2.960000 1.040000 4.840000 -18.275814 -139.734314 19859.683594
2.960000 1.040000 4.880000 82.883926 -210.709747 51268.343750
2.960000 1.040000 4.920000 233.433380 -179.246857 86620.578125
2.960000 1.040000 4.960000 328.072021 -31.934071 108651.031250
2.960000 1.040000 5.000000 288.740051 147.898987 105244.929688
2.960000 1.040000 5.040000 136.986115 243.963882 78283.570312
2.960000 1.040000 5.080000 -21.085350 204.633148 42319.320312
2.960000 1.040000 5.120000 -85.175995 83.080193 14157.268555
2.960000 1.040000 5.160000 -41.540405 -16.066765 1983.746094
2.960000 1.040000 5.200000 38.952621 -29.429134 2383.380859
2.960000 1.080000 4.800000 16.000111 -51.170723 2874.446289
2.960000 1.080000 4.840000 60.251293 -103.075287 14254.732422
2.960000 1.080000 4.880000 155.889755 -103.700516 35055.414062
2.960000 1.080000 4.920000 239.992889 -18.061317 57922.796875
2.960000 1.080000 4.960000 239.889420 119.186592 71752.375000
2.960000 1.080000 5.000000 139.153687 222.850266 69025.992188
2.960000 1.080000 5.040000 -1.763786 226.266403 51199.593750
2.960000 1.080000 5.080000 -93.395920 137.634232 27665.980469
2.960000 1.080000 5.120000 -90.677452 30.746021 9167.717773
2.960000 1.080000 5.160000 -24.555218 -20.228817 1012.163818
2.960000 1.080000 5.200000 34.231140 0.041714 1171.772705
2.960000 1.120000 4.800000 42.557041 -20.953526 2250.152100
2.960000 1.120000 4.840000 82.350754 -27.821598 7555.687988
2.960000 1.120000 4.880000 128.722809 7.233849 16621.888672
2.960000 1.120000 4.920000 140.549759 80.181870 26183.367188
2.960000 1.120000 4.960000 93.857315 151.288589 31697.433594
2.960000 1.120000 5.000000 6.843636 173.800842 30253.568359
2.960000 1.120000 5.040000 -70.576424 132.596207 22562.785156
2.960000 1.120000 5.080000 -95.661789 57.548294 12462.984375
2.960000 1.120000 5.120000 -65.828629 -1.204281 4334.858398
2.960000 1.120000 5.160000 -16.724483 -13.572954 463.933411
2.960000 1.120000 5.200000 10.881758 10.551952 229.756348
2.960000 1.160000 4.800000 37.897789 14.986770 1660.845703
2.960000 1.160000 4.840000 45.977375 27.467758 2868.396729
2.960000 1.160000 4.880000 45.259079 48.523293 4402.894531
2.960000 1.160000 4.920000 29.808037 69.884430 5772.352539
2.960000 1.160000 4.960000 1.460960 80.372818 6461.924316
2.960000 1.160000 5.000000 -29.849106 72.670021 6171.901367
2.960000 1.160000 5.040000 -51.153027 48.529274 4971.722656
2.960000 1.160000 5.080000 -54.125336 18.596840 3275.394531
2.960000 1.160000 5.120000 -40.388866 -3.659561 1644.652832
2.960000 1.160000 5.160000 -20.506636 -10.211170 524.790100
2.960000 1.160000 5.200000 -6.935045 -3.268137 58.775574
2.960000 1.200000 4.800000 12.901451 31.745007 1174.192871
2.960000 1.200000 4.840000 -5.520224 31.611561 1029.763672
2.960000 1.200000 4.880000 -16.915962 16.524683 559.214966
2.960000 1.200000 4.920000 -10.884300 -0.118629 118.482071
2.960000 1.200000 4.960000 5.404259 -1.828129 32.548069
2.960000 1.200000 5.000000 13.174030 13.179497 347.254211
2.960000 1.200000 5.040000 1.267975 28.731934 827.131775
2.960000 1.200000 5.080000 -21.444176 26.535057 1163.961914
2.960000 1.200000 5.120000 -34.164509 5.076168 1192.981079
2.960000 1.200000 5.160000 -24.929596 -18.292080 956.084961
2.960000 1.200000 5.200000 -2.510960 -24.572495 610.112427
3.000000 0.800000 4.800000 18.408134 -25.313047 979.609741
3.000000 0.800000 4.840000 25.268440 -11.585453 772.716797
3.000000 0.800000 4.880000 21.173050 1.367027 450.166809
3.000000 0.800000 4.920000 12.091900 5.663803 178.292694
3.000000 0.800000 4.960000 7.388784 2.508041 60.884407
3.000000 0.800000 5.000000 10.266373 0.237206 105.454674
3.000000 0.800000 5.040000 15.013779 5.224540 252.709366
3.000000 0.800000 5.080000 13.557846 15.356161 419.626892
3.000000 0.800000 5.120000 3.951605 22.652273 528.740662
3.000000 0.800000 5.160000 -8.045136 21.624146 532.327881
3.000000 0.800000 5.200000 -15.260907 14.259020 436.214935
3.000000 0.840000 4.800000 23.592037 2.284973 561.805359
3.000000 0.840000 4.840000 3.936813 29.004391 856.753174
3.000000 0.840000 4.880000 -35.554760 28.862892 2097.207520
3.000000 0.840000 4.920000 -62.549282 -6.683861 3957.086670
3.000000 0.840000 4.960000 -50.445915 -53.318848 5387.689453
3.000000 0.840000 5.000000 -5.033356 -73.758171 5465.602051
3.000000 0.840000 5.040000 39.016006 -51.639305 4188.866699
3.000000 0.840000 5.080000 49.135979 -6.120056 2451.799561
3.000000 0.840000 5.120000 23.024385 26.779972 1247.289307
3.000000 0.840000 5.160000 -12.759243 26.809961 881.572327
3.000000 0.840000 5.200000 -30.060518 4.146592 920.828979
3.000000 0.880000 4.800000 1.991510 23.474182 555.003357
3.000000 0.880000 4.840000 -54.068935 35.242256 4165.466309
3.000000 0.880000 4.880000 -110.593170 -13.523148 12413.725586
3.000000 0.880000 4.920000 -109.571770 -103.258446 22668.279297
3.000000 0.880000 4.960000 -33.784317 -168.896988 29667.574219
3.000000 0.880000 5.000000 70.129852 -156.197052 29315.714844
3.000000 0.880000 5.040000 129.106888 -72.379890 21907.437500
3.000000 0.880000 5.080000 107.306915 19.260529 11885.742188
3.000000 0.880000 5.120000 34.750637 55.958111 4338.916992
3.000000 0.880000 5.160000 -24.964224 27.998528 1407.130005
3.000000 0.880000 5.200000 -33.439266 -21.703754 1589.237549
3.000000 0.920000 4.800000 -30.090723 16.905205 1191.237549
3.000000 0.920000 4.840000 -103.014359 -16.326927 10878.526367
3.000000 0.920000 4.880000 -128.655701 -121.238327 31251.021484
3.000000 0.920000 4.920000 -52.884239 -229.792801 55601.472656
3.000000 0.920000 4.960000 95.038345 -250.304718 71684.742188
3.000000 0.920000 5.000000 216.893555 -152.440308 70280.859375
3.000000 0.920000 5.040000 228.618469 -0.515251 52266.671875
3.000000 0.920000 5.080000 133.694397 100.487282 27971.884766
3.000000 0.920000 5.120000 16.140785 95.367348 9355.456055
3.000000 0.920000 5.160000 -38.007622 19.281797 1816.367065
3.000000 0.920000 5.200000 -12.812631 -46.092731 2288.703369
3.000000 0.960000 4.800000 -44.249622 -15.685265 2204.056641
3.000000 0.960000 4.840000 -93.382706 -97.770302 18279.363281
3.000000 0.960000 4.880000 -47.806992 -220.723328 51004.296875
3.000000 0.960000 4.920000 102.948814 -280.761444 89425.453125
3.000000 0.960000 4.960000 269.944366 -203.759018 114387.703125
3.000000 0.960000 5.000000 333.524139 -21.943920 111719.890625
3.000000 0.960000 5.040000 248.769547 145.093018 82938.273438
3.000000 0.960000 5.080000 85.989456 191.792236 44178.449219
3.000000 0.960000 5.120000 -33.485699 114.483414 14227.744141
3.000000 0.960000 5.160000 -43.163639 3.509513 1875.416382
3.000000 0.960000 5.200000 22.171789 -46.918713 2692.953613
3.000000 1.000000 4.800000 -25.299589 -48.879303 3029.255371
3.000000 1.000000 4.840000 -19.859703 -148.257492 22374.691406
3.000000 1.000000 4.880000 91.759346 -229.372208 61031.386719
3.000000 1.000000 4.920000 260.236603 -195.398804 105903.781250
3.000000 1.000000 4.960000 365.791504 -30.973644 134762.781250
3.000000 1.000000 5.000000 320.761841 168.777588 131374.031250
3.000000 1.000000 5.040000 151.601227 273.123657 97579.460938
3.000000 1.000000 5.080000 -21.240730 227.093597 52022.671875
3.000000 1.000000 5.120000 -87.943008 93.741302 16521.404297
3.000000 1.000000 5.160000 -38.442303 -10.443428 1586.875854
3.000000 1.000000 5.200000 45.397518 -20.382401 2476.376953
3.000000 1.040000 4.800000 14.310989 -55.160896 3247.528809
3.000000 1.040000 4.840000 68.921165 -126.912979 20857.031250
3.000000 1.040000 4.880000 195.172287 -131.903168 55490.667969
3.000000 1.040000 4.920000 308.001648 -20.776230 95296.664062
3.000000 1.040000 4.960000 308.511780 159.821884 120722.546875
3.000000 1.040000 5.000000 175.519989 294.692200 117650.757812
3.000000 1.040000 5.040000 -8.049385 296.058807 87715.609375
3.000000 1.040000 5.080000 -123.362694 178.717804 47158.406250
3.000000 1.040000 5.120000 -115.308060 42.891926 15135.666016
3.000000 1.040000 5.160000 -30.250462 -16.765938 1196.187134
3.000000 1.040000 5.200000 38.591110 12.373739 1642.383179
3.000000 1.080000 4.800000 45.038181 -28.906878 2864.045410
3.000000 1.080000 4.840000 111.117889 -49.837925 14831.003906
3.000000 1.080000 4.880000 194.499985 2.666672 37837.351562
3.000000 1.080000 4.920000 220.104767 124.495880 63945.335938
3.000000 1.080000 4.960000 143.607208 244.783585 80542.031250
3.000000 1.080000 5.000000 -1.798355 280.404602 78629.976562
3.000000 1.080000 5.040000 -127.083939 207.550507 59227.539062
3.000000 1.080000 5.080000 -160.557281 82.627350 32605.919922
3.000000 1.080000 5.120000 -104.843849 -7.533409 11048.984375
3.000000 1.080000 5.160000 -26.113323 -18.432056 1021.646362
3.000000 1.080000 5.200000 9.873684 23.755960 661.835266
3.000000 1.120000 4.800000 45.932335 9.672326 2203.333252
3.000000 1.120000 4.840000 84.779373 24.879631 7806.538086
3.000000 1.120000 4.880000 106.368584 81.794785 18004.662109
3.000000 1.120000 4.920000 75.809799 153.419647 29284.712891
3.000000 1.120000 4.960000 -5.769180 190.796646 36436.644531
3.000000 1.120000 5.000000 -96.110344 163.031158 35816.355469
3.000000 1.120000 5.040000 -143.507339 84.721466 27772.083984
3.000000 1.120000 5.080000 -127.743820 4.801491 16341.538086
3.000000 1.120000 5.120000 -73.572899 -33.201946 6515.340820
3.000000 1.120000 5.160000 -26.135273 -23.281446 1225.078247
3.000000 1.120000 5.200000 -12.942806 5.654547 199.490128
3.000000 1.160000 4.800000 21.206705 33.595573 1578.386963
3.000000 1.160000 4.840000 22.847536 49.213898 2944.017578
3.000000 1.160000 4.880000 10.816055 68.979561 4875.166504
3.000000 1.160000 4.920000 -16.103661 80.802185 6788.321289
3.000000 1.160000 4.960000 -49.417709 74.777481 8033.782227
3.000000 1.160000 5.000000 -75.540710 49.801964 8186.634766
3.000000 1.160000 5.040000 -83.645599 14.564301 7208.705078
3.000000 1.160000 5.080000 -71.687836 -17.279968 5437.743164
3.000000 1.160000 5.120000 -47.171196 -34.594738 3421.917725
3.000000 1.160000 5.160000 -22.582464 -34.453468 1697.009155
3.000000 1.160000 5.200000 -8.295181 -23.002548 597.927307
3.000000 1.200000 4.800000 -6.818586 32.170120 1081.409790
3.000000 1.200000 4.840000 -21.928602 23.607700 1038.187012
3.000000 1.200000 4.880000 -24.647224 6.112825 644.852295
3.000000 1.200000 4.920000 -12.800255 -4.320564 182.513809
3.000000 1.200000 4.960000 -0.693993 2.137360 5.049932
3.000000 1.200000 5.000000 -4.728949 16.645676 299.441467
3.000000 1.200000 5.040000 -24.695232 19.152496 976.672607
3.000000 1.200000 5.080000 -41.576981 -0.475197 1728.871094
3.000000 1.200000 5.120000 -35.949783 -30.001335 2192.467041
3.000000 1.200000 5.160000 -8.470531 -45.394218 2132.385010
3.000000 1.200000 5.200000 19.468578 -34.505875 1569.680908
3.040000 0.800000 4.800000 18.722828 -0.840469 351.250671
3.040000 0.800000 4.840000 15.444435 8.361963 308.453003
3.040000 0.800000 4.880000 7.603168 11.760872 196.126266
3.040000 0.800000 4.920000 2.236769 8.646873 79.771553
3.040000 0.800000 4.960000 3.321297 4.753860 33.630203
3.040000 0.800000 5.000000 7.814522 6.227541 99.849014
3.040000 0.800000 5.040000 8.972061 13.428936 260.834198
3.040000 0.800000 5.080000 3.119991 20.862015 444.958008
3.040000 0.800000 5.120000 -7.167398 22.733524 568.184692
3.040000 0.800000 5.160000 -16.149796 18.060833 587.009583
3.040000 0.800000 5.200000 -20.319677 10.433728 521.751953
3.040000 0.840000 4.800000 4.493601 14.199888 221.829269
3.040000 0.840000 4.840000 -21.264662 20.448063 870.309143
3.040000 0.840000 4.880000 -46.978741 -0.807381 2207.654053
3.040000 0.840000 4.920000 -46.437050 -39.789162 3739.577148
3.040000 0.840000 4.960000 -13.141533 -66.729019 4625.461914
3.040000 0.840000 5.000000 30.642052 -58.382751 4347.480957
3.040000 0.840000 5.040000 52.433891 -19.993385 3149.048340
3.040000 0.840000 5.080000 38.105721 19.136887 1818.266357
3.040000 0.840000 5.120000 2.915781 31.923008 1027.580200
3.040000 0.840000 5.160000 -24.557232 15.842244 854.034302
3.040000 0.840000 5.200000 -28.350225 -9.150484 887.466675
3.040000 0.880000 4.800000 -18.956137 9.714632 453.709198
3.040000 0.880000 4.840000 -62.174038 -10.024345 3966.098633
3.040000 0.880000 4.880000 -77.039261 -72.674362 11216.611328
3.040000 0.880000 4.920000 -31.002266 -136.794006 19673.740234
3.040000 0.880000 4.960000 57.379639 -147.141953 24943.175781
3.040000 0.880000 5.000000 128.237671 -86.631393 23949.898438
3.040000 0.880000 5.040000 131.691101 4.449982 17362.349609
3.040000 0.880000 5.080000 71.724838 62.578423 9060.511719
3.040000 0.880000 5.120000 0.276905 55.913315 3126.375488
3.040000 0.880000 5.160000 -31.261396 7.409145 1032.170288
3.040000 0.880000 5.200000 -14.841617 -33.283012 1328.032471
3.040000 0.920000 4.800000 -30.047432 -15.355652 1138.644165
3.040000 0.920000 4.840000 -64.434845 -73.192398 9508.976562
3.040000 0.920000 4.880000 -31.140892 -160.741531 26807.595703
3.040000 0.920000 4.920000 77.746750 -202.647858 47110.710938
3.040000 0.920000 4.960000 197.308838 -145.315475 60047.367188
3.040000 0.920000 5.000000 240.686310 -13.191284 58103.910156
3.040000 0.920000 5.040000 176.573517 106.054520 42425.769531
3.040000 0.920000 5.080000 57.804295 136.512421 21976.976562
3.040000 0.920000 5.120000 -27.107716 77.653320 6764.866211
3.040000 0.920000 5.160000 -31.571911 -3.350396 1008.010742
3.040000 0.920000 5.200000 16.882534 -38.787491 1789.489502
3.040000 0.960000 4.800000 -14.985180 -42.330818 2016.453857
3.040000 0.960000 4.840000 -10.783833 -123.137253 15279.074219
3.040000 0.960000 4.880000 81.872673 -189.837219 42741.304688
3.040000 0.960000 4.920000 222.171631 -160.345352 75070.867188
3.040000 0.960000 4.960000 308.950500 -21.690228 95920.882812
3.040000 0.960000 5.000000 268.676697 145.149597 93255.570312
3.040000 0.960000 5.040000 125.255211 229.857269 68523.234375
3.040000 0.960000 5.080000 -18.478870 187.896194 35646.449219
3.040000 0.960000 5.120000 -70.986282 74.943718 10655.613281
3.040000 0.960000 5.160000 -26.888020 -10.307274 829.205444
3.040000 0.960000 5.200000 42.561539 -15.705406 2058.144531
3.040000 1.000000 4.800000 18.229546 -48.120895 2647.937012
3.040000 1.000000 4.840000 68.578514 -116.333244 18236.437500
3.040000 1.000000 4.880000 189.169495 -121.534554 50555.746094
3.040000 1.000000 4.920000 297.425537 -14.243430 88664.828125
3.040000 1.000000 4.960000 296.377502 160.122849 113478.953125
3.040000 1.000000 5.000000 166.021149 288.546753 110822.250000
3.040000 1.000000 5.040000 -11.097631 286.245300 82059.531250
3.040000 1.000000 5.080000 -118.945366 170.401154 43184.554688
3.040000 1.000000 5.120000 -106.715515 40.750004 13048.763672
3.040000 1.000000 5.160000 -23.528715 -12.162727 701.532410
3.040000 1.000000 5.200000 39.119774 19.101599 1895.227783
3.040000 1.040000 4.800000 45.510639 -25.850941 2739.489258
3.040000 1.040000 4.840000 118.430511 -52.225075 16753.244141
3.040000 1.040000 4.880000 213.835999 5.124067 45752.093750
3.040000 1.040000 4.920000 243.812592 143.202759 79951.609375
3.040000 1.040000 4.960000 156.084351 279.453522 102456.593750
3.040000 1.040000 5.000000 -9.792877 317.072876 100631.109375
3.040000 1.040000 5.040000 -149.328217 230.419159 75391.906250
3.040000 1.040000 5.080000 -181.190918 88.034874 40580.289062
3.040000 1.040000 5.120000 -113.203720 -9.254921 12900.735352
3.040000 1.040000 5.160000 -25.355230 -14.658026 857.745422
3.040000 1.040000 5.200000 8.733002 35.341984 1325.321045
3.040000 1.080000 4.800000 47.421936 8.943861 2328.832764
3.040000 1.080000 4.840000 105.971817 24.411062 11825.926758
3.040000 1.080000 4.880000 142.794617 104.217804 31251.652344
3.040000 1.080000 4.920000 102.220726 208.892120 54084.996094
3.040000 1.080000 4.960000 -15.092438 262.861938 69324.179688
3.040000 1.080000 5.000000 -143.498535 219.344391 68703.789062
3.040000 1.080000 5.040000 -204.428986 103.815308 52568.828125
3.040000 1.080000 5.080000 -171.855637 -6.786713 29580.417969
3.040000 1.080000 5.120000 -89.839615 -49.667244 10537.991211
3.040000 1.080000 5.160000 -28.051985 -24.506269 1387.471191
3.040000 1.080000 5.200000 -20.745228 18.112431 758.424622
3.040000 1.120000 4.800000 25.289225 32.438839 1691.823242
3.040000 1.120000 4.840000 48.020245 62.536503 6216.757812
3.040000 1.120000 4.880000 36.551670 117.128410 15055.088867
3.040000 1.120000 4.920000 -22.988258 157.351562 25287.974609
3.040000 1.120000 4.960000 -105.097328 145.714905 32278.281250
3.040000 1.120000 5.000000 -161.908173 79.649139 32558.242188
3.040000 1.120000 5.040000 -161.487305 -4.183975 26095.656250
3.040000 1.120000 5.080000 -112.654068 -59.395073 16218.713867
3.040000 1.120000 5.120000 -54.452137 -65.958565 7315.567383
3.040000 1.120000 5.160000 -22.043026 -40.813171 2151.609863
3.040000 1.120000 5.200000 -21.213360 -16.705357 729.075562
3.040000 1.160000 4.800000 -2.209294 33.037975 1096.388794
3.040000 1.160000 4.840000 -7.523869 47.696991 2331.611572
3.040000 1.160000 4.880000 -27.788242 58.922195 4244.011719
3.040000 1.160000 4.920000 -56.929543 54.979427 6263.710449
3.040000 1.160000 4.960000 -81.818535 32.386002 7743.125488
3.040000 1.160000 5.000000 -90.823120 -2.003265 8252.851562
3.040000 1.160000 5.040000 -80.265572 -35.725449 7718.869629
3.040000 1.160000 5.080000 -55.193535 -57.673859 6372.600098
3.040000 1.160000 5.120000 -25.738497 -62.808605 4607.391113
3.040000 1.160000 5.160000 -2.214134 -53.265667 2842.133545
3.040000 1.160000 5.200000 9.034870 -36.703056 1428.743286
3.040000 1.200000 4.800000 -17.391985 18.703022 652.284180
3.040000 1.200000 4.840000 -25.926109 8.214891 739.647583
3.040000 1.200000 4.880000 -22.965649 -5.303669 555.549927
3.040000 1.200000 4.920000 -12.123251 -9.235100 232.260284
3.040000 1.200000 4.960000 -7.503703 -1.702118 59.202766
3.040000 1.200000 5.000000 -17.372871 3.938599 317.329224
3.040000 1.200000 5.040000 -32.232422 -7.131699 1089.790161
3.040000 1.200000 5.080000 -32.355900 -33.139923 2145.158691
3.040000 1.200000 5.120000 -8.702345 -54.021706 2994.075439
3.040000 1.200000 5.160000 25.070408 -50.211029 3149.672852
3.040000 1.200000 5.200000 43.887119 -23.152475 2462.116211
3.080000 0.800000 4.800000 0.249271 13.375561 178.967758
3.080000 0.800000 4.840000 -5.461971 12.270517 180.398727
3.080000 0.800000 4.880000 -8.156431 7.409718 121.431282
3.080000 0.800000 4.920000 -5.805500 3.118069 43.426182
3.080000 0.800000 4.960000 -1.209366 3.487035 13.621977
3.080000 0.800000 5.000000 0.687225 8.296839 69.309814
3.080000 0.800000 5.040000 -2.530949 13.441349 187.075562
3.080000 0.800000 5.080000 -8.983204 14.983688 305.208862
3.080000 0.800000 5.120000 -14.988892 12.309820 376.198547
3.080000 0.800000 5.160000 -18.504805 7.437981 397.751343
3.080000 0.800000 5.200000 -19.814964 2.185298 397.408325
3.080000 0.840000 4.800000 -15.909344 5.600554 284.473450
3.080000 0.840000 4.840000 -30.286495 -4.588530 938.326416
3.080000 0.840000 4.880000 -32.616436 -28.467760 1874.245361
3.080000 0.840000 4.920000 -13.141220 -49.975559 2670.248291
3.080000 0.840000 4.960000 19.096542 -50.252460 2889.987793
3.080000 0.840000 5.000000 41.971992 -25.767769 2425.625977
3.080000 0.840000 5.040000 39.245171 7.045708 1589.825439
3.080000 0.840000 5.080000 14.657209 25.567879 868.550232
3.080000 0.840000 5.120000 -12.232634 19.990217 549.246094
3.080000 0.840000 5.160000 -23.613323 -0.336782 557.702454
3.080000 0.840000 5.200000 -17.278770 -17.778728 614.639099
3.080000 0.880000 4.800000 -20.060387 -16.048248 659.965332
3.080000 0.880000 4.840000 -33.300018 -44.975914 3131.724121
3.080000 0.880000 4.880000 -13.588284 -86.640594 7691.234375
3.080000 0.880000 4.920000 41.918186 -104.162483 12606.957031
3.080000 0.880000 4.960000 100.247215 -72.265808 15271.851562
3.080000 0.880000 5.000000 118.673882 -4.797760 14106.508789
3.080000 0.880000 5.040000 83.230637 53.724087 9813.616211
3.080000 0.880000 5.080000 21.913162 66.040230 4841.498535
3.080000 0.880000 5.120000 -20.505651 33.326004 1531.104248
3.080000 0.880000 5.160000 -21.282169 -9.742043 547.838135
3.080000 0.880000 5.200000 4.988294 -29.068754 869.875549
3.080000 0.920000 4.800000 -3.258585 -35.757767 1289.236328
3.080000 0.920000 4.840000 2.049576 -80.725769 6520.850586
3.080000 0.920000 4.880000 58.421001 -117.036980 17110.667969
3.080000 0.920000 4.920000 141.773331 -95.929138 29302.078125
3.080000 0.920000 4.960000 191.400024 -10.129303 36736.570312
3.080000 0.920000 5.000000 163.550705 90.728477 34980.492188
3.080000 0.920000 5.040000 74.030617 139.683990 24992.148438
3.080000 0.920000 5.080000 -13.551868 110.727089 12444.141602
3.080000 0.920000 5.120000 -43.523434 39.384888 3445.458740
3.080000 0.920000 5.160000 -13.902243 -13.204659 367.635376
3.080000 0.920000 5.200000 30.356800 -15.671185 1167.121338
3.080000 0.960000 4.800000 25.744598 -35.698586 1937.173340
3.080000 0.960000 4.840000 59.944969 -78.538834 9761.748047
3.080000 0.960000 4.880000 141.936401 -79.239029 26424.765625
3.080000 0.960000 4.920000 214.980377 -2.502052 46222.824219
3.080000 0.960000 4.960000 211.033051 120.085121 58955.386719
3.080000 0.960000 5.000000 116.401611 208.615524 57069.773438
3.080000 0.960000 5.040000 -9.477722 203.485519 41496.183594
3.080000 0.960000 5.080000 -83.779678 118.422974 21043.035156
3.080000 0.960000 5.120000 -71.567139 25.949709 5795.242676
3.080000 0.960000 5.160000 -10.082337 -9.512756 192.146057
3.080000 0.960000 5.200000 34.158043 15.243556 1399.137817
3.080000 1.000000 4.800000 46.174099 -12.615011 2291.185791
3.080000 1.000000 4.840000 100.985611 -31.610531 11197.319336
3.080000 1.000000 4.880000 174.858643 14.780434 30794.005859
3.080000 1.000000 4.920000 196.673859 125.894348 54529.992188
3.080000 1.000000 4.960000 123.198761 234.855530 70335.054688
3.080000 1.000000 5.000000 -12.903489 262.267975 68950.992188
3.080000 1.000000 5.040000 -125.064224 187.980423 50977.703125
3.080000 1.000000 5.080000 -146.910629 70.309990 26526.226562
3.080000 1.000000 5.120000 -87.447357 -6.811085 7693.431152
3.080000 1.000000 5.160000 -15.221687 -6.801441 277.959381
3.080000 1.000000 5.200000 9.340317 36.519257 1420.897705
3.080000 1.040000 4.800000 43.027744 18.131197 2180.126953
3.080000 1.040000 4.840000 95.379913 30.914257 10053.019531
3.080000 1.040000 4.880000 129.538864 104.716187 27745.796875
3.080000 1.040000 4.920000 90.429359 203.157333 49450.371094
3.080000 1.040000 4.960000 -22.295691 252.664093 64336.242188
3.080000 1.040000 5.000000 -144.190155 207.589996 63884.406250
3.080000 1.040000 5.040000 -198.292847 94.386475 48228.859375
3.080000 1.040000 5.080000 -161.267365 -9.934952 26105.865234
3.080000 1.040000 5.120000 -79.882164 -44.993084 8405.538086
3.080000 1.040000 5.160000 -23.785145 -14.919219 788.316162
3.080000 1.040000 5.200000 -23.158323 26.535484 1240.439941
3.080000 1.080000 4.800000 20.105024 35.778793 1684.334106
3.080000 1.080000 4.840000 49.224365 67.796722 7019.433594
3.080000 1.080000 4.880000 38.914696 132.476471 19064.369141
3.080000 1.080000 4.920000 -31.091579 181.579651 33937.855469
3.080000 1.080000 4.960000 -129.377197 166.500168 44460.765625
3.080000 1.080000 5.000000 -194.359451 84.301651 44882.367188
3.080000 1.080000 5.040000 -186.386215 -16.075851 34998.253906
3.080000 1.080000 5.080000 -120.975006 -74.964554 20254.636719
3.080000 1.080000 5.120000 -51.956093 -71.292168 7782.008789
3.080000 1.080000 5.160000 -22.569118 -33.936020 1661.018555
3.080000 1.080000 5.200000 -32.340454 -7.958184 1109.237671
3.080000 1.120000 4.800000 -4.440815 32.142120 1052.836670
3.080000 1.120000 4.840000 -1.962305 60.706642 3689.146973
3.080000 1.120000 4.880000 -32.820137 91.233330 9400.681641
3.080000 1.120000 4.920000 -89.408676 91.627075 16389.431641
3.080000 1.120000 4.960000 -138.595749 48.213795 21533.351562
3.080000 1.120000 5.000000 -148.091278 -19.985886 22330.462891
3.080000 1.120000 5.040000 -113.103455 -75.769218 18533.367188
3.080000 1.120000 5.080000 -58.756733 -93.593430 12212.083984
3.080000 1.120000 5.120000 -17.428673 -77.239578 6269.711426
3.080000 1.120000 5.160000 -3.355494 -51.025429 2614.853760
3.080000 1.120000 5.200000 -7.008596 -36.045364 1348.388672
3.080000 1.160000 4.800000 -15.430562 16.918922 524.352173
3.080000 1.160000 4.840000 -25.708031 26.723377 1375.041748
3.080000 1.160000 4.880000 -46.342197 26.139515 2830.873535
3.080000 1.160000 4.920000 -66.043732 9.442902 4450.942871
3.080000 1.160000 4.960000 -73.340302 -18.639221 5726.220215
3.080000 1.160000 5.000000 -64.038834 -47.310287 6339.235352
3.080000 1.160000 5.040000 -41.927299 -67.007584 6247.914551
3.080000 1.160000 5.080000 -14.601887 -73.332268 5590.836914
3.080000 1.160000 5.120000 10.441223 -66.612885 4546.295410
3.080000 1.160000 5.160000 27.251951 -50.450996 3287.971680
3.080000 1.160000 5.200000 32.419178 -31.189878 2023.811523
3.080000 1.200000 4.800000 -13.403311 5.772882 212.974915
3.080000 1.200000 4.840000 -18.776375 -2.078928 356.874176
3.080000 1.200000 4.880000 -15.616995 -11.298038 371.536194
3.080000 1.200000 4.920000 -8.582384 -13.370422 252.425507
3.080000 1.200000 4.960000 -7.602459 -10.160389 161.030884
3.080000 1.200000 5.000000 -14.197357 -12.852459 366.750671
3.080000 1.200000 5.040000 -16.747124 -27.910776 1059.477539
3.080000 1.200000 5.080000 -2.335411 -46.084015 2129.190430
3.080000 1.200000 5.120000 26.763741 -48.925144 3109.967529
3.080000 1.200000 5.160000 51.333462 -27.993383 3418.753906
3.080000 1.200000 5.200000 52.622955 3.805450 2783.656982
3.120000 0.800000 4.800000 -21.087639 6.972212 493.300232
3.120000 0.800000 4.840000 -20.272894 -1.662613 413.754517
3.120000 0.800000 4.880000 -13.936594 -7.095447 244.574020
3.120000 0.800000 4.920000 -6.656452 -6.200887 82.759354
3.120000 0.800000 4.960000 -3.584904 -1.047142 13.948041
3.120000 0.800000 5.000000 -5.725044 3.219685 43.142502
3.120000 0.800000 5.040000 -9.602250 3.448517 104.095474
3.120000 0.800000 5.080000 -11.467459 0.954824 132.414291
3.120000 0.800000 5.120000 -11.068861 -1.047228 123.616371
3.120000 0.800000 5.160000 -10.860173 -1.640099 120.633286
3.120000 0.800000 5.200000 -12.030977 -2.934618 153.356400
3.120000 0.840000 4.800000 -20.639175 -15.759380 674.333618
3.120000 0.840000 4.840000 -17.148121 -26.532560 998.034790
3.120000 0.840000 4.880000 -5.065037 -35.535610 1288.434082
3.120000 0.840000 4.920000 12.754471 -34.779102 1372.262451
3.120000 0.840000 4.960000 26.707577 -21.474472 1174.447632
3.120000 0.840000 5.000000 27.906830 -2.124813 783.305969
3.120000 0.840000 5.040000 15.909829 11.797783 392.310364
3.120000 0.840000 5.080000 -0.678186 12.812244 164.613541
3.120000 0.840000 5.120000 -11.203479 2.860306 133.699280
3.120000 0.840000 5.160000 -11.038103 -9.379584 209.816315
3.120000 0.840000 5.200000 -3.679549 -16.102186 272.819489
3.120000 0.880000 4.800000 0.227036 -32.495117 1055.984131
3.120000 0.880000 4.840000 8.934246 -45.220673 2124.729980
3.120000 0.880000 4.880000 32.751503 -52.316723 3809.700439
3.120000 0.880000 4.920000 62.488338 -38.568138 5392.293945
3.120000 0.880000 4.960000 77.156715 -3.389313 5964.645996
3.120000 0.880000 5.000000 62.738823 34.311226 5113.419922
3.120000 0.880000 5.040000 26.751913 50.565529 3272.537598
3.120000 0.880000 5.080000 -6.626926 37.068073 1417.958252
3.120000 0.880000 5.120000 -16.942636 8.060180 352.019409
3.120000 0.880000 5.160000 -3.947832 -13.124344 187.833771
3.120000 0.880000 5.200000 15.084257 -14.456615 436.528564
3.120000 0.920000 4.800000 29.762152 -26.934021 1611.227051
3.120000 0.920000 4.840000 46.388878 -37.982224 3594.577148
3.120000 0.920000 4.880000 80.570053 -31.882778 7508.045410
3.120000 0.920000 4.920000 108.937973 6.241570 11906.439453
3.120000 0.920000 4.960000 102.337036 62.424839 14369.729492
3.120000 0.920000 5.000000 55.436424 100.993332 13272.850586
3.120000 0.920000 5.040000 -4.002666 95.408783 9118.857422
3.120000 0.920000 5.080000 -37.555805 52.943024 4213.402344
3.120000 0.920000 5.120000 -29.377541 8.287045 931.715027
3.120000 0.920000 5.160000 2.126135 -7.886803 66.722107
3.120000 0.920000 5.200000 24.547554 5.588037 633.808533
3.120000 0.960000 4.800000 46.122776 0.784442 2127.925781
3.120000 0.960000 4.840000 69.476578 -2.407584 4832.791016
3.120000 0.960000 4.880000 101.911850 24.404037 10981.582031
3.120000 0.960000 4.920000 108.064346 82.566635 18495.152344
3.120000 0.960000 4.960000 65.114441 138.177185 23332.824219
3.120000 0.960000 5.000000 -9.799431 149.320129 22392.531250
3.120000 0.960000 5.040000 -69.860947 105.479149 16006.402344
3.120000 0.960000 5.080000 -79.002937 39.276520 7784.108887
3.120000 0.960000 5.120000 -43.179977 -2.420401 1870.368896
3.120000 0.960000 5.160000 -1.830909 0.232218 3.406152
3.120000 0.960000 5.200000 10.778181 26.724625 830.374756
3.120000 1.000000 4.800000 36.108109 31.906544 2321.822998
3.120000 1.000000 4.840000 59.670341 40.678886 5215.321289
3.120000 1.000000 4.880000 74.738846 83.128006 12496.160156
3.120000 1.000000 4.920000 47.573105 139.952576 21849.921875
3.120000 1.000000 4.960000 -23.474297 166.734894 28351.568359
3.120000 1.000000 5.000000 -98.846138 134.810547 27944.441406
3.120000 1.000000 5.040000 -130.011963 61.087189 20634.755859
3.120000 1.000000 5.080000 -102.793770 -4.684748 10588.506836
3.120000 1.000000 5.120000 -48.828358 -23.923037 2956.520264
3.120000 1.000000 5.160000 -14.169916 -1.206646 202.242523
3.120000 1.000000 5.200000 -17.223310 26.206306 983.412964
3.120000 1.040000 4.800000 7.530483 44.522331 2038.946167
3.120000 1.040000 4.840000 22.929535 63.156494 4514.506348
3.120000 1.040000 4.880000 13.762819 104.983780 11211.008789
3.120000 1.040000 4.920000 -36.888069 136.879990 20096.861328
3.120000 1.040000 4.960000 -107.593826 122.667755 26623.808594
3.120000 1.040000 5.000000 -152.709808 59.596272 26872.000000
3.120000 1.040000 5.040000 -142.583588 -15.072365 20557.255859
3.120000 1.040000 5.080000 -90.452454 -55.808548 11296.240234
3.120000 1.040000 5.120000 -39.122261 -48.176662 3851.541992
3.120000 1.040000 5.160000 -21.304892 -17.468876 759.060059
3.120000 1.040000 5.200000 -33.167992 -0.054741 1100.118774
3.120000 1.080000 4.800000 -17.551001 32.793427 1383.446411
3.120000 1.080000 4.840000 -14.871103 53.461765 3079.310059
3.120000 1.080000 4.880000 -40.487614 78.618500 7820.115234
3.120000 1.080000 4.920000 -90.239029 77.918594 14214.389648
3.120000 1.080000 4.960000 -133.360794 36.773804 19137.414062
3.120000 1.080000 5.000000 -138.261093 -26.710617 19829.585938
3.120000 1.080000 5.040000 -101.101257 -75.473206 15917.667969
3.120000 1.080000 5.080000 -48.988892 -85.249100 9667.320312
3.120000 1.080000 5.120000 -14.964472 -63.510078 4257.465332
3.120000 1.080000 5.160000 -10.008465 -38.311508 1567.940918
3.120000 1.080000 5.200000 -18.691616 -30.279852 1266.245972
3.120000 1.120000 4.800000 -23.014339 11.246710 656.148254
3.120000 1.120000 4.840000 -30.762043 25.254543 1584.095215
3.120000 1.120000 4.880000 -56.414909 29.205444 4035.600098
3.120000 1.120000 4.920000 -84.932327 8.966072 7293.890625
3.120000 1.120000 4.960000 -94.624275 -30.976173 9913.277344
3.120000 1.120000 5.000000 -75.857246 -69.944099 10646.499023
3.120000 1.120000 5.040000 -38.922672 -88.047043 9267.255859
3.120000 1.120000 5.080000 -4.292509 -81.414688 6646.777344
3.120000 1.120000 5.120000 14.340078 -62.111942 4063.531250
3.120000 1.120000 5.160000 18.153902 -45.058853 2359.864502
3.120000 1.120000 5.200000 16.986414 -35.948837 1580.857178
3.120000 1.160000 4.800000 -12.667652 -0.304729 160.562271
3.120000 1.160000 4.840000 -23.536446 2.590666 560.675842
3.120000 1.160000 4.880000 -36.367668 -6.232811 1361.455200
3.120000 1.160000 4.920000 -41.209545 -24.514690 2299.196533
3.120000 1.160000 4.960000 -33.973915 -43.790104 3071.800293
3.120000 1.160000 5.000000 -17.740467 -56.680439 3527.396240
3.120000 1.160000 5.040000 1.916393 -60.752544 3694.544189
3.120000 1.160000 5.080000 21.024775 -56.636238 3649.704590
3.120000 1.160000 5.120000 36.784126 -45.099689 3387.053711
3.120000 1.160000 5.160000 45.511002 -27.692867 2838.145996
3.120000 1.160000 5.200000 43.976547 -9.327005 2020.929810
3.120000 1.200000 4.800000 -4.243864 3.794841 32.411198
3.120000 1.200000 4.840000 -10.491975 -2.930896 118.671684
3.120000 1.200000 4.880000 -8.663351 -11.529448 207.981812
3.120000 1.200000 4.920000 -2.895203 -14.974413 232.615250
3.120000 1.200000 4.960000 -0.214539 -15.116436 228.552658
3.120000 1.200000 5.000000 -0.021282 -19.236576 370.046326
3.120000 1.200000 5.040000 6.352722 -28.479912 851.462402
3.120000 1.200000 5.080000 24.116068 -32.952682 1667.463989
3.120000 1.200000 5.120000 45.112991 -21.317989 2489.638672
3.120000 1.200000 5.160000 52.897049 4.736431 2820.531738
3.120000 1.200000 5.200000 39.469578 28.486116 2369.306396
3.160000 0.800000 4.800000 -28.312117 -13.151209 974.530212
3.160000 0.800000 4.840000 -18.275204 -20.825512 767.684998
3.160000 0.800000 4.880000 -6.844449 -19.861387 441.321167
3.160000 0.800000 4.920000 -0.867760 -12.881653 166.689987
3.160000 0.800000 4.960000 -1.864746 -6.747754 49.009464
3.160000 0.800000 5.000000 -5.129819 -5.911983 61.266594
3.160000 0.800000 5.040000 -5.130621 -8.495823 98.502289
3.160000 0.800000 5.080000 -1.305246 -9.223310 86.773102
3.160000 0.800000 5.120000 1.970966 -5.689942 36.260151
3.160000 0.800000 5.160000 0.890642 -0.990324 1.773987
3.160000 0.800000 5.200000 -3.191821 0.132715 10.205333
3.160000 0.840000 4.800000 -6.802333 -31.921934 1065.281616
3.160000 0.840000 4.840000 5.742010 -30.141102 941.456726
3.160000 0.840000 4.880000 14.480442 -22.171274 701.248596
3.160000 0.840000 4.920000 16.791359 -12.139681 429.321594
3.160000 0.840000 4.960000 13.698503 -4.462992 207.567291
3.160000 0.840000 5.000000 8.601493 -1.139343 75.283783
3.160000 0.840000 5.040000 4.536728 -1.253695 22.153650
3.160000 0.840000 5.080000 2.497370 -2.733635 13.709616
3.160000 0.840000 5.120000 1.970876 -4.266749 22.089502
3.160000 0.840000 5.160000 2.443963 -5.560329 36.890217
3.160000 0.840000 5.200000 3.901425 -6.356674 55.628426
3.160000 0.880000 4.800000 25.011539 -26.597742 1333.016968
3.160000 0.880000 4.840000 32.219212 -16.515074 1310.825317
3.160000 0.880000 4.880000 34.648476 -5.067125 1226.192627
3.160000 0.880000 4.920000 32.261200 6.227831 1079.570923
3.160000 0.880000 4.960000 24.894459 15.239504 851.976562
3.160000 0.880000 5.000000 13.989575 18.933924 554.201660
3.160000 0.880000 5.040000 3.645882 15.549099 255.066925
3.160000 0.880000 5.080000 -1.251041 7.109489 52.109947
3.160000 0.880000 5.120000 1.177780 -0.934605 2.260653
3.160000 0.880000 5.160000 7.857131 -3.540359 74.268646
3.160000 0.880000 5.200000 13.051685 -0.104861 170.357498
3.160000 0.920000 4.800000 42.782524 3.793567 1844.735474
3.160000 0.920000 4.840000 40.570854 15.427951 1884.015869
3.160000 0.920000 4.880000 36.476410 25.690624 1990.536621
3.160000 0.920000 4.920000 28.842815 36.014526 2128.954102
3.160000 0.920000 4.960000 15.090343 43.158707 2090.392334
3.160000 0.920000 5.000000 -2.135014 41.142544 1697.267090
3.160000 0.920000 5.040000 -14.393419 28.441019 1016.062073
3.160000 0.920000 5.080000 -14.483007 12.030907 354.500244
3.160000 0.920000 5.120000 -3.993082 2.607991 22.746319
3.160000 0.920000 5.160000 7.221405 5.030770 77.457336
3.160000 0.920000 5.200000 9.974380 13.862135 291.647034
3.160000 0.960000 4.800000 30.454693 38.602379 2417.632080
3.160000 0.960000 4.840000 21.468044 44.685822 2457.699463
3.160000 0.960000 4.880000 13.548397 50.668339 2750.839600
3.160000 0.960000 4.920000 1.283069 57.228050 3276.696045
3.160000 0.960000 4.960000 -17.494738 57.385860 3599.202881
3.160000 0.960000 5.000000 -35.449348 44.619808 3247.583496
3.160000 0.960000 5.040000 -41.080597 22.534683 2195.427490
3.160000 0.960000 5.080000 -30.670387 4.222637 958.503357
3.160000 0.960000 5.120000 -13.544880 0.591672 183.813858
3.160000 0.960000 5.160000 -3.925478 9.718529 109.859177
3.160000 0.960000 5.200000 -7.297358 18.951004 412.391998
3.160000 1.000000 4.800000 -4.107134 51.694572 2689.197510
3.160000 1.000000 4.840000 -13.143422 50.307056 2703.549316
3.160000 1.000000 4.880000 -21.570274 51.755951 3143.955078
3.160000 1.000000 4.920000 -36.012016 52.152855 4016.785645
3.160000 1.000000 4.960000 -54.119240 42.340569 4721.615723
3.160000 1.000000 5.000000 -64.335510 20.114643 4543.657227
3.160000 1.000000 5.040000 -57.593884 -4.151381 3334.289307
3.160000 1.000000 5.080000 -38.134903 -16.009645 1710.579590
3.160000 1.000000 5.120000 -20.826759 -11.102495 557.019287
3.160000 1.000000 5.160000 -16.921215 0.449314 286.529388
3.160000 1.000000 5.200000 -23.391930 4.655852 568.859314
3.160000 1.040000 4.800000 -34.593552 34.465805 2384.605469
3.160000 1.040000 4.840000 -38.980385 29.672077 2399.902588
3.160000 1.040000 4.880000 -46.179340 28.140703 2924.430664
3.160000 1.040000 4.920000 -58.981071 21.871094 3957.111572
3.160000 1.040000 4.960000 -69.685120 4.438688 4875.718262
3.160000 1.040000 5.000000 -67.394043 -19.511143 4922.641602
3.160000 1.040000 5.040000 -50.292561 -36.838806 3886.439209
3.160000 1.040000 5.080000 -29.004316 -38.489494 2322.691406
3.160000 1.040000 5.120000 -16.746552 -28.536406 1094.773438
3.160000 1.040000 5.160000 -16.647707 -19.642988 662.993164
3.160000 1.040000 5.200000 -19.845215 -19.803350 786.005249
3.160000 1.080000 4.800000 -39.392773 3.712231 1565.571167
3.160000 1.080000 4.840000 -40.345032 0.796247 1628.355591
3.160000 1.080000 4.880000 -46.388985 -2.587896 2158.635254
3.160000 1.080000 4.920000 -54.045612 -13.481262 3102.672607
3.160000 1.080000 4.960000 -54.335224 -31.801064 3963.624268
3.160000 1.080000 5.000000 -42.304363 -48.850536 4176.034180
3.160000 1.080000 5.040000 -22.826115 -55.274597 3576.312500
3.160000 1.080000 5.080000 -6.246099 -49.931084 2532.126709
3.160000 1.080000 5.120000 1.327805 -40.237274 1620.801270
3.160000 1.080000 5.160000 2.742412 -34.017548 1164.714478
3.160000 1.080000 5.200000 4.905135 -31.950680 1044.906250
3.160000 1.120000 4.800000 -20.828060 -14.148609 633.991211
3.160000 1.120000 4.840000 -23.265642 -14.473829 750.781860
3.160000 1.120000 4.880000 -28.210815 -20.101667 1199.927124
3.160000 1.120000 4.920000 -29.166183 -31.837654 1864.302490
3.160000 1.120000 4.960000 -21.797543 -44.412045 2447.562500
3.160000 1.120000 5.000000 -7.915493 -51.326622 2697.077148
3.160000 1.120000 5.040000 6.733179 -50.349022 2580.359619
3.160000 1.120000 5.080000 17.807556 -44.085522 2260.642334
3.160000 1.120000 5.120000 24.901510 -36.064819 1920.756348
3.160000 1.120000 5.160000 29.396023 -27.437637 1616.950073
3.160000 1.120000 5.200000 31.249496 -17.795212 1293.200562
3.160000 1.160000 4.800000 -1.655575 -7.896110 65.089470
3.160000 1.160000 4.840000 -7.923968 -10.336688 169.636398
3.160000 1.160000 4.880000 -10.050963 -18.744101 452.363159
3.160000 1.160000 4.920000 -5.298092 -27.439220 780.980591
3.160000 1.160000 4.960000 3.519299 -31.935911 1032.287842
3.160000 1.160000 5.000000 12.568287 -32.378170 1206.307739
3.160000 1.160000 5.040000 21.273848 -30.759544 1398.726196
3.160000 1.160000 5.080000 30.910583 -26.476263 1656.456665
3.160000 1.160000 5.120000 39.902878 -16.676128 1870.332886
3.160000 1.160000 5.160000 42.869667 -1.447022 1839.902222
3.160000 1.160000 5.200000 35.963585 13.105510 1465.133789
3.160000 1.200000 4.800000 -1.963114 8.858004 82.318039
3.160000 1.200000 4.840000 -7.940417 -0.458385 63.260345
3.160000 1.200000 4.880000 -4.488645 -9.842632 117.025345
3.160000 1.200000 4.920000 2.958757 -12.973236 177.059097
3.160000 1.200000 4.960000 7.986726 -12.015813 208.167542
3.160000 1.200000 5.000000 11.254816 -12.461348 281.956055
3.160000 1.200000 5.040000 18.369289 -13.947815 531.972290
3.160000 1.200000 5.080000 30.189144 -9.272386 997.361511
3.160000 1.200000 5.120000 38.300880 6.142777 1504.691162
3.160000 1.200000 5.160000 32.822834 25.698700 1737.761475
3.160000 1.200000 5.200000 14.625514 35.657032 1485.329590
3.200000 0.800000 4.800000 -17.785761 -30.246130 1231.161621
3.200000 0.800000 4.840000 -3.699558 -30.546846 946.796509
3.200000 0.800000 4.880000 5.622817 -22.867167 554.523376
3.200000 0.800000 4.920000 6.928063 -14.210773 249.944122
3.200000 0.800000 4.960000 4.077892 -10.585285 128.677475
3.200000 0.800000 5.000000 3.563469 -11.595093 147.144501
3.200000 0.800000 5.040000 7.694790 -11.684256 195.731628
3.200000 0.800000 5.080000 12.532375 -6.593109 200.529510
3.200000 0.800000 5.120000 12.506458 1.944600 160.192963
3.200000 0.800000 5.160000 6.583464 8.106112 109.051041
3.200000 0.800000 5.200000 -0.678777 8.183297 67.427094
3.200000 0.840000 4.800000 12.862748 -31.348476 1148.177246
3.200000 0.840000 4.840000 20.222696 -17.448811 713.418457
3.200000 0.840000 4.880000 15.802862 -4.884938 273.593079
3.200000 0.840000 4.920000 6.049879 -1.756824 39.687469
3.200000 0.840000 4.960000 0.734359 -7.232327 52.845829
3.200000 0.840000 5.000000 4.085399 -13.200112 190.933456
3.200000 0.840000 5.040000 11.718296 -12.438638 292.038177
3.200000 0.840000 5.080000 15.868769 -5.070168 277.524445
3.200000 0.840000 5.120000 13.118673 2.704097 179.411728
3.200000 0.840000 5.160000 6.827214 5.485758 76.704391
3.200000 0.840000 5.200000 2.581816 3.625097 19.807106
3.200000 0.880000 4.800000 34.749039 -5.326645 1235.868896
3.200000 0.880000 4.840000 24.556164 12.689701 764.033691
3.200000 0.880000 4.880000 5.913907 16.257885 299.293121
3.200000 0.880000 4.920000 -6.622331 5.106639 69.933022
3.200000 0.880000 4.960000 -4.825733 -9.578903 115.043083
3.200000 0.880000 5.000000 7.152026 -15.575690 293.753601
3.200000 0.880000 5.040000 18.030346 -9.754843 420.250336
3.200000 0.880000 5.080000 20.020346 1.127583 402.085693
3.200000 0.880000 5.120000 14.385336 8.352100 276.695496
3.200000 0.880000 5.160000 7.811968 9.074883 143.380341
3.200000 0.880000 5.200000 4.847424 6.818209 69.985481
3.200000 0.920000 4.800000 27.476513 30.815632 1704.561890
3.200000 0.920000 4.840000 1.269680 36.848991 1359.460205
3.200000 0.920000 4.880000 -19.848358 21.772385 867.994080
3.200000 0.920000 4.920000 -21.937073 -2.224763 486.184753
3.200000 0.920000 4.960000 -6.421018 -17.510635 347.851807
3.200000 0.920000 5.000000 12.779219 -15.437600 401.627930
3.200000 0.920000 5.040000 22.061691 -1.502292 488.975128
3.200000 0.920000 5.080000 18.417953 11.978733 482.711060
3.200000 0.920000 5.120000 8.776218 17.090958 369.122833
3.200000 0.920000 5.160000 1.406528 14.858198 222.744370
3.200000 0.920000 5.200000 -0.994231 10.891878 119.621506
3.200000 0.960000 4.800000 -6.798534 48.840736 2431.637451
3.200000 0.960000 4.840000 -34.546501 33.812408 2336.739746
3.200000 0.960000 4.880000 -42.465538 3.689146 1816.931641
3.200000 0.960000 4.920000 -26.690632 -21.042599 1155.180786
3.200000 0.960000 4.960000 -0.522455 -25.498440 650.443359
3.200000 0.960000 5.000000 17.621719 -11.021775 432.004517
3.200000 0.960000 5.040000 18.668156 8.607888 422.595764
3.200000 0.960000 5.080000 7.301291 19.975975 452.348419
3.200000 0.960000 5.120000 -5.272586 19.467047 406.766083
3.200000 0.960000 5.160000 -11.426645 12.460091 285.822083
3.200000 0.960000 5.200000 -10.926799 5.970366 155.040207
3.200000 1.000000 4.800000 -42.766212 33.654617 2961.582275
3.200000 1.000000 4.840000 -55.779732 3.647746 3124.684570
3.200000 1.000000 4.880000 -43.657063 -26.643787 2615.830566
3.200000 1.000000 4.920000 -15.182184 -38.489716 1711.957031
3.200000 1.000000 4.960000 10.282803 -27.327301 852.517395
3.200000 1.000000 5.000000 18.189920 -4.578023 351.831482
3.200000 1.000000 5.040000 8.405811 13.106922 242.449066
3.200000 1.000000 5.080000 -7.811223 16.588419 336.190826
3.200000 1.000000 5.120000 -18.484463 8.471782 413.446442
3.200000 1.000000 5.160000 -19.129635 -2.266930 371.081909
3.200000 1.000000 5.200000 -12.942410 -8.335198 236.981506
3.200000 1.040000 4.800000 -53.148117 -2.337553 2830.186523
3.200000 1.040000 4.840000 -46.704071 -31.023949 3143.755615
3.200000 1.040000 4.880000 -22.103159 -47.399147 2735.228760
3.200000 1.040000 4.920000 5.401862 -42.272541 1816.147949
3.200000 1.040000 4.960000 19.502285 -21.472015 841.386597
3.200000 1.040000 5.000000 14.675974 -0.396142 215.541138
3.200000 1.040000 5.040000 -1.360900 8.062859 66.861740
3.200000 1.040000 5.080000 -15.273684 1.944044 237.064728
3.200000 1.040000 5.120000 -18.322985 -10.761577 451.543304
3.200000 1.040000 5.160000 -11.061152 -19.835546 515.797974
3.200000 1.040000 5.200000 -0.490184 -20.047169 402.129272
3.200000 1.080000 4.800000 -33.004494 -29.713118 1972.166016
3.200000 1.080000 4.840000 -17.047714 -44.651333 2284.366211
3.200000 1.080000 4.880000 5.225714 -45.152855 2066.088379
3.200000 1.080000 4.920000 21.112007 -31.054831 1410.119385
3.200000 1.080000 4.960000 22.282581 -12.026001 641.138123
3.200000 1.080000 5.000000 10.785451 -0.407509 116.492012
3.200000 1.080000 5.040000 -2.943653 -2.195625 13.485862
3.200000 1.080000 5.080000 -8.301838 -13.253442 244.574219
3.200000 1.080000 5.120000 -2.180168 -23.388382 551.769531
3.200000 1.080000 5.160000 9.722294 -24.518162 695.663269
3.200000 1.080000 5.200000 18.304260 -16.231850 598.518860
3.200000 1.120000 4.800000 -3.830040 -28.742867 840.821594
3.200000 1.120000 4.840000 7.267500 -31.438202 1041.177124
3.200000 1.120000 4.880000 18.419621 -26.178555 1024.599121
3.200000 1.120000 4.920000 23.202837 -14.968935 762.440674
3.200000 1.120000 4.960000 18.904861 -4.765335 380.102203
3.200000 1.120000 5.000000 9.695597 -2.447573 99.995209
3.200000 1.120000 5.040000 4.031554 -8.778167 93.309647
3.200000 1.120000 5.080000 7.639071 -17.043890 348.849579
3.200000 1.120000 5.120000 18.185934 -18.501797 673.044678
3.200000 1.120000 5.160000 27.025162 -10.111183 832.595398
3.200000 1.120000 5.200000 26.802343 2.682733 725.562683
3.200000 1.160000 4.800000 7.178185 -7.020401 100.812363
3.200000 1.160000 4.840000 8.311332 -9.396660 157.375458
3.200000 1.160000 4.880000 12.171781 -9.485609 238.129013
3.200000 1.160000 4.920000 14.795066 -6.048599 255.479538
3.200000 1.160000 4.960000 13.482070 -2.593114 188.490448
3.200000 1.160000 5.000000 10.836076 -3.262308 128.063187
3.200000 1.160000 5.040000 12.360228 -7.048317 202.454010
3.200000 1.160000 5.080000 19.617029 -7.643782 443.255219
3.200000 1.160000 5.120000 26.930336 -0.130477 725.260010
3.200000 1.160000 5.160000 26.354649 12.582384 852.883911
3.200000 1.160000 5.200000 16.249985 21.450092 724.168457
3.200000 1.200000 4.800000 -7.046085 9.135920 133.112350
3.200000 1.200000 4.840000 -7.975729 -1.941372 67.381180
3.200000 1.200000 4.880000 -1.018454 -8.606159 75.103226
3.200000 1.200000 4.920000 6.565186 -7.979363 106.771904
3.200000 1.200000 4.960000 10.036572 -4.408490 120.167549
3.200000 1.200000 5.000000 11.494183 -2.502554 138.378998
3.200000 1.200000 5.040000 15.129916 -0.905290 229.733917
3.200000 1.200000 5.080000 19.839870 5.286520 421.567749
3.200000 1.200000 5.120000 19.116875 16.483114 637.147949
3.200000 1.200000 5.160000 9.132185 25.458220 731.517761
3.200000 1.200000 5.200000 -4.719362 24.267973 611.206909
