#kx 	ky 	kz 	real 	imag 	intensity
8.800000 2.800000 0.800000 -26.001194 10.703798 790.633362
8.800000 2.800000 0.840000 -27.826401 -0.391779 774.462097
8.800000 2.800000 0.880000 -25.721849 -9.815282 757.953308
8.800000 2.800000 0.920000 -21.050776 -18.413147 782.179138
8.800000 2.800000 0.960000 -11.898646 -25.792116 806.811035
8.800000 2.800000 1.000000 2.275850 -27.367233 754.144958
8.800000 2.800000 1.040000 15.965487 -18.597643 600.769104
8.800000 2.800000 1.080000 20.337582 -1.882110 417.159546
8.800000 2.800000 1.120000 11.703186 12.943134 304.489288
8.800000 2.800000 1.160000 -3.716476 16.737617 293.960022
8.800000 2.800000 1.200000 -15.100422 9.552597 319.274841
8.800000 2.840000 0.800000 -24.467924 -15.004674 823.819580
8.800000 2.840000 0.840000 -17.659687 -23.904892 883.308350
8.800000 2.840000 0.880000 -8.327845 -28.975014 908.904419
8.800000 2.840000 0.920000 2.441346 -29.709694 888.626038
8.800000 2.840000 0.960000 12.668982 -24.795586 775.324158
8.800000 2.840000 1.000000 18.258835 -14.625808 547.299316
8.800000 2.840000 1.040000 15.928881 -3.750002 267.791748
8.800000 2.840000 1.080000 7.621133 1.444228 60.167461
8.800000 2.840000 1.120000 0.284155 -1.215117 1.557253
8.800000 2.840000 1.160000 -0.451134 -6.701805 45.117714
8.800000 2.840000 1.200000 3.483474 -7.568062 69.410149
8.800000 2.880000 0.800000 -4.734301 -31.299290 1002.059082
8.800000 2.880000 0.840000 7.446059 -32.564499 1115.890381
8.800000 2.880000 0.880000 19.173962 -28.178347 1161.660034
8.800000 2.880000 0.920000 27.217077 -17.726082 1054.983276
8.800000 2.880000 0.960000 26.893761 -4.196622 740.885986
8.800000 2.880000 1.000000 17.128841 4.736005 315.826965
8.800000 2.880000 1.040000 4.779939 2.225207 27.799366
8.800000 2.880000 1.080000 1.035328 -9.683216 94.836578
8.800000 2.880000 1.120000 10.873890 -19.112669 483.535614
8.800000 2.880000 1.160000 26.063004 -14.375690 885.940613
8.800000 2.880000 1.200000 30.923096 3.593124 969.148376
8.800000 2.920000 0.800000 19.702457 -27.712696 1156.180420
8.800000 2.920000 0.840000 30.316608 -19.382511 1294.778442
8.800000 2.920000 0.880000 36.027031 -6.265951 1337.208984
8.800000 2.920000 0.920000 32.661083 9.003363 1147.806885
8.800000 2.920000 0.960000 18.703323 18.241226 682.556641
8.800000 2.920000 1.000000 1.889686 12.821905 167.972153
8.800000 2.920000 1.040000 -3.222672 -5.648194 42.287704
8.800000 2.920000 1.080000 11.658379 -21.768990 609.806702
8.800000 2.920000 1.120000 37.199921 -17.708315 1697.418457
8.800000 2.920000 1.160000 51.009064 9.014084 2683.178223
8.800000 2.920000 1.200000 37.136147 39.634109 2949.956055
8.800000 2.960000 0.800000 32.418751 -7.934162 1113.926270
8.800000 2.960000 0.840000 34.428486 5.869052 1219.766479
8.800000 2.960000 0.880000 28.945114 19.541510 1219.690186
8.800000 2.960000 0.920000 14.803879 27.757668 989.642944
8.800000 2.960000 0.960000 -2.732697 22.699102 522.716919
8.800000 2.960000 1.000000 -10.257605 3.457722 117.174294
8.800000 2.960000 1.040000 3.333076 -16.652134 288.402985
8.800000 2.960000 1.080000 32.638176 -17.255928 1363.017578
8.800000 2.960000 1.120000 54.605522 10.160685 3085.002441
8.800000 2.960000 1.160000 46.433163 49.926628 4648.707031
8.800000 2.960000 1.200000 7.635059 71.884445 5225.667480
8.800000 3.000000 0.800000 25.935711 13.599344 857.603271
8.800000 3.000000 0.840000 17.542519 23.960386 881.840088
8.800000 3.000000 0.880000 4.735357 28.160812 815.454956
8.800000 3.000000 0.920000 -9.123951 22.853422 605.525391
8.800000 3.000000 0.960000 -15.683187 6.962248 294.435242
8.800000 3.000000 1.000000 -5.564556 -11.187962 156.134766
8.800000 3.000000 1.040000 20.120020 -14.902348 626.895142
8.800000 3.000000 1.080000 43.868122 7.213659 1976.448975
8.800000 3.000000 1.120000 42.428749 46.544819 3966.618896
8.800000 3.000000 1.160000 7.836342 76.021606 5840.692871
8.800000 3.000000 1.200000 -41.438694 70.891006 6742.700195
8.800000 3.040000 0.800000 6.034437 22.595928 546.990356
8.800000 3.040000 0.840000 -6.638951 21.657276 513.113281
8.800000 3.040000 0.880000 -15.543323 13.315968 418.909851
8.800000 3.040000 0.920000 -16.926004 0.409110 286.656982
8.800000 3.040000 0.960000 -7.424902 -11.586633 189.379227
8.800000 3.040000 1.000000 11.827862 -13.142064 312.612183
8.800000 3.040000 1.040000 30.177101 3.738679 924.635132
8.800000 3.040000 1.080000 30.797218 35.345070 2197.742676
8.800000 3.040000 1.120000 4.115841 62.994938 3985.302490
8.800000 3.040000 1.160000 -40.089035 64.428955 5758.221191
8.800000 3.040000 1.200000 -75.919357 32.559708 6823.883789
8.800000 3.080000 0.800000 -13.770627 14.334108 395.096832
8.800000 3.080000 0.840000 -20.065771 1.670074 405.424316
8.800000 3.080000 0.880000 -15.377357 -11.647296 372.122620
8.800000 3.080000 0.920000 -2.185640 -18.258501 338.149902
8.800000 3.080000 0.960000 13.636428 -13.750091 375.017151
8.800000 3.080000 1.000000 24.110132 2.626271 588.195740
8.800000 3.080000 1.040000 20.732635 26.021776 1106.974976
8.800000 3.080000 1.080000 -0.763366 44.954151 2021.458496
8.800000 3.080000 1.120000 -34.502789 45.668892 3276.090088
8.800000 3.080000 1.160000 -64.189049 21.836456 4597.064453
8.800000 3.080000 1.200000 -72.263710 -18.106285 5549.881348
8.800000 3.120000 0.800000 -22.047131 -4.939985 510.479401
8.800000 3.120000 0.840000 -14.496893 -21.164425 658.092773
8.800000 3.120000 0.880000 3.642568 -26.885326 736.089111
8.800000 3.120000 0.920000 21.221132 -17.386410 752.623657
8.800000 3.120000 0.960000 27.547256 2.679538 766.031250
8.800000 3.120000 1.000000 18.264257 23.034267 864.160522
8.800000 3.120000 1.040000 -3.377918 33.475777 1132.037842
8.800000 3.120000 1.080000 -28.729733 28.093636 1614.649902
8.800000 3.120000 1.120000 -47.244339 7.343448 2285.953857
8.800000 3.120000 1.160000 -50.476154 -21.825924 3024.212891
8.800000 3.120000 1.200000 -36.027481 -48.258484 3626.860840
8.800000 3.160000 0.800000 -15.936608 -24.002834 830.111511
8.800000 3.160000 0.840000 4.058517 -32.880554 1097.602417
8.800000 3.160000 0.880000 25.839123 -23.539915 1221.787842
8.800000 3.160000 0.920000 34.337975 -0.287787 1179.179199
8.800000 3.160000 0.960000 23.220394 22.405769 1041.205200
8.800000 3.160000 1.000000 -0.811296 30.613630 937.852539
8.800000 3.160000 1.040000 -23.721771 20.269466 973.573669
8.800000 3.160000 1.080000 -34.077419 -1.807920 1164.539062
8.800000 3.160000 1.120000 -29.125700 -24.343462 1440.910522
8.800000 3.160000 1.160000 -13.674273 -38.978390 1706.300537
8.800000 3.160000 1.200000 5.123734 -43.214127 1893.713379
8.800000 3.200000 0.800000 -0.759033 -34.343819 1180.074097
8.800000 3.200000 0.840000 22.987877 -30.269196 1444.666748
8.800000 3.200000 0.880000 37.349846 -8.745495 1471.494629
8.800000 3.200000 0.920000 31.165863 17.057743 1262.277588
8.800000 3.200000 0.960000 8.040939 29.690041 946.155273
8.800000 3.200000 1.000000 -16.129665 21.141159 707.114746
8.800000 3.200000 1.040000 -25.703476 -1.409395 662.655090
8.800000 3.200000 1.080000 -16.787600 -22.390284 783.148315
8.800000 3.200000 1.120000 1.886635 -30.358995 925.227966
8.800000 3.200000 1.160000 17.950069 -25.130367 953.740356
8.800000 3.200000 1.200000 25.177530 -14.637948 848.177551
8.840000 2.800000 0.800000 -26.899326 13.212931 898.155273
8.840000 2.800000 0.840000 -33.315029 -0.619927 1110.275391
8.840000 2.800000 0.880000 -30.340961 -17.579367 1229.608032
8.840000 2.800000 0.920000 -16.871391 -30.604866 1221.301636
8.840000 2.800000 0.960000 2.640553 -32.729351 1078.182983
8.840000 2.800000 1.000000 19.065628 -21.784492 838.062256
8.840000 2.800000 1.040000 23.781067 -3.336479 576.671204
8.840000 2.800000 1.080000 15.069405 12.002492 371.146790
8.840000 2.800000 1.120000 -0.078823 16.068022 258.187561
8.840000 2.800000 1.160000 -11.479061 9.245670 217.251266
8.840000 2.800000 1.200000 -14.047954 -0.863167 198.090057
8.840000 2.840000 0.800000 -22.163651 -10.601396 603.617004
8.840000 2.840000 0.840000 -14.894053 -22.637337 734.281860
8.840000 2.840000 0.880000 0.093050 -27.702503 767.437378
8.840000 2.840000 0.920000 15.291798 -21.171627 682.076904
8.840000 2.840000 0.960000 21.526812 -6.180379 501.600708
8.840000 2.840000 1.000000 15.287689 7.581753 291.196411
8.840000 2.840000 1.040000 2.269785 11.146856 129.404327
8.840000 2.840000 1.080000 -6.902872 3.832886 62.340656
8.840000 2.840000 1.120000 -5.843033 -6.131590 71.737427
8.840000 2.840000 1.160000 1.934053 -9.283707 89.927773
8.840000 2.840000 1.200000 6.696032 -4.101803 61.661625
8.840000 2.880000 0.800000 -1.780903 -21.528519 466.648712
8.840000 2.880000 0.840000 13.752659 -20.807289 622.078857
8.840000 2.880000 0.880000 26.363489 -7.077826 745.129211
8.840000 2.880000 0.920000 24.627293 13.759369 795.823792
8.840000 2.880000 0.960000 6.358082 26.820467 759.762695
8.840000 2.880000 1.000000 -16.242313 20.321444 676.773804
8.840000 2.880000 1.040000 -24.964211 -2.331856 628.649353
8.840000 2.880000 1.080000 -11.656485 -23.169628 672.705322
8.840000 2.880000 1.120000 13.027343 -24.588444 774.303223
8.840000 2.880000 1.160000 27.992966 -5.620281 815.193726
8.840000 2.880000 1.200000 20.699078 16.388403 697.031555
8.840000 2.920000 0.800000 17.726933 -12.562870 472.069824
8.840000 2.920000 0.840000 28.200493 3.470652 807.313232
8.840000 2.920000 0.880000 23.069607 27.306368 1277.844482
8.840000 2.920000 0.920000 -2.140522 42.130634 1779.572144
8.840000 2.920000 0.960000 -33.984699 31.562267 2151.136475
8.840000 2.920000 1.000000 -47.819607 -2.912678 2295.198486
8.840000 2.920000 1.040000 -28.760971 -37.934795 2266.242188
8.840000 2.920000 1.080000 12.085210 -45.520927 2218.207031
8.840000 2.920000 1.120000 43.821476 -17.993383 2244.083496
8.840000 2.920000 1.160000 41.586708 23.218128 2268.535889
8.840000 2.920000 1.200000 8.751862 45.165310 2116.500244
8.840000 2.960000 0.800000 21.115818 7.238820 498.278290
8.840000 2.960000 0.840000 15.765008 28.687689 1071.519043
8.840000 2.960000 0.880000 -8.936489 43.772480 1995.890869
8.840000 2.960000 0.920000 -43.534889 34.561348 3089.773438
8.840000 2.960000 0.960000 -63.090065 -2.795332 3988.170166
8.840000 2.960000 1.000000 -46.305450 -47.306519 4382.101562
8.840000 2.960000 1.040000 2.140082 -65.296234 4268.178223
8.840000 2.960000 1.080000 49.503181 -38.840298 3959.133789
8.840000 2.960000 1.120000 59.754864 15.384117 3807.314941
8.840000 2.960000 1.160000 24.783539 57.164909 3882.050781
8.840000 2.960000 1.200000 -27.450666 56.183987 3910.179443
8.840000 3.000000 0.800000 6.658157 20.635567 470.157654
8.840000 3.000000 0.840000 -12.789234 32.205399 1200.752197
8.840000 3.000000 0.880000 -42.042881 25.629463 2424.473145
8.840000 3.000000 0.920000 -62.212944 -6.223616 3909.183838
8.840000 3.000000 0.960000 -51.474915 -49.974697 5147.137207
8.840000 3.000000 1.000000 -6.559413 -75.019012 5670.877930
8.840000 3.000000 1.040000 46.870865 -56.915062 5436.202148
8.840000 3.000000 1.080000 69.997101 -1.794493 4902.814453
8.840000 3.000000 1.120000 42.845966 53.277397 4674.257812
8.840000 3.000000 1.160000 -16.433029 68.562805 4970.902832
8.840000 3.000000 1.200000 -64.919571 34.684250 5417.547852
8.840000 3.040000 0.800000 -13.315835 16.296423 442.884857
8.840000 3.040000 0.840000 -33.055561 10.179815 1196.298828
8.840000 3.040000 0.880000 -47.274857 -13.173755 2408.459961
8.840000 3.040000 0.920000 -40.301750 -47.075195 3840.305176
8.840000 3.040000 0.960000 -5.701237 -70.430573 4992.969238
8.840000 3.040000 1.000000 41.466583 -60.778591 5413.514648
8.840000 3.040000 1.040000 69.646347 -15.395224 5087.626465
8.840000 3.040000 1.080000 54.330505 39.877213 4541.996094
8.840000 3.040000 1.120000 0.962420 66.818420 4465.627441
8.840000 3.040000 1.160000 -55.517056 45.159996 5121.568848
8.840000 3.040000 1.200000 -77.222267 -9.896582 6061.220703
8.840000 3.080000 0.800000 -23.042566 -3.022011 540.092407
8.840000 3.080000 0.840000 -28.539335 -20.187550 1222.030762
8.840000 3.080000 0.880000 -20.396011 -41.666840 2152.122803
8.840000 3.080000 0.920000 4.417226 -55.717728 3123.977051
8.840000 3.080000 0.960000 37.857117 -48.616394 3796.714844
8.840000 3.080000 1.000000 60.415215 -16.122629 3909.937256
8.840000 3.080000 1.040000 52.823414 27.567722 3550.292236
8.840000 3.080000 1.080000 13.023266 55.045006 3199.558105
8.840000 3.080000 1.120000 -37.352654 45.022217 3422.220703
8.840000 3.080000 1.160000 -66.239372 0.608352 4388.024414
8.840000 3.080000 1.200000 -55.160576 -50.949753 5638.566406
8.840000 3.120000 0.800000 -15.370859 -24.077528 815.990662
8.840000 3.120000 0.840000 -3.499515 -36.910637 1374.641724
8.840000 3.120000 0.880000 16.489494 -40.359901 1900.825073
8.840000 3.120000 0.920000 37.078800 -29.743498 2259.513184
8.840000 3.120000 0.960000 47.980526 -5.910104 2337.060303
8.840000 3.120000 1.000000 40.253529 22.452963 2124.482178
8.840000 3.120000 1.040000 12.962404 40.420525 1801.842773
8.840000 3.120000 1.080000 -22.480717 34.748413 1712.834961
8.840000 3.120000 1.120000 -46.383133 4.234694 2169.327637
8.840000 3.120000 1.160000 -43.156498 -36.444992 3190.720703
8.840000 3.120000 1.200000 -13.067816 -64.984177 4393.710938
8.840000 3.160000 0.800000 4.407325 -34.057663 1179.348999
8.840000 3.160000 0.840000 23.548119 -31.576433 1551.584961
8.840000 3.160000 0.880000 37.530766 -16.290308 1673.932495
8.840000 3.160000 0.920000 38.763893 5.036354 1528.004272
8.840000 3.160000 0.960000 26.226761 22.700171 1203.140625
8.840000 3.160000 1.000000 5.059472 28.822845 856.354675
8.840000 3.160000 1.040000 -16.038029 20.173309 664.180786
8.840000 3.160000 1.080000 -27.844393 -0.771938 775.906067
8.840000 3.160000 1.120000 -24.012642 -26.069454 1256.223389
8.840000 3.160000 1.160000 -4.493937 -44.786236 2026.002319
8.840000 3.160000 1.200000 23.230001 -48.061340 2849.525391
8.840000 3.200000 0.800000 24.411221 -29.202078 1448.669067
8.840000 3.200000 0.840000 37.324341 -13.111351 1565.013916
8.840000 3.200000 0.880000 35.782471 8.228721 1348.097046
8.840000 3.200000 0.920000 20.343660 22.555233 922.603027
8.840000 3.200000 0.960000 0.292515 22.442804 503.765045
8.840000 3.200000 1.000000 -13.428700 9.598572 272.462585
8.840000 3.200000 1.040000 -15.144626 -7.924046 292.150177
8.840000 3.200000 1.080000 -6.109195 -21.863613 515.339844
8.840000 3.200000 1.120000 8.571484 -27.818501 847.339294
8.840000 3.200000 1.160000 23.703421 -25.313456 1202.623291
8.840000 3.200000 1.200000 35.516506 -15.937182 1515.416016
8.880000 2.800000 0.800000 -33.046024 15.019800 1317.634033
8.880000 2.800000 0.840000 -39.704517 -6.436569 1617.878174
8.880000 2.800000 0.880000 -28.672649 -28.531832 1636.186279
8.880000 2.800000 0.920000 -4.693508 -37.227493 1407.915283
8.880000 2.800000 0.960000 17.985405 -27.076164 1056.593506
8.880000 2.800000 1.000000 26.080820 -5.652025 712.154541
8.880000 2.800000 1.040000 17.225651 12.357468 449.430054
8.880000 2.800000 1.080000 0.951632 16.662867 278.556732
8.880000 2.800000 1.120000 -10.029991 8.616932 174.852234
8.880000 2.800000 1.160000 -10.308853 -1.949942 110.074722
8.880000 2.800000 1.200000 -4.522163 -6.732828 65.780937
8.880000 2.840000 0.800000 -26.108936 -6.858918 728.721313
8.880000 2.840000 0.840000 -14.901129 -20.293045 633.851318
8.880000 2.840000 0.880000 3.556919 -19.897327 408.555298
8.880000 2.840000 0.920000 14.585636 -5.071307 238.458939
8.880000 2.840000 0.960000 9.254601 11.998219 229.604874
8.880000 2.840000 1.000000 -7.198625 16.927372 338.356110
8.880000 2.840000 1.040000 -19.928253 6.143875 434.882477
8.880000 2.840000 1.080000 -18.041056 -10.022629 425.932770
8.880000 2.840000 1.120000 -4.373058 -17.286171 317.935333
8.880000 2.840000 1.160000 7.899264 -10.872297 180.605225
8.880000 2.840000 1.200000 8.496923 0.522058 72.470253
8.880000 2.880000 0.800000 -7.666033 -13.705246 246.601837
8.880000 2.880000 0.840000 7.869856 -6.795265 108.110260
8.880000 2.880000 0.880000 10.597561 14.241673 315.133545
8.880000 2.880000 0.920000 -8.603210 31.409660 1060.582031
8.880000 2.880000 0.960000 -38.203033 25.431702 2106.243164
8.880000 2.880000 1.000000 -53.703907 -4.753357 2906.704102
8.880000 2.880000 1.040000 -39.501556 -38.165245 3016.958984
8.880000 2.880000 1.080000 -4.390099 -49.066711 2426.815186
8.880000 2.880000 1.120000 25.077845 -30.043869 1531.532471
8.880000 2.880000 1.160000 28.072515 1.251360 789.632019
8.880000 2.880000 1.200000 7.761564 18.476662 401.628906
8.880000 2.920000 0.800000 5.005232 -4.006844 41.107140
8.880000 2.920000 0.840000 5.978037 18.872820 391.920227
8.880000 2.920000 0.880000 -19.253498 38.741676 1871.614624
8.880000 2.920000 0.920000 -59.775631 29.773006 4459.557617
8.880000 2.920000 0.960000 -83.719337 -13.988495 7204.605469
8.880000 2.920000 1.000000 -65.235626 -67.011848 8746.275391
8.880000 2.920000 1.040000 -10.570248 -90.403030 8284.438477
8.880000 2.920000 1.080000 43.333458 -65.562233 6176.194824
8.880000 2.920000 1.120000 59.152672 -11.901432 3640.682617
8.880000 2.920000 1.160000 31.123230 29.402187 1833.144043
8.880000 2.920000 1.200000 -11.350925 31.178402 1100.936279
8.880000 2.960000 0.800000 1.664757 9.008641 83.927032
8.880000 2.960000 0.840000 -19.286926 29.182190 1223.585693
8.880000 2.960000 0.880000 -60.783932 24.344036 4287.318359
8.880000 2.960000 0.920000 -92.250488 -20.039663 8911.740234
8.880000 2.960000 0.960000 -79.198593 -84.091949 13343.873047
8.880000 2.960000 1.000000 -17.085815 -122.943573 15407.046875
8.880000 2.960000 1.040000 57.574978 -103.557175 14038.966797
8.880000 2.960000 1.080000 93.878265 -36.044590 10112.341797
8.880000 2.960000 1.120000 69.197754 31.790934 5798.992676
8.880000 2.960000 1.160000 8.420343 54.038189 2991.028076
8.880000 2.960000 1.200000 -38.787315 24.478565 2103.656006
8.880000 3.000000 0.800000 -12.163028 10.123377 250.421997
8.880000 3.000000 0.840000 -43.647770 10.736609 2020.402588
8.880000 3.000000 0.880000 -74.757034 -22.705870 6104.170898
8.880000 3.000000 0.920000 -71.236328 -82.347275 11855.687500
8.880000 3.000000 0.960000 -16.981953 -129.528992 17066.146484
8.880000 3.000000 1.000000 63.397999 -123.145454 19184.109375
8.880000 3.000000 1.040000 117.485741 -57.592606 17119.808594
8.880000 3.000000 1.080000 106.918343 26.477020 12132.564453
8.880000 3.000000 1.120000 41.120632 72.611839 6963.385254
8.880000 3.000000 1.160000 -29.603395 54.727272 3871.435303
8.880000 3.000000 1.200000 -56.512836 -3.147863 3203.609619
8.880000 3.040000 0.800000 -21.074650 -4.067521 460.685608
8.880000 3.040000 0.840000 -42.899742 -23.138536 2375.779785
8.880000 3.040000 0.880000 -45.184597 -65.675629 6354.936035
8.880000 3.040000 0.920000 -7.917831 -107.743866 11671.432617
8.880000 3.040000 0.960000 59.978226 -112.567429 16268.813477
8.880000 3.040000 1.000000 118.261093 -62.569073 17900.576172
8.880000 3.040000 1.040000 124.030502 18.750053 15735.129883
8.880000 3.040000 1.080000 68.935181 79.632156 11093.339844
8.880000 3.040000 1.120000 -10.088366 80.430725 6570.876465
8.880000 3.040000 1.160000 -59.208313 26.189432 4191.510742
8.880000 3.040000 1.200000 -50.918743 -38.817554 4099.520996
8.880000 3.080000 0.800000 -13.999395 -22.819340 716.705383
8.880000 3.080000 0.840000 -15.024390 -45.449669 2291.404785
8.880000 3.080000 0.880000 6.366358 -71.672859 5177.528809
8.880000 3.080000 0.920000 51.051418 -78.594322 8783.314453
8.880000 3.080000 0.960000 97.071335 -47.754261 11703.313477
8.880000 3.080000 1.000000 110.958893 13.946918 12506.392578
8.880000 3.080000 1.040000 75.073723 71.843010 10797.482422
8.880000 3.080000 1.080000 6.892391 87.173965 7646.805176
8.880000 3.080000 1.120000 -50.304085 48.777531 4909.748535
8.880000 3.080000 1.160000 -60.331902 -16.129963 3900.114014
8.880000 3.080000 1.200000 -22.170227 -63.346939 4504.353516
8.880000 3.120000 0.800000 6.598816 -31.334831 1025.416016
8.880000 3.120000 0.840000 19.633602 -40.244827 2005.124512
8.880000 3.120000 0.880000 42.529182 -40.528748 3451.310547
8.880000 3.120000 0.920000 67.258583 -22.600830 5034.514160
8.880000 3.120000 0.960000 76.999214 13.937397 6123.129883
8.880000 3.120000 1.000000 57.549362 53.349030 6158.047852
8.880000 3.120000 1.040000 12.223484 70.564819 5128.807129
8.880000 3.120000 1.080000 -34.816650 50.060417 3718.244629
8.880000 3.120000 1.120000 -53.731754 1.044048 2888.191406
8.880000 3.120000 1.160000 -31.901533 -46.450077 3175.317383
8.880000 3.120000 1.200000 15.617937 -63.474411 4272.920898
8.880000 3.160000 0.800000 27.932140 -23.187588 1317.868652
8.880000 3.160000 0.840000 38.349365 -14.762304 1688.599487
8.880000 3.160000 0.880000 44.414658 -0.696346 1973.146729
8.880000 3.160000 0.920000 42.836132 17.027035 2124.854004
8.880000 3.160000 0.960000 30.338039 33.776501 2061.248535
8.880000 3.160000 1.000000 7.157455 41.159538 1745.336670
8.880000 3.160000 1.040000 -18.678543 31.033619 1311.973511
8.880000 3.160000 1.080000 -32.768677 3.483728 1085.922485
8.880000 3.160000 1.120000 -23.608318 -28.993256 1397.961670
8.880000 3.160000 1.160000 7.093258 -47.515797 2308.065186
8.880000 3.160000 1.200000 43.205627 -40.125206 3476.758301
8.880000 3.200000 0.800000 38.061920 -4.189310 1466.260010
8.880000 3.200000 0.840000 35.139984 10.763006 1350.660767
8.880000 3.200000 0.880000 24.195492 20.476192 1004.696289
8.880000 3.200000 0.920000 11.037643 21.955469 603.872192
8.880000 3.200000 0.960000 0.391628 16.845909 283.938049
8.880000 3.200000 1.000000 -6.064465 7.770405 97.156921
8.880000 3.200000 1.040000 -7.491291 -3.928299 71.550972
8.880000 3.200000 1.080000 -1.797179 -16.449963 273.831116
8.880000 3.200000 1.120000 12.469778 -24.938049 777.401672
8.880000 3.200000 1.160000 32.055092 -22.854040 1549.836060
8.880000 3.200000 1.200000 48.226051 -7.448388 2381.230469
8.920000 2.800000 0.800000 -41.707932 10.991109 1860.355957
8.920000 2.800000 0.840000 -41.705826 -16.914984 2025.492554
8.920000 2.800000 0.880000 -20.504787 -36.703182 1767.569824
8.920000 2.800000 0.920000 7.869015 -34.811554 1273.765625
8.920000 2.800000 0.960000 24.263538 -14.290462 792.936646
8.920000 2.800000 1.000000 20.036291 8.171021 468.218567
8.920000 2.800000 1.040000 3.250481 16.758530 291.413940
8.920000 2.800000 1.080000 -9.877674 9.345263 184.902374
8.920000 2.800000 1.120000 -9.772867 -2.852670 103.646660
8.920000 2.800000 1.160000 -0.565908 -7.434263 55.588520
8.920000 2.800000 1.200000 6.448403 -2.359192 47.147690
8.920000 2.840000 0.800000 -33.458542 -8.595436 1193.355469
8.920000 2.840000 0.840000 -18.455154 -19.679485 727.874878
8.920000 2.840000 0.880000 -2.556007 -13.546553 190.042267
8.920000 2.840000 0.920000 -0.666801 1.937397 4.198132
8.920000 2.840000 0.960000 -13.738083 9.993401 288.602966
8.920000 2.840000 1.000000 -27.861567 1.166981 777.628723
8.920000 2.840000 1.040000 -27.711548 -17.497210 1074.082275
8.920000 2.840000 1.080000 -11.324982 -29.248629 983.737488
8.920000 2.840000 1.120000 8.199105 -23.754866 631.518982
8.920000 2.840000 1.160000 15.569511 -6.655603 286.706726
8.920000 2.840000 1.200000 7.888430 6.602719 105.823227
8.920000 2.880000 0.800000 -18.536114 -14.024715 540.280151
8.920000 2.880000 0.840000 -9.317368 -2.676554 93.977280
8.920000 2.880000 0.880000 -20.332903 13.497383 595.606323
8.920000 2.880000 0.920000 -47.473915 11.331276 2382.170410
8.920000 2.880000 0.960000 -66.439720 -18.189133 4745.081055
8.920000 2.880000 1.000000 -54.768066 -57.912251 6353.370117
8.920000 2.880000 1.040000 -14.391098 -77.770111 6255.293457
8.920000 2.880000 1.080000 27.892620 -61.747009 4590.691406
8.920000 2.880000 1.120000 43.519474 -22.753946 2411.686523
8.920000 2.880000 1.160000 27.068848 9.154171 816.521362
8.920000 2.880000 1.200000 -0.601744 13.879698 193.008102
8.920000 2.920000 0.800000 -10.709063 -8.888674 193.692535
8.920000 2.920000 0.840000 -23.939695 10.195229 677.051697
8.920000 2.920000 0.880000 -60.207657 7.871838 3686.927734
8.920000 2.920000 0.920000 -89.293839 -32.913780 9056.707031
8.920000 2.920000 0.960000 -76.331619 -93.542831 14576.777344
8.920000 2.920000 1.000000 -16.647240 -130.503784 17308.369141
8.920000 2.920000 1.040000 54.681236 -112.763443 15705.630859
8.920000 2.920000 1.080000 90.448318 -50.876141 10769.280273
8.920000 2.920000 1.120000 71.567108 10.887018 5240.378418
8.920000 2.920000 1.160000 22.107603 32.790989 1563.994995
8.920000 2.920000 1.200000 -14.576460 12.303833 363.857483
8.920000 2.960000 0.800000 -13.090107 -5.784818 204.815018
8.920000 2.960000 0.840000 -45.653618 -1.246161 2085.805908
8.920000 2.960000 0.880000 -81.406853 -37.182159 8009.588867
8.920000 2.960000 0.920000 -77.636749 -105.334930 17122.912109
8.920000 2.960000 0.960000 -14.964428 -159.505798 25666.033203
8.920000 2.960000 1.000000 77.075600 -152.436890 29177.654297
8.920000 2.960000 1.040000 138.929153 -79.822578 25672.955078
8.920000 2.960000 1.080000 130.448578 11.606868 17151.550781
8.920000 2.960000 1.120000 65.275482 62.111652 8118.746094
8.920000 2.960000 1.160000 -2.484675 48.590637 2367.223633
8.920000 2.960000 1.200000 -26.334780 -0.142307 693.540894
8.920000 3.000000 0.800000 -16.334536 -12.580410 425.083740
8.920000 3.000000 0.840000 -48.057362 -32.225876 3348.017090
8.920000 3.000000 0.880000 -55.723541 -88.820312 10994.161133
8.920000 3.000000 0.920000 -7.729010 -148.224701 22030.300781
8.920000 3.000000 0.960000 83.991859 -157.710510 31927.238281
8.920000 3.000000 1.000000 163.802200 -93.562180 35585.042969
8.920000 3.000000 1.040000 175.492310 11.426844 30928.123047
8.920000 3.000000 1.080000 111.180389 90.322540 20519.240234
8.920000 3.000000 1.120000 19.516418 96.753571 9742.143555
8.920000 3.000000 1.160000 -35.796272 41.832954 3031.369141
8.920000 3.000000 1.200000 -28.629562 -20.288492 1231.274780
8.920000 3.040000 0.800000 -9.339401 -24.369440 681.094055
8.920000 3.040000 0.840000 -21.586113 -57.023571 3717.647949
8.920000 3.040000 0.880000 3.970778 -104.594872 10955.853516
8.920000 3.040000 0.920000 73.770126 -124.846497 21028.679688
8.920000 3.040000 0.960000 151.452408 -83.076721 29839.574219
8.920000 3.040000 1.000000 181.077484 10.821789 32906.164062
8.920000 3.040000 1.040000 134.590927 101.892509 28496.800781
8.920000 3.040000 1.080000 39.793343 132.003479 19008.427734
8.920000 3.040000 1.120000 -39.914661 87.878052 9315.732422
8.920000 3.040000 1.160000 -57.256363 10.791429 3394.745850
8.920000 3.040000 1.200000 -17.079327 -40.783043 1954.959961
8.920000 3.080000 0.800000 8.853136 -28.664478 900.030396
8.920000 3.080000 0.840000 16.964905 -53.745560 3176.393066
8.920000 3.080000 0.880000 55.398933 -71.973068 8249.164062
8.920000 3.080000 0.920000 110.869492 -53.089569 15110.546875
8.920000 3.080000 0.960000 144.462723 10.965321 20989.716797
8.920000 3.080000 1.000000 121.944435 89.774261 22929.863281
8.920000 3.080000 1.040000 46.968895 132.863922 19858.898438
8.920000 3.080000 1.080000 -35.800999 110.412437 13472.618164
8.920000 3.080000 1.120000 -74.311485 39.649628 7094.290039
8.920000 3.080000 1.160000 -50.637833 -28.612135 3382.844482
8.920000 3.080000 1.200000 7.245759 -51.715248 2726.967773
8.920000 3.120000 0.800000 27.722733 -17.886948 1088.492798
8.920000 3.120000 0.840000 40.697891 -24.393648 2251.368408
8.920000 3.120000 0.880000 66.061020 -17.966532 4686.854980
8.920000 3.120000 0.920000 87.780746 13.396793 7884.933594
8.920000 3.120000 0.960000 81.799034 61.976376 10532.153320
8.920000 3.120000 1.000000 38.202705 99.120026 11284.225586
8.920000 3.120000 1.040000 -24.067116 95.738678 9745.121094
8.920000 3.120000 1.080000 -67.135101 48.326084 6842.532227
8.920000 3.120000 1.120000 -63.277824 -14.297724 4208.507812
8.920000 3.120000 1.160000 -17.771925 -52.093105 3029.532959
8.920000 3.120000 1.200000 35.740570 -44.922043 3295.378418
8.920000 3.160000 0.800000 34.992779 3.447133 1236.377197
8.920000 3.160000 0.840000 37.103745 8.957103 1456.917603
8.920000 3.160000 0.880000 40.114525 18.795921 1962.461670
8.920000 3.160000 0.920000 37.317543 35.506931 2653.341309
8.920000 3.160000 0.960000 20.375050 52.512703 3172.726562
8.920000 3.160000 1.000000 -9.899132 55.464661 3174.321533
8.920000 3.160000 1.040000 -38.497288 34.310959 2659.283203
8.920000 3.160000 1.080000 -45.103607 -4.375282 2053.478516
8.920000 3.160000 1.120000 -21.144094 -38.235329 1909.013062
8.920000 3.160000 1.160000 20.673954 -45.048180 2456.750977
8.920000 3.160000 1.200000 54.569065 -20.423828 3394.915771
8.920000 3.200000 0.800000 27.254553 23.154640 1278.947998
8.920000 3.200000 0.840000 16.452942 25.928234 942.972656
8.920000 3.200000 0.880000 8.162708 23.038652 597.409302
8.920000 3.200000 0.920000 3.775944 19.219730 383.655792
8.920000 3.200000 0.960000 -0.134228 16.528831 273.220276
8.920000 3.200000 1.000000 -5.833725 11.533108 167.044922
8.920000 3.200000 1.040000 -9.230633 0.149181 85.226837
8.920000 3.200000 1.080000 -2.557342 -14.894348 228.381607
8.920000 3.200000 1.120000 16.723907 -23.093216 812.985718
8.920000 3.200000 1.160000 40.172447 -14.427103 1821.966797
8.920000 3.200000 1.200000 52.964222 10.582098 2917.189453
8.960000 2.800000 0.800000 -46.764488 0.841323 2187.625244
8.960000 2.800000 0.840000 -37.093124 -27.085701 2109.535156
8.960000 2.800000 0.880000 -10.298252 -38.828190 1613.682251
8.960000 2.800000 0.920000 14.660694 -27.665173 980.297729
8.960000 2.800000 0.960000 21.567575 -4.690712 487.163086
8.960000 2.800000 1.000000 10.195631 11.373959 233.317810
8.960000 2.800000 1.040000 -5.048573 10.646738 138.841110
8.960000 2.800000 1.080000 -9.408142 -0.491176 88.754395
8.960000 2.800000 1.120000 -1.066101 -7.432049 56.371918
8.960000 2.800000 1.160000 9.041454 -2.228634 86.714706
8.960000 2.800000 1.200000 9.676057 9.568689 185.185883
8.960000 2.840000 0.800000 -38.798958 -16.686087 1783.784668
8.960000 2.840000 0.840000 -23.253052 -24.082785 1120.684937
8.960000 2.840000 0.880000 -12.742611 -17.724392 476.528198
8.960000 2.840000 0.920000 -15.131262 -9.835312 325.688446
8.960000 2.840000 0.960000 -23.681360 -12.729622 722.850098
8.960000 2.840000 1.000000 -24.379227 -26.253595 1283.597900
8.960000 2.840000 1.040000 -10.427383 -37.720474 1531.564575
8.960000 2.840000 1.080000 10.385143 -34.390347 1290.547119
8.960000 2.840000 1.120000 22.715889 -16.157711 777.083252
8.960000 2.840000 1.160000 18.147406 4.056687 345.785065
8.960000 2.840000 1.200000 2.858853 12.498783 164.392609
8.960000 2.880000 0.800000 -26.728846 -24.221687 1301.121338
8.960000 2.880000 0.840000 -25.539885 -15.928343 905.997803
8.960000 2.880000 0.880000 -40.791607 -15.413479 1901.530518
8.960000 2.880000 0.920000 -55.542850 -37.223373 4470.587891
8.960000 2.880000 0.960000 -46.495880 -72.719398 7449.977539
8.960000 2.880000 1.000000 -8.207169 -94.985115 9089.529297
8.960000 2.880000 1.040000 38.506142 -83.000381 8371.786133
8.960000 2.880000 1.080000 63.300945 -41.915386 5763.909180
8.960000 2.880000 1.120000 52.690536 0.541670 2776.586182
8.960000 2.880000 1.160000 20.978102 18.282944 774.346802
8.960000 2.880000 1.200000 -4.233110 8.558376 91.165024
8.960000 2.920000 0.800000 -17.894333 -26.116859 1002.297485
8.960000 2.920000 0.840000 -37.898102 -22.085518 1924.036255
8.960000 2.920000 0.880000 -62.605221 -49.499214 6369.585938
8.960000 2.920000 0.920000 -56.228500 -102.733635 13715.844727
8.960000 2.920000 0.960000 -2.714371 -143.810104 20688.712891
8.960000 2.920000 1.000000 73.071785 -134.516953 23434.296875
8.960000 2.920000 1.040000 122.582909 -72.873886 20337.171875
8.960000 2.920000 1.080000 114.926804 2.123734 13212.679688
8.960000 2.920000 1.120000 63.198090 43.273933 5866.631836
8.960000 2.920000 1.160000 11.021269 34.685513 1324.553223
8.960000 2.920000 1.200000 -7.028392 1.110752 50.632061
8.960000 2.960000 0.800000 -11.075519 -28.806301 952.470093
8.960000 2.960000 0.840000 -39.071690 -45.500237 3596.868408
8.960000 2.960000 0.880000 -44.453888 -99.122299 11801.378906
8.960000 2.960000 0.920000 4.884384 -154.898682 24017.458984
8.960000 2.960000 0.960000 95.648079 -160.383423 34871.398438
8.960000 2.960000 1.000000 171.951569 -94.501282 38497.835938
8.960000 2.960000 1.040000 180.858139 7.865561 32771.531250
8.960000 2.960000 1.080000 118.969772 82.168945 20905.542969
8.960000 2.960000 1.120000 35.288219 88.288483 9040.114258
8.960000 2.960000 1.160000 -12.493406 41.719551 1896.606201
8.960000 2.960000 1.200000 -6.267182 -6.203166 77.756851
8.960000 3.000000 0.800000 -0.360413 -32.081207 1029.333740
8.960000 3.000000 0.840000 -15.696154 -67.283485 4773.436523
8.960000 3.000000 0.880000 13.347641 -121.683525 14985.039062
8.960000 3.000000 0.920000 94.328041 -143.886017 29600.964844
8.960000 3.000000 0.960000 182.936905 -93.943390 42291.269531
8.960000 3.000000 1.000000 214.758881 13.704908 46309.199219
8.960000 3.000000 1.040000 161.663498 114.741943 39300.800781
8.960000 3.000000 1.080000 59.195900 146.951584 25098.921875
8.960000 3.000000 1.120000 -22.814404 102.023582 10929.308594
8.960000 3.000000 1.160000 -39.342075 28.764391 2375.189209
8.960000 3.000000 1.200000 -3.494330 -13.751652 201.318268
8.960000 3.040000 0.800000 15.556385 -29.014202 1083.825073
8.960000 3.040000 0.840000 21.872099 -64.843140 4683.021484
8.960000 3.040000 0.880000 73.227463 -93.283386 14064.050781
8.960000 3.040000 0.920000 149.935730 -69.509148 27312.244141
8.960000 3.040000 0.960000 196.255386 16.577759 38790.996094
8.960000 3.040000 1.000000 166.921890 120.999092 42503.699219
8.960000 3.040000 1.040000 70.959183 176.845612 36309.578125
8.960000 3.040000 1.080000 -31.073914 150.257401 23542.875000
8.960000 3.040000 1.120000 -76.581238 69.067978 10635.072266
8.960000 3.040000 1.160000 -51.634693 -3.165449 2676.161621
8.960000 3.040000 1.200000 3.716156 -22.359072 513.737915
8.960000 3.080000 0.800000 29.426884 -14.426832 1074.074951
8.960000 3.080000 0.840000 47.871666 -34.735283 3498.236328
8.960000 3.080000 0.880000 94.047668 -31.924337 9864.126953
8.960000 3.080000 0.920000 136.312134 17.409166 18884.076172
8.960000 3.080000 0.960000 131.199127 97.823990 26782.744141
8.960000 3.080000 1.000000 64.294159 159.319962 29516.587891
8.960000 3.080000 1.040000 -30.247360 157.027161 25572.431641
8.960000 3.080000 1.080000 -93.758835 91.073502 17085.101562
8.960000 3.080000 1.120000 -90.850456 8.230188 8321.541992
8.960000 3.080000 1.160000 -37.024601 -37.297215 2761.903320
8.960000 3.080000 1.200000 18.820442 -27.427568 1106.480469
8.960000 3.120000 0.800000 31.497257 7.667052 1050.860840
8.960000 3.120000 0.840000 45.071110 3.379066 2042.822998
8.960000 3.120000 0.880000 67.737610 19.678741 4975.636719
8.960000 3.120000 0.920000 74.075256 61.375084 9254.044922
8.960000 3.120000 0.960000 42.533566 106.152405 13077.437500
8.960000 3.120000 1.000000 -20.216835 118.784607 14518.503906
8.960000 3.120000 1.040000 -78.363167 81.905914 12849.365234
8.960000 3.120000 1.080000 -94.027649 14.623474 9055.044922
8.960000 3.120000 1.120000 -58.970974 -40.430359 5112.189453
8.960000 3.120000 1.160000 -1.405223 -51.192894 2622.687012
8.960000 3.120000 1.200000 38.424286 -20.428165 1893.735718
8.960000 3.160000 0.800000 19.177654 26.038416 1045.781494
8.960000 3.160000 0.840000 19.802498 25.205631 1027.462769
8.960000 3.160000 0.880000 22.868805 33.134678 1620.889160
8.960000 3.160000 0.920000 15.842426 49.405907 2691.926025
8.960000 3.160000 0.960000 -8.508133 60.233212 3700.428223
8.960000 3.160000 1.000000 -40.912689 49.172482 4091.781006
8.960000 3.160000 1.040000 -59.381138 13.959267 3720.980713
8.960000 3.160000 1.080000 -47.096378 -27.175926 2956.599854
8.960000 3.160000 1.120000 -8.454165 -47.908024 2366.651611
8.960000 3.160000 1.160000 32.449940 -34.926292 2272.844482
8.960000 3.160000 1.200000 50.427357 1.390486 2544.851562
8.960000 3.200000 0.800000 0.045529 31.798611 1011.153687
8.960000 3.200000 0.840000 -6.248857 23.168510 575.828064
8.960000 3.200000 0.880000 -5.674744 15.866647 283.953186
8.960000 3.200000 0.920000 -3.689331 13.953749 208.318268
8.960000 3.200000 0.960000 -6.206097 13.956051 233.287003
8.960000 3.200000 1.000000 -12.026189 8.425850 215.624161
8.960000 3.200000 1.040000 -12.451102 -4.955612 179.588043
8.960000 3.200000 1.080000 0.147247 -18.309853 335.272369
8.960000 3.200000 1.120000 22.892336 -18.902628 881.368408
8.960000 3.200000 1.160000 42.081573 -0.843664 1771.570679
8.960000 3.200000 1.200000 43.503681 27.995798 2676.334961
9.000000 2.800000 0.800000 -44.654083 -10.321693 2100.524414
9.000000 2.800000 0.840000 -28.578043 -32.439011 1868.993896
9.000000 2.800000 0.880000 -2.533167 -36.546570 1342.068726
9.000000 2.800000 0.920000 16.509861 -22.142849 762.881226
9.000000 2.800000 0.960000 18.286055 -2.137074 338.946869
9.000000 2.800000 1.000000 7.193874 8.529766 124.508743
9.000000 2.800000 1.040000 -2.981293 5.748838 41.937252
9.000000 2.800000 1.080000 -2.565891 -1.498037 8.827913
9.000000 2.800000 1.120000 5.344557 -1.344202 30.371172
9.000000 2.800000 1.160000 9.301544 8.701579 162.236206
9.000000 2.800000 1.200000 2.034612 19.728373 393.348328
9.000000 2.840000 0.800000 -38.051109 -27.704718 2215.438477
9.000000 2.840000 0.840000 -24.249859 -33.741676 1726.556396
9.000000 2.840000 0.880000 -15.085271 -32.222481 1265.853638
9.000000 2.840000 0.920000 -11.617846 -31.286991 1113.850098
9.000000 2.840000 0.960000 -7.624897 -34.693558 1261.781982
9.000000 2.840000 1.000000 2.634903 -37.975784 1449.102905
9.000000 2.840000 1.040000 17.287281 -33.223297 1402.637573
9.000000 2.840000 1.080000 27.399887 -17.751949 1065.885498
9.000000 2.840000 1.120000 24.926003 1.851143 624.732361
9.000000 2.840000 1.160000 10.500750 14.533822 321.497711
9.000000 2.840000 1.200000 -6.487029 14.144901 242.159775
9.000000 2.880000 0.800000 -25.261131 -39.581070 2204.785889
9.000000 2.880000 0.840000 -25.897295 -40.257393 2291.327637
9.000000 2.880000 0.880000 -29.985428 -53.035385 3711.877930
9.000000 2.880000 0.920000 -20.050678 -76.533638 6259.427734
9.000000 2.880000 0.960000 11.981796 -92.213608 8646.913086
9.000000 2.880000 1.000000 53.140160 -81.072197 9396.578125
9.000000 2.880000 1.040000 78.217056 -42.866051 7955.406250
9.000000 2.880000 1.080000 71.362701 1.296013 5094.314941
9.000000 2.880000 1.120000 39.928902 26.068192 2273.867676
9.000000 2.880000 1.160000 7.542313 22.618351 568.476318
9.000000 2.880000 1.200000 -6.593492 3.814629 58.025524
9.000000 2.920000 0.800000 -9.026138 -45.465416 2148.575195
9.000000 2.920000 0.840000 -21.089561 -56.676857 3657.035645
9.000000 2.920000 0.880000 -17.902731 -91.212227 8640.177734
9.000000 2.920000 0.920000 22.060654 -124.361450 15952.443359
9.000000 2.920000 0.960000 87.483887 -120.173798 22095.171875
9.000000 2.920000 1.000000 138.196945 -66.688057 23545.693359
9.000000 2.920000 1.040000 138.876953 8.693729 19362.388672
9.000000 2.920000 1.080000 90.703354 60.339432 11867.945312
9.000000 2.920000 1.120000 30.302896 62.768799 4858.187500
9.000000 2.920000 1.160000 -2.913570 29.967968 906.567993
9.000000 2.920000 1.200000 0.652709 -1.541451 2.802102
9.000000 2.960000 0.800000 9.477648 -44.262917 2049.031738
9.000000 2.960000 0.840000 1.126080 -71.502991 5113.945801
9.000000 2.960000 0.880000 30.005835 -113.361694 13751.224609
9.000000 2.960000 0.920000 100.856918 -125.398468 25896.894531
9.000000 2.960000 0.960000 173.644592 -75.672157 35878.718750
9.000000 2.960000 1.000000 194.252869 19.423210 38111.437500
9.000000 2.960000 1.040000 143.277710 103.240326 31187.066406
9.000000 2.960000 1.080000 55.463139 125.960098 18942.105469
9.000000 2.960000 1.120000 -10.139942 86.410233 7569.546875
9.000000 2.960000 1.160000 -20.828667 29.017302 1275.837158
9.000000 2.960000 1.200000 6.478682 0.545610 42.271011
9.000000 3.000000 0.800000 27.195414 -33.409386 1855.777588
9.000000 3.000000 0.840000 34.932194 -66.692749 5668.181152
9.000000 3.000000 0.880000 87.603012 -91.444260 16036.339844
9.000000 3.000000 0.920000 163.152008 -62.518486 30527.138672
9.000000 3.000000 0.960000 204.418839 26.953571 42513.558594
9.000000 3.000000 1.000000 169.228836 129.462082 45398.828125
9.000000 3.000000 1.040000 72.260254 179.401367 37406.394531
9.000000 3.000000 1.080000 -23.986568 149.506775 22927.630859
9.000000 3.000000 1.120000 -62.329727 73.423347 9275.982422
9.000000 3.000000 1.160000 -37.689629 12.982531 1589.054199
9.000000 3.000000 1.200000 6.061951 2.990458 45.690090
9.000000 3.040000 0.800000 37.344238 -12.789938 1558.174683
9.000000 3.040000 0.840000 59.292648 -36.838596 4872.700195
9.000000 3.040000 0.880000 114.420837 -31.929136 14111.597656
9.000000 3.040000 0.920000 162.401978 28.684868 27197.224609
9.000000 3.040000 0.960000 152.257172 122.838493 38271.542969
9.000000 3.040000 1.000000 71.968384 190.202057 41356.273438
9.000000 3.040000 1.040000 -33.967785 182.937256 34619.847656
9.000000 3.040000 1.080000 -99.479012 108.819687 21737.798828
9.000000 3.040000 1.120000 -92.701942 24.500546 9193.926758
9.000000 3.040000 1.160000 -39.695602 -14.835381 1795.829346
9.000000 3.040000 1.200000 4.953044 -0.735388 25.073439
9.000000 3.080000 0.800000 33.344299 11.168350 1236.574341
9.000000 3.080000 0.840000 56.428516 2.515744 3190.506348
9.000000 3.080000 0.880000 92.162331 27.388504 9244.025391
9.000000 3.080000 0.920000 100.690048 89.285301 18110.351562
9.000000 3.080000 0.960000 53.777130 151.690079 25901.861328
9.000000 3.080000 1.000000 -32.964417 165.623520 28517.802734
9.000000 3.080000 1.040000 -107.242859 113.993904 24495.640625
9.000000 3.080000 1.080000 -123.124863 29.678570 16040.548828
9.000000 3.080000 1.120000 -79.879807 -31.687016 7384.850586
9.000000 3.080000 1.160000 -19.777910 -38.720345 1890.430908
9.000000 3.080000 1.200000 11.774462 -6.682012 183.287231
9.000000 3.120000 0.800000 15.546370 27.500492 997.966675
9.000000 3.120000 0.840000 28.813820 27.157543 1567.768311
9.000000 3.120000 0.880000 40.729713 50.495712 4208.726562
9.000000 3.120000 0.920000 25.446918 87.960442 8384.584961
9.000000 3.120000 0.960000 -23.488541 108.271751 12274.484375
9.000000 3.120000 1.000000 -80.988724 85.657234 13896.334961
9.000000 3.120000 1.040000 -108.453094 25.975681 12436.809570
9.000000 3.120000 1.080000 -86.882805 -34.763474 8757.121094
9.000000 3.120000 1.120000 -33.730381 -59.740330 4706.645508
9.000000 3.120000 1.160000 12.633011 -41.263992 1862.310059
9.000000 3.120000 1.200000 25.629345 -3.684242 670.437012
9.000000 3.160000 0.800000 -6.766078 28.672091 867.868530
9.000000 3.160000 0.840000 -2.883297 25.371197 652.011047
9.000000 3.160000 0.880000 -1.589867 33.341904 1114.210205
9.000000 3.160000 0.920000 -14.537945 43.955444 2143.432861
9.000000 3.160000 0.960000 -39.760952 40.612339 3230.295410
9.000000 3.160000 1.000000 -59.997520 15.025894 3825.479980
9.000000 3.160000 1.040000 -56.643196 -22.233028 3702.759277
9.000000 3.160000 1.080000 -26.966496 -48.216179 3051.991699
9.000000 3.160000 1.120000 11.844433 -46.173363 2272.270020
9.000000 3.160000 1.160000 36.081829 -19.270237 1673.240479
9.000000 3.160000 1.200000 34.042629 12.885266 1324.930664
9.000000 3.200000 0.800000 -21.716866 17.130543 765.077759
9.000000 3.200000 0.840000 -18.816580 6.729084 399.344269
9.000000 3.200000 0.880000 -12.670315 2.267332 165.677673
9.000000 3.200000 0.920000 -9.289534 2.502697 92.558922
9.000000 3.200000 0.960000 -10.429866 1.605072 111.358360
9.000000 3.200000 1.000000 -11.358917 -4.815399 152.213058
9.000000 3.200000 1.040000 -5.144207 -14.279228 230.359222
9.000000 3.200000 1.080000 9.965328 -18.271757 433.164886
9.000000 3.200000 1.120000 26.983742 -9.423880 816.931824
9.000000 3.200000 1.160000 34.472950 11.109898 1311.814087
9.000000 3.200000 1.200000 25.481859 32.912155 1732.535156
9.040000 2.800000 0.800000 -37.677929 -16.910469 1705.590332
9.040000 2.800000 0.840000 -20.956650 -32.675949 1506.898804
9.040000 2.800000 0.880000 2.075974 -33.579231 1131.874512
9.040000 2.800000 0.920000 18.592093 -19.535133 727.287354
9.040000 2.800000 0.960000 20.419495 -0.689013 417.430481
9.040000 2.800000 1.000000 10.746262 10.762648 231.316727
9.040000 2.800000 1.040000 0.598034 10.967010 120.632965
9.040000 2.800000 1.080000 -1.967552 6.766689 49.659348
9.040000 2.800000 1.120000 0.711966 7.494226 56.670322
9.040000 2.800000 1.160000 -0.467995 14.645311 214.704163
9.040000 2.800000 1.200000 -10.621399 20.262300 523.374939
9.040000 2.840000 0.800000 -31.080610 -36.568451 2303.255859
9.040000 2.840000 0.840000 -17.604216 -44.065731 2251.697021
9.040000 2.840000 0.880000 -2.997711 -45.781082 2104.893799
9.040000 2.840000 0.920000 10.849457 -41.911613 1874.294067
9.040000 2.840000 0.960000 21.962025 -32.955204 1568.376099
9.040000 2.840000 1.000000 28.342594 -20.208149 1211.671997
9.040000 2.840000 1.040000 28.520428 -5.927322 848.547974
9.040000 2.840000 1.080000 22.056349 6.880783 533.827698
9.040000 2.840000 1.120000 10.105483 14.877407 323.458008
9.040000 2.840000 1.160000 -4.120780 15.437085 255.284424
9.040000 2.840000 1.200000 -15.859151 8.315995 320.668457
9.040000 2.880000 0.800000 -12.885572 -51.275398 2795.204590
9.040000 2.880000 0.840000 -6.500854 -58.624107 3479.046875
9.040000 2.880000 0.880000 7.365658 -69.942001 4946.136719
9.040000 2.880000 0.920000 33.831139 -74.232269 6654.975586
9.040000 2.880000 0.960000 64.246567 -59.179245 7629.804688
9.040000 2.880000 1.000000 80.941368 -24.832397 7168.152832
9.040000 2.880000 1.040000 72.096603 13.309429 5375.061523
9.040000 2.880000 1.080000 42.591591 35.580482 3080.014160
9.040000 2.880000 1.120000 10.474701 33.506798 1232.424805
9.040000 2.880000 1.160000 -7.542939 15.276021 290.252747
9.040000 2.880000 1.200000 -8.162905 -2.931314 75.225616
9.040000 2.920000 0.800000 12.852905 -53.669861 3045.651123
9.040000 2.920000 0.840000 17.502008 -67.677460 4886.559082
9.040000 2.920000 0.880000 43.295918 -85.216202 9136.337891
9.040000 2.920000 0.920000 89.172905 -80.511536 14433.914062
9.040000 2.920000 0.960000 128.606644 -38.754005 18041.541016
9.040000 2.920000 1.000000 130.894714 24.848537 17750.875000
9.040000 2.920000 1.040000 89.824280 74.038078 13550.039062
9.040000 2.920000 1.080000 31.301895 81.565567 7632.750488
9.040000 2.920000 1.120000 -8.295658 51.852821 2757.532959
9.040000 2.920000 1.160000 -12.472687 14.807035 374.816223
9.040000 2.920000 1.200000 4.916739 -2.290587 29.421120
9.040000 2.960000 0.800000 37.068367 -39.854851 2962.473145
9.040000 2.960000 0.840000 48.437462 -58.683151 5789.899902
9.040000 2.960000 0.880000 89.947800 -68.038162 12719.797852
9.040000 2.960000 0.920000 142.713669 -36.770966 21719.294922
9.040000 2.960000 0.960000 164.397537 35.594463 28293.515625
9.040000 2.960000 1.000000 127.982956 110.325340 28551.316406
9.040000 2.960000 1.040000 50.335239 140.016739 22138.324219
9.040000 2.960000 1.080000 -19.428766 110.237381 12529.756836
9.040000 2.960000 1.120000 -42.011509 51.635612 4431.203613
9.040000 2.960000 1.160000 -20.051899 10.699707 516.562378
9.040000 2.960000 1.200000 9.950879 8.289104 167.729233
9.040000 3.000000 0.800000 48.834373 -13.106817 2556.584717
9.040000 3.000000 0.840000 69.251587 -28.231962 5592.826172
9.040000 3.000000 0.880000 115.374458 -17.204742 13607.268555
9.040000 3.000000 0.920000 150.901505 40.694809 24427.332031
9.040000 3.000000 0.960000 133.331696 122.457413 32773.160156
9.040000 3.000000 1.000000 57.441219 174.633453 33796.335938
9.040000 3.000000 1.040000 -33.512009 159.943604 26705.011719
9.040000 3.000000 1.080000 -83.116364 92.152611 15400.433594
9.040000 3.000000 1.120000 -70.634460 23.892515 5560.079102
9.040000 3.000000 1.160000 -25.915791 -1.047300 672.725037
9.040000 3.000000 1.200000 2.999559 15.850114 260.223450
9.040000 3.040000 0.800000 41.506165 15.566189 1965.067993
9.040000 3.040000 0.840000 64.669945 10.486172 4292.161621
9.040000 3.040000 0.880000 98.094925 39.732475 11201.284180
9.040000 3.040000 0.920000 100.797272 103.964859 20968.781250
9.040000 3.040000 0.960000 47.392277 163.350739 28929.490234
9.040000 3.040000 1.000000 -40.994781 169.898788 30546.169922
9.040000 3.040000 1.040000 -109.627899 112.850204 24753.445312
9.040000 3.040000 1.080000 -117.356796 31.359358 14756.026367
9.040000 3.040000 1.120000 -72.443314 -19.729279 5637.278320
9.040000 3.040000 1.160000 -21.882565 -17.996040 802.704102
9.040000 3.040000 1.200000 -5.785328 11.451142 164.598679
9.040000 3.080000 0.800000 18.253826 32.513359 1390.320679
9.040000 3.080000 0.840000 35.684437 35.502308 2533.792969
9.040000 3.080000 0.880000 47.853065 67.735809 6878.055664
9.040000 3.080000 0.920000 24.082966 113.408508 13441.479492
9.040000 3.080000 0.960000 -38.289917 132.993927 19153.501953
9.040000 3.080000 1.000000 -104.222206 99.905746 20843.425781
9.040000 3.080000 1.040000 -129.153793 28.796333 17509.931641
9.040000 3.080000 1.080000 -99.092590 -34.503510 11009.833984
9.040000 3.080000 1.120000 -42.927162 -52.996727 4651.394531
9.040000 3.080000 1.160000 -4.727669 -29.549536 895.525879
9.040000 3.080000 1.200000 -3.987678 0.781407 16.512169
9.040000 3.120000 0.800000 -8.291597 30.210358 981.416321
9.040000 3.120000 0.840000 0.767406 33.683884 1135.192871
9.040000 3.120000 0.880000 -1.637165 53.824505 2899.757812
9.040000 3.120000 0.920000 -29.627975 71.013260 5920.700195
9.040000 3.120000 0.960000 -72.036293 60.113327 8802.839844
9.040000 3.120000 1.000000 -98.681595 16.480804 10009.674805
9.040000 3.120000 1.040000 -87.226006 -35.991299 8903.750000
9.040000 3.120000 1.080000 -44.490326 -64.394295 6126.014160
9.040000 3.120000 1.120000 -0.772032 -55.416229 3071.554443
9.040000 3.120000 1.160000 17.249294 -25.259365 935.573669
9.040000 3.120000 1.200000 8.267803 -2.146065 72.962158
9.040000 3.160000 0.800000 -23.954967 13.041409 743.918823
9.040000 3.160000 0.840000 -18.894491 11.638264 492.450989
9.040000 3.160000 0.880000 -21.578491 16.515766 738.401855
9.040000 3.160000 0.920000 -34.513756 15.474016 1430.644531
9.040000 3.160000 0.960000 -47.199829 -0.361168 2227.954346
9.040000 3.160000 1.000000 -45.216671 -26.212906 2731.663818
9.040000 3.160000 1.040000 -24.141647 -46.260609 2722.863037
9.040000 3.160000 1.080000 5.343079 -47.136986 2250.444092
9.040000 3.160000 1.120000 26.180464 -29.358562 1547.341797
9.040000 3.160000 1.160000 28.901623 -6.089211 872.382263
9.040000 3.160000 1.200000 17.723305 8.663403 389.170074
9.040000 3.200000 0.800000 -23.153393 -5.668859 568.215576
9.040000 3.200000 0.840000 -16.663349 -11.005769 398.794159
9.040000 3.200000 0.880000 -10.618981 -13.223339 287.619446
9.040000 3.200000 0.920000 -5.615008 -14.259750 234.868805
9.040000 3.200000 0.960000 -0.679295 -15.096451 228.364273
9.040000 3.200000 1.000000 5.268860 -15.237480 259.941681
9.040000 3.200000 1.040000 12.352211 -13.238420 327.832886
9.040000 3.200000 1.080000 19.288330 -7.627320 430.215698
9.040000 3.200000 1.120000 23.447344 2.008654 553.812622
9.040000 3.200000 1.160000 21.749012 13.852957 664.923950
9.040000 3.200000 1.200000 12.729119 23.511656 714.828430
9.080000 2.800000 0.800000 -31.366110 -17.940056 1305.678467
9.080000 2.800000 0.840000 -16.730949 -31.097347 1246.969727
9.080000 2.800000 0.880000 5.764034 -31.481981 1024.339233
9.080000 2.800000 0.920000 23.149624 -15.598581 779.220825
9.080000 2.800000 0.960000 24.147158 7.181269 634.655823
9.080000 2.800000 1.000000 10.009417 21.890852 579.397827
9.080000 2.800000 1.040000 -6.548003 21.491085 504.743073
9.080000 2.800000 1.080000 -13.851922 12.565500 349.767548
9.080000 2.800000 1.120000 -12.165941 7.103136 198.464661
9.080000 2.800000 1.160000 -11.460689 9.260141 217.097595
9.080000 2.800000 1.200000 -18.837559 11.511574 487.369934
9.080000 2.840000 0.800000 -21.373650 -39.983990 2055.552246
9.080000 2.840000 0.840000 -4.907404 -48.527439 2378.994873
9.080000 2.840000 0.880000 17.062090 -46.138535 2419.879395
9.080000 2.840000 0.920000 34.598125 -29.862137 2088.777344
9.080000 2.840000 0.960000 38.295723 -6.406963 1507.611572
9.080000 2.840000 1.000000 27.545462 12.444923 913.628540
9.080000 2.840000 1.040000 10.672692 19.381927 489.565491
9.080000 2.840000 1.080000 -3.007906 16.276318 273.966003
9.080000 2.840000 1.120000 -10.595449 9.831130 208.914673
9.080000 2.840000 1.160000 -15.134758 3.812954 243.599518
9.080000 2.840000 1.200000 -19.090523 -3.377708 375.856964
9.080000 2.880000 0.800000 4.319926 -52.323463 2756.406738
9.080000 2.880000 0.840000 20.559704 -57.442780 3722.374268
9.080000 2.880000 0.880000 43.880753 -53.422127 4779.443848
9.080000 2.880000 0.920000 65.216362 -33.402786 5368.919922
9.080000 2.880000 0.960000 71.251923 -1.232391 5078.354980
9.080000 2.880000 1.000000 55.922134 28.710636 3951.585693
9.080000 2.880000 1.040000 26.673380 41.853752 2463.205811
9.080000 2.880000 1.080000 -0.806025 34.435352 1186.443115
9.080000 2.880000 1.120000 -14.407944 15.263060 440.549805
9.080000 2.880000 1.160000 -13.249721 -2.629557 182.469666
9.080000 2.880000 1.200000 -5.186769 -12.024592 171.493393
9.080000 2.920000 0.800000 35.082130 -44.282173 3191.666748
9.080000 2.920000 0.840000 51.082607 -47.001366 4818.561523
9.080000 2.920000 0.880000 77.323357 -38.261242 7442.824219
9.080000 2.920000 0.920000 99.601433 -7.314468 9973.946289
9.080000 2.920000 0.960000 97.353729 38.381775 10950.910156
9.080000 2.920000 1.000000 63.699841 74.595329 9622.132812
9.080000 2.920000 1.040000 15.126675 79.483826 6546.495117
9.080000 2.920000 1.080000 -20.240982 52.845108 3202.302734
9.080000 2.920000 1.120000 -25.638483 16.474379 928.736938
9.080000 2.920000 1.160000 -8.257466 -4.986188 93.047821
9.080000 2.920000 1.200000 10.017273 -4.381900 119.546806
9.080000 2.960000 0.800000 54.286545 -16.416828 3216.541260
9.080000 2.960000 0.840000 70.117851 -16.157715 5177.584961
9.080000 2.960000 0.880000 95.831306 1.762374 9186.746094
9.080000 2.960000 0.920000 108.336746 45.655582 13821.283203
9.080000 2.960000 0.960000 84.581657 96.834518 16530.980469
9.080000 2.960000 1.000000 27.540207 121.362762 15487.382812
9.080000 2.960000 1.040000 -30.785547 100.509544 11049.918945
9.080000 2.960000 1.080000 -55.311195 49.832161 5542.572754
9.080000 2.960000 1.120000 -38.516422 6.522833 1526.062134
9.080000 2.960000 1.160000 -5.568540 -3.633738 44.212681
9.080000 2.960000 1.200000 11.069364 12.564095 280.387268
9.080000 3.000000 0.800000 50.181015 17.835354 2836.234131
9.080000 3.000000 0.840000 64.191483 21.823448 4596.809082
9.080000 3.000000 0.880000 81.646698 48.602905 9028.425781
9.080000 3.000000 0.920000 74.167023 96.188774 14753.027344
9.080000 3.000000 0.960000 26.799938 134.084396 18696.861328
9.080000 3.000000 1.000000 -40.504322 129.048416 18294.093750
9.080000 3.000000 1.040000 -85.690491 78.632767 13525.972656
9.080000 3.000000 1.080000 -81.872025 17.219318 6999.533203
9.080000 3.000000 1.120000 -42.194778 -13.929401 1974.427490
9.080000 3.000000 1.160000 -6.565638 -3.744491 57.128807
9.080000 3.000000 1.200000 -3.154243 21.429308 469.164490
9.080000 3.040000 0.800000 24.692535 39.934734 2204.504395
9.080000 3.040000 0.840000 34.427620 46.347523 3333.353760
9.080000 3.040000 0.880000 38.095016 74.448151 6993.757812
9.080000 3.040000 0.920000 11.452693 109.800125 12187.231445
9.080000 3.040000 0.960000 -44.613194 119.104736 16176.275391
9.080000 3.040000 1.000000 -97.526131 83.136658 16423.048828
9.080000 3.040000 1.040000 -110.389786 19.835003 12579.333008
9.080000 3.040000 1.080000 -77.240448 -28.716873 6790.745605
9.080000 3.040000 1.120000 -29.617373 -34.439102 2063.240479
9.080000 3.040000 1.160000 -6.491518 -8.369593 112.189880
9.080000 3.040000 1.200000 -17.653889 12.851865 476.830200
9.080000 3.080000 0.800000 -6.901110 38.622978 1539.359863
9.080000 3.080000 0.840000 -2.115234 44.212807 1959.246460
9.080000 3.080000 0.880000 -9.786278 63.683914 4151.412109
9.080000 3.080000 0.920000 -41.923626 76.466438 7604.706543
9.080000 3.080000 0.960000 -84.078896 58.823685 10529.486328
9.080000 3.080000 1.000000 -104.843391 10.791714 11108.597656
9.080000 3.080000 1.040000 -85.773788 -39.056458 8882.549805
9.080000 3.080000 1.080000 -41.015358 -58.452442 5098.947754
9.080000 3.080000 1.120000 -5.091944 -41.610332 1757.347656
9.080000 3.080000 1.160000 -0.324012 -13.619503 185.595840
9.080000 3.080000 1.200000 -17.025936 -4.405564 309.291504
9.080000 3.120000 0.800000 -26.195457 17.876421 1005.768433
9.080000 3.120000 0.840000 -24.259136 20.029924 989.703552
9.080000 3.120000 0.880000 -33.999516 26.249065 1844.980469
9.080000 3.120000 0.920000 -54.805977 20.218412 3412.479248
9.080000 3.120000 0.960000 -69.680077 -6.027771 4891.646973
9.080000 3.120000 1.000000 -61.212631 -40.528618 5389.555176
9.080000 3.120000 1.040000 -30.267580 -60.443848 4569.584961
9.080000 3.120000 1.080000 2.887043 -53.572632 2878.361816
9.080000 3.120000 1.120000 17.145935 -30.151758 1203.111572
9.080000 3.120000 1.160000 10.075986 -12.434160 256.133820
9.080000 3.120000 1.200000 -1.635072 -12.824481 167.140778
9.080000 3.160000 0.800000 -24.607876 -6.216074 644.187134
9.080000 3.160000 0.840000 -22.620058 -7.490300 567.771606
9.080000 3.160000 0.880000 -25.524633 -10.702730 766.055298
9.080000 3.160000 0.920000 -27.436882 -21.062130 1196.395752
9.080000 3.160000 0.960000 -20.195272 -34.992359 1632.314209
9.080000 3.160000 1.000000 -2.851799 -42.502960 1814.634399
9.080000 3.160000 1.040000 15.958160 -36.989010 1622.849731
9.080000 3.160000 1.080000 25.679764 -22.111586 1148.372437
9.080000 3.160000 1.120000 23.600597 -8.405519 627.640991
9.080000 3.160000 1.160000 16.579777 -3.227397 285.305115
9.080000 3.160000 1.200000 13.310555 -4.618382 198.500336
9.080000 3.200000 0.800000 -8.958135 -17.763855 395.802704
9.080000 3.200000 0.840000 -5.741184 -20.825550 466.664734
9.080000 3.200000 0.880000 0.627907 -25.452717 648.235107
9.080000 3.200000 0.920000 11.987992 -26.658905 854.409180
9.080000 3.200000 0.960000 23.803476 -19.838165 960.158264
9.080000 3.200000 1.000000 28.897947 -6.847661 881.981812
9.080000 3.200000 1.040000 24.929367 4.766295 644.190918
9.080000 3.200000 1.080000 17.090401 9.070496 374.355682
9.080000 3.200000 1.120000 12.693751 7.553020 218.179443
9.080000 3.200000 1.160000 13.488163 6.845353 228.789398
9.080000 3.200000 1.200000 14.377069 10.813901 323.640564
9.120000 2.800000 0.800000 -29.068270 -17.205868 1141.006226
9.120000 2.800000 0.840000 -14.694080 -30.857742 1168.116211
9.120000 2.800000 0.880000 9.858755 -28.873672 930.884033
9.120000 2.800000 0.920000 26.245504 -6.990987 737.700378
9.120000 2.800000 0.960000 20.180538 20.322250 820.247986
9.120000 2.800000 1.000000 -3.598696 32.602566 1075.877808
9.120000 2.800000 1.040000 -25.467279 23.003067 1177.723389
9.120000 2.800000 1.080000 -30.202370 4.090372 928.914246
9.120000 2.800000 1.120000 -21.006544 -6.267152 480.552094
9.120000 2.800000 1.160000 -13.677165 -3.422523 198.778503
9.120000 2.800000 1.200000 -17.977867 0.962093 324.129333
9.120000 2.840000 0.800000 -13.389172 -38.364914 1651.136475
9.120000 2.840000 0.840000 7.155189 -44.458027 2027.712891
9.120000 2.840000 0.880000 30.832939 -32.229488 1989.410034
9.120000 2.840000 0.920000 40.023163 -4.199932 1619.492920
9.120000 2.840000 0.960000 26.411331 22.388863 1198.819580
9.120000 2.840000 1.000000 -0.366673 30.556458 933.831543
9.120000 2.840000 1.040000 -21.513369 18.626682 809.778320
9.120000 2.840000 1.080000 -26.203154 0.052946 686.608093
9.120000 2.840000 1.120000 -19.439991 -11.070183 500.462189
9.120000 2.840000 1.160000 -13.474016 -12.980101 350.032135
9.120000 2.840000 1.200000 -13.357027 -14.529100 389.504944
9.120000 2.880000 0.800000 16.958122 -42.976727 2134.576904
9.120000 2.880000 0.840000 37.123718 -38.875008 2889.436523
9.120000 2.880000 0.880000 54.258896 -18.948343 3303.067627
9.120000 2.880000 0.920000 54.819550 11.104031 3128.482666
9.120000 2.880000 0.960000 34.685768 35.351597 2452.837891
9.120000 2.880000 1.000000 4.355164 39.975986 1617.046875
9.120000 2.880000 1.040000 -18.890482 24.535669 958.849365
9.120000 2.880000 1.080000 -24.586189 1.492236 606.707458
9.120000 2.880000 1.120000 -15.745828 -15.022864 473.617554
9.120000 2.880000 1.160000 -3.308596 -20.049026 412.910278
9.120000 2.880000 1.200000 4.847942 -18.503124 365.868134
9.120000 2.920000 0.800000 44.438644 -23.129284 2509.756836
9.120000 2.920000 0.840000 57.740208 -11.573197 3467.870605
9.120000 2.920000 0.880000 65.656677 11.204966 4436.350586
9.120000 2.920000 0.920000 57.482361 39.946247 4899.924805
9.120000 2.920000 0.960000 30.172104 59.907898 4499.312012
9.120000 2.920000 1.000000 -5.118414 57.538132 3336.834961
9.120000 2.920000 1.040000 -29.182579 32.937565 1936.506104
9.120000 2.920000 1.080000 -29.601200 1.657403 878.978027
9.120000 2.920000 1.120000 -10.829823 -17.189993 412.780914
9.120000 2.920000 1.160000 10.209393 -16.077047 362.703156
9.120000 2.920000 1.200000 19.059368 -3.572883 376.025024
9.120000 2.960000 0.800000 50.449047 12.047049 2690.237793
9.120000 2.960000 0.840000 54.269794 24.870529 3563.753906
9.120000 2.960000 0.880000 53.206886 45.638557 4913.850586
9.120000 2.960000 0.920000 36.537880 69.382652 6148.969238
9.120000 2.960000 0.960000 2.443921 80.042107 6412.711426
9.120000 2.960000 1.000000 -33.953457 64.426643 5303.629883
9.120000 2.960000 1.040000 -50.131165 27.740820 3282.686523
9.120000 2.960000 1.080000 -36.264606 -6.959590 1363.557617
9.120000 2.960000 1.120000 -5.816565 -17.584129 343.034027
9.120000 2.960000 1.160000 15.616618 -2.749201 251.436874
9.120000 2.960000 1.200000 13.543169 17.609585 493.514893
9.120000 3.000000 0.800000 29.814859 41.466198 2608.371338
9.120000 3.000000 0.840000 26.324970 49.823708 3175.405762
9.120000 3.000000 0.880000 18.514067 64.691368 4527.743652
9.120000 3.000000 0.920000 -4.337189 78.593941 6195.818359
9.120000 3.000000 0.960000 -39.337967 74.266098 7062.928711
9.120000 3.000000 1.000000 -66.144264 43.779572 6291.714355
9.120000 3.000000 1.040000 -64.098709 1.945444 4112.429199
9.120000 3.000000 1.080000 -34.133934 -23.351065 1710.397705
9.120000 3.000000 1.120000 -1.117228 -16.822956 284.260040
9.120000 3.000000 1.160000 8.432068 8.666851 146.214081
9.120000 3.000000 1.200000 -8.173450 24.177752 651.368958
9.120000 3.040000 0.800000 -4.374697 47.248589 2251.567139
9.120000 3.040000 0.840000 -10.369787 48.851479 2493.999512
9.120000 3.040000 0.880000 -21.180912 55.283669 3504.915039
9.120000 3.040000 0.920000 -43.815117 55.769146 5029.962402
9.120000 3.040000 0.960000 -68.728996 36.596684 6062.992188
9.120000 3.040000 1.000000 -75.344788 0.109358 5676.848633
9.120000 3.040000 1.040000 -53.549725 -31.746338 3875.402832
9.120000 3.040000 1.080000 -17.873940 -36.627163 1661.026855
9.120000 3.040000 1.120000 3.570602 -14.978925 237.117386
9.120000 3.040000 1.160000 -3.731344 8.426413 84.927361
9.120000 3.040000 1.200000 -25.594934 8.527233 727.814331
9.120000 3.080000 0.800000 -30.076168 28.046158 1691.162842
9.120000 3.080000 0.840000 -34.480453 24.299461 1779.365479
9.120000 3.080000 0.880000 -43.465607 21.935856 2370.440674
9.120000 3.080000 0.920000 -57.041245 10.824656 3370.876709
9.120000 3.080000 0.960000 -62.834808 -13.550258 4131.822754
9.120000 3.080000 1.000000 -48.767582 -39.945686 3973.935059
9.120000 3.080000 1.040000 -19.088272 -49.398857 2804.609131
9.120000 3.080000 1.080000 5.732214 -34.910122 1251.574829
9.120000 3.080000 1.120000 7.956048 -11.199966 188.737946
9.120000 3.080000 1.160000 -8.692639 -1.810077 78.838356
9.120000 3.080000 1.200000 -21.477135 -15.338144 696.526001
9.120000 3.120000 0.800000 -32.716099 -0.320358 1070.445801
9.120000 3.120000 0.840000 -34.199944 -6.486249 1211.707520
9.120000 3.120000 0.880000 -36.900078 -15.078720 1588.983521
9.120000 3.120000 0.920000 -35.596138 -29.423180 2132.808594
9.120000 3.120000 0.960000 -23.220627 -44.379326 2508.722168
9.120000 3.120000 1.000000 -1.185045 -48.671036 2370.273926
9.120000 3.120000 1.040000 18.119843 -36.640011 1670.819092
9.120000 3.120000 1.080000 21.826368 -16.636631 753.167847
9.120000 3.120000 1.120000 10.174740 -5.173941 130.294998
9.120000 3.120000 1.160000 -1.951730 -11.021017 125.272064
9.120000 3.120000 1.200000 1.052079 -25.533344 653.058533
9.120000 3.160000 0.800000 -15.516573 -17.552004 548.836914
9.120000 3.160000 0.840000 -15.074656 -24.338800 819.622437
9.120000 3.160000 0.880000 -9.478060 -34.355042 1270.102539
9.120000 3.160000 0.920000 4.829386 -41.395916 1736.944824
9.120000 3.160000 0.960000 23.495949 -37.379112 1949.257568
9.120000 3.160000 1.000000 35.611572 -21.210957 1718.088745
9.120000 3.160000 1.040000 33.183762 -2.297213 1106.439209
9.120000 3.160000 1.080000 19.683193 6.564842 430.525269
9.120000 3.160000 1.120000 8.148846 0.975850 67.355972
9.120000 3.160000 1.160000 9.504869 -10.396128 198.422012
9.120000 3.160000 1.200000 22.239916 -13.681437 681.795532
9.120000 3.200000 0.800000 4.477727 -14.523571 230.984146
9.120000 3.200000 0.840000 5.788662 -22.286995 530.218750
9.120000 3.200000 0.880000 18.312708 -28.975220 1174.918701
9.120000 3.200000 0.920000 36.890934 -22.807230 1881.110840
9.120000 3.200000 0.960000 47.031605 -2.211264 2216.861572
9.120000 3.200000 1.000000 38.940582 20.165501 1923.016357
9.120000 3.200000 1.040000 18.367420 28.395748 1143.680664
9.120000 3.200000 1.080000 2.208153 18.676048 353.670715
9.120000 3.200000 1.120000 2.585395 3.213393 17.010162
9.120000 3.200000 1.160000 15.509657 -1.774451 243.698135
9.120000 3.200000 1.200000 25.718098 8.306411 730.416992
9.160000 2.800000 0.800000 -29.386185 -18.975714 1223.625488
9.160000 2.800000 0.840000 -12.297963 -32.376568 1199.482056
9.160000 2.800000 0.880000 12.877517 -24.588634 770.431396
9.160000 2.800000 0.920000 22.500851 3.126902 516.065796
9.160000 2.800000 0.960000 5.230163 28.431900 835.727539
9.160000 2.800000 1.000000 -25.163868 29.509140 1504.009644
9.160000 2.800000 1.040000 -42.910130 6.905331 1888.962769
9.160000 2.800000 1.080000 -35.752426 -17.606514 1588.225342
9.160000 2.800000 1.120000 -15.889131 -23.838200 820.724243
9.160000 2.800000 1.160000 -5.204718 -13.093584 198.531021
9.160000 2.800000 1.200000 -11.430214 -4.294374 149.091446
9.160000 2.840000 0.800000 -9.530960 -35.167709 1327.607056
9.160000 2.840000 0.840000 12.440115 -36.085052 1456.887451
9.160000 2.840000 0.880000 29.891504 -15.723892 1140.742798
9.160000 2.840000 0.920000 24.720917 13.711331 799.124329
9.160000 2.840000 0.960000 -2.284494 29.094097 851.685425
9.160000 2.840000 1.000000 -30.795704 18.271275 1282.214844
9.160000 2.840000 1.040000 -39.866890 -8.480686 1661.290894
9.160000 2.840000 1.080000 -27.053038 -29.220356 1585.696045
9.160000 2.840000 1.120000 -8.300498 -31.701323 1073.872192
9.160000 2.840000 1.160000 0.154803 -23.065603 532.046021
9.160000 2.840000 1.200000 -2.076320 -18.797417 357.653961
9.160000 2.880000 0.800000 19.473549 -30.744490 1324.442749
9.160000 2.880000 0.840000 35.083870 -18.833323 1585.572021
9.160000 2.880000 0.880000 37.839729 5.166006 1458.532715
9.160000 2.880000 0.920000 20.606615 26.167599 1109.375854
9.160000 2.880000 0.960000 -7.815358 28.404564 867.899109
9.160000 2.880000 1.000000 -28.847145 9.551727 923.393250
9.160000 2.880000 1.040000 -29.643816 -16.965519 1166.584595
9.160000 2.880000 1.080000 -13.225389 -33.797218 1317.162842
9.160000 2.880000 1.120000 6.101977 -34.039742 1195.938110
9.160000 2.880000 1.160000 16.582588 -24.549192 877.645081
9.160000 2.880000 1.200000 18.100080 -16.390575 596.263916
9.160000 2.920000 0.800000 37.309349 -4.085134 1408.675903
9.160000 2.920000 0.840000 38.843567 12.060181 1654.270630
9.160000 2.920000 0.880000 28.640163 28.757170 1647.233765
9.160000 2.920000 0.920000 7.652025 36.362953 1380.817871
9.160000 2.920000 0.960000 -15.045898 27.957838 1008.019775
9.160000 2.920000 1.000000 -26.813286 5.824111 752.872559
9.160000 2.920000 1.040000 -20.400661 -18.245277 749.077148
9.160000 2.920000 1.080000 -0.060124 -30.564457 934.189636
9.160000 2.920000 1.120000 21.098740 -25.555851 1098.258301
9.160000 2.920000 1.160000 31.019556 -9.550175 1053.418701
9.160000 2.920000 1.200000 27.512184 5.111313 783.045776
9.160000 2.960000 0.800000 29.380724 28.593773 1680.830811
9.160000 2.960000 0.840000 18.306141 37.723003 1758.139893
9.160000 2.960000 0.880000 3.555642 41.190826 1709.326782
9.160000 2.960000 0.920000 -12.950094 36.929276 1531.476318
9.160000 2.960000 0.960000 -26.350086 22.658604 1207.739258
9.160000 2.960000 1.000000 -28.644617 0.832881 821.207764
9.160000 2.960000 1.040000 -15.044977 -18.396400 564.778870
9.160000 2.960000 1.080000 8.687161 -22.636353 587.871277
9.160000 2.960000 1.120000 27.469553 -8.321945 823.831116
9.160000 2.960000 1.160000 28.486444 13.854834 1003.433960
9.160000 2.960000 1.200000 13.084522 26.690638 883.594849
9.160000 3.000000 0.800000 -0.279352 44.929668 2018.753052
9.160000 3.000000 0.840000 -15.116013 41.164585 1923.016846
9.160000 3.000000 0.880000 -25.477678 32.860683 1728.936523
9.160000 3.000000 0.920000 -32.850239 21.764692 1552.840088
9.160000 3.000000 0.960000 -35.743759 6.211913 1316.204224
9.160000 3.000000 1.000000 -28.396923 -11.449090 937.466919
9.160000 3.000000 1.040000 -8.970980 -21.252462 532.145630
9.160000 3.000000 1.080000 12.866478 -13.622139 351.108917
9.160000 3.000000 1.120000 20.922228 8.303653 506.690277
9.160000 3.000000 1.160000 7.954762 27.244690 805.551392
9.160000 3.000000 1.200000 -14.555873 26.375984 907.566040
9.160000 3.040000 0.800000 -31.225460 34.211609 2145.463623
9.160000 3.040000 0.840000 -40.738495 20.064938 2062.226807
9.160000 3.040000 0.880000 -42.075569 5.842288 1804.485840
9.160000 3.040000 0.920000 -39.059223 -6.729843 1570.913696
9.160000 3.040000 0.960000 -31.317051 -18.769049 1333.034912
9.160000 3.040000 1.000000 -16.105656 -26.691929 971.851196
9.160000 3.040000 1.040000 3.079887 -22.675806 523.677917
9.160000 3.040000 1.080000 14.048630 -4.907128 221.443909
9.160000 3.040000 1.120000 6.460654 14.966492 265.735931
9.160000 3.040000 1.160000 -14.796000 19.284437 590.811157
9.160000 3.040000 1.200000 -30.007885 2.047264 904.664429
9.160000 3.080000 0.800000 -42.639614 6.008933 1854.244019
9.160000 3.080000 0.840000 -43.542503 -11.413241 2026.211670
9.160000 3.080000 0.880000 -35.942600 -25.815660 1958.318848
9.160000 3.080000 0.920000 -23.229685 -35.089859 1770.916504
9.160000 3.080000 0.960000 -7.032060 -37.863174 1483.069824
9.160000 3.080000 1.000000 9.472631 -31.105453 1057.280029
9.160000 3.080000 1.040000 18.521631 -14.481196 552.755859
9.160000 3.080000 1.080000 12.620878 3.865389 174.227783
9.160000 3.080000 1.120000 -5.690966 10.106564 134.529709
9.160000 3.080000 1.160000 -21.282677 -2.800120 460.792999
9.160000 3.080000 1.200000 -17.828503 -25.165625 951.164185
9.160000 3.120000 0.800000 -29.701248 -17.926413 1203.520386
9.160000 3.120000 0.840000 -24.706409 -33.287369 1718.455566
9.160000 3.120000 0.880000 -10.457630 -44.520370 2091.425293
9.160000 3.120000 0.920000 9.437868 -46.051186 2209.784912
9.160000 3.120000 0.960000 27.669428 -34.965031 1988.150635
9.160000 3.120000 1.000000 35.142036 -14.342363 1440.666138
9.160000 3.120000 1.040000 26.693531 5.504164 742.840454
9.160000 3.120000 1.080000 7.226650 12.053693 197.515976
9.160000 3.120000 1.120000 -8.824564 0.525746 78.149338
9.160000 3.120000 1.160000 -7.509857 -19.795746 448.269501
9.160000 3.120000 1.200000 12.199226 -30.843370 1100.134644
9.160000 3.160000 0.800000 -6.358148 -21.519512 503.515442
9.160000 3.160000 0.840000 0.434589 -34.403347 1183.779175
9.160000 3.160000 0.880000 19.019604 -40.951866 2038.800659
9.160000 3.160000 0.920000 41.065399 -31.642685 2687.626465
9.160000 3.160000 0.960000 51.939659 -7.413291 2752.685059
9.160000 3.160000 1.000000 42.468445 18.119156 2131.872559
9.160000 3.160000 1.040000 18.323078 28.065563 1123.411011
9.160000 3.160000 1.080000 -2.654349 16.444054 277.452454
9.160000 3.160000 1.120000 -4.517570 -5.636903 52.183121
9.160000 3.160000 1.160000 13.164709 -18.489511 515.171631
9.160000 3.160000 1.200000 34.712723 -10.276222 1310.573853
9.160000 3.200000 0.800000 7.420622 -6.591105 98.508301
9.160000 3.200000 0.840000 14.924292 -19.442814 600.757507
9.160000 3.200000 0.880000 35.783085 -20.388170 1696.106689
9.160000 3.200000 0.920000 53.335854 -0.754741 2845.282959
9.160000 3.200000 0.960000 49.805504 28.950907 3318.743164
9.160000 3.200000 1.000000 24.302696 46.565399 2758.957520
9.160000 3.200000 1.040000 -4.285689 38.543652 1503.980225
9.160000 3.200000 1.080000 -13.788383 13.328243 367.761597
9.160000 3.200000 1.120000 0.959574 -5.970508 36.567749
9.160000 3.200000 1.160000 23.803665 -2.768187 574.277344
9.160000 3.200000 1.200000 32.980362 18.570641 1432.572876
9.200000 2.800000 0.800000 -28.472816 -24.127182 1392.822266
9.200000 2.800000 0.840000 -8.408161 -34.299461 1247.150146
9.200000 2.800000 0.880000 13.003426 -20.468233 588.037659
9.200000 2.800000 0.920000 12.563924 7.236684 210.221786
9.200000 2.800000 0.960000 -12.232145 22.514145 656.512085
9.200000 2.800000 1.000000 -39.169830 9.764651 1629.624023
9.200000 2.800000 1.040000 -43.478642 -19.484724 2270.046631
9.200000 2.800000 1.080000 -22.854767 -38.405354 1997.311523
9.200000 2.800000 1.120000 1.171575 -32.405453 1051.485962
9.200000 2.800000 1.160000 6.680693 -13.011709 213.936234
9.200000 2.800000 1.200000 -5.915943 -3.708029 48.747860
9.200000 2.840000 0.800000 -8.599414 -34.321728 1251.930908
9.200000 2.840000 0.840000 11.346779 -31.000387 1089.773438
9.200000 2.840000 0.880000 19.964550 -9.668696 492.066956
9.200000 2.840000 0.920000 5.467921 11.135647 153.900787
9.200000 2.840000 0.960000 -21.687359 10.896760 589.080933
9.200000 2.840000 1.000000 -37.924767 -12.148322 1585.869629
9.200000 2.840000 1.040000 -29.377850 -38.851486 2372.496094
9.200000 2.840000 1.080000 -4.861923 -48.020741 2329.629639
9.200000 2.840000 1.120000 14.245325 -36.580544 1541.065430
9.200000 2.840000 1.160000 15.908509 -20.248672 663.089417
9.200000 2.840000 1.200000 7.891694 -15.121501 290.938629
9.200000 2.880000 0.800000 14.601175 -24.388773 808.006592
9.200000 2.880000 0.840000 23.175512 -12.002022 681.152893
9.200000 2.880000 0.880000 16.895849 4.557040 306.236328
9.200000 2.880000 0.920000 -2.584741 10.002126 106.723404
9.200000 2.880000 0.960000 -20.646931 -3.257531 436.907257
9.200000 2.880000 1.000000 -22.151382 -27.145214 1227.546387
9.200000 2.880000 1.040000 -5.016668 -44.474312 2003.131348
9.200000 2.880000 1.080000 18.266182 -43.991783 2268.930420
9.200000 2.880000 1.120000 32.457405 -29.283657 1911.015747
9.200000 2.880000 1.160000 32.728310 -13.416062 1251.132935
9.200000 2.880000 1.200000 26.459963 -5.649945 732.051514
9.200000 2.920000 0.800000 22.264458 1.899453 499.313995
9.200000 2.920000 0.840000 15.819525 11.180549 375.262024
9.200000 2.920000 0.880000 2.796233 13.194936 181.925247
9.200000 2.920000 0.920000 -9.427135 4.277295 107.166138
9.200000 2.920000 0.960000 -12.464742 -12.481821 311.165649
9.200000 2.920000 1.000000 -2.498228 -28.299904 807.125732
9.200000 2.920000 1.040000 16.579016 -33.868088 1421.911133
9.200000 2.920000 1.080000 35.051884 -25.489429 1878.345459
9.200000 2.920000 1.120000 43.578354 -7.740580 1958.989502
9.200000 2.920000 1.160000 39.349548 9.704359 1642.561523
9.200000 2.920000 1.200000 27.426086 18.942755 1111.018188
9.200000 2.960000 0.800000 6.003799 25.651287 694.034119
9.200000 2.960000 0.840000 -8.201591 21.281738 520.178467
9.200000 2.960000 0.880000 -15.535231 8.442972 312.627167
9.200000 2.960000 0.920000 -13.266456 -5.838661 210.088806
9.200000 2.960000 0.960000 -3.409127 -16.200562 274.080322
9.200000 2.960000 1.000000 10.910934 -19.892344 514.753784
9.200000 2.960000 1.040000 26.199738 -14.970058 910.528931
9.200000 2.960000 1.080000 36.954399 -0.844997 1366.341553
9.200000 2.960000 1.120000 36.750484 18.367132 1687.949707
9.200000 2.960000 1.160000 23.666748 33.245163 1665.355835
9.200000 2.960000 1.200000 4.612768 35.007450 1246.799194
9.200000 3.000000 0.800000 -23.247208 28.222080 1336.918457
9.200000 3.000000 0.840000 -32.902302 9.173367 1166.712158
9.200000 3.000000 0.880000 -26.582790 -10.120656 809.072388
9.200000 3.000000 0.920000 -10.931671 -19.560238 502.104340
9.200000 3.000000 0.960000 4.962373 -18.429167 364.259338
9.200000 3.000000 1.000000 17.017315 -10.612919 402.223083
9.200000 3.000000 1.040000 24.456898 1.890945 601.715515
9.200000 3.000000 1.080000 24.524612 18.203152 932.811340
9.200000 3.000000 1.120000 13.394804 33.062687 1272.562012
9.200000 3.000000 1.160000 -6.583866 36.826679 1399.551636
9.200000 3.000000 1.200000 -23.629803 24.392218 1153.347900
9.200000 3.040000 0.800000 -43.530350 7.535960 1951.682007
9.200000 3.040000 0.840000 -40.715073 -18.088646 1984.916260
9.200000 3.040000 0.880000 -21.365711 -33.682755 1591.021606
9.200000 3.040000 0.920000 1.233520 -32.668762 1068.769653
9.200000 3.040000 0.960000 16.416845 -19.992779 669.223999
9.200000 3.040000 1.000000 21.649902 -3.429904 480.482513
9.200000 3.040000 1.040000 18.170273 12.590134 488.670288
9.200000 3.040000 1.080000 6.271551 24.802423 654.492554
9.200000 3.040000 1.120000 -12.188839 27.388603 898.703369
9.200000 3.040000 1.160000 -28.760035 15.519422 1067.992065
9.200000 3.040000 1.200000 -31.149117 -6.222059 1008.981445
9.200000 3.080000 0.800000 -40.384979 -19.815546 2023.602417
9.200000 3.080000 0.840000 -26.175030 -42.288090 2473.414795
9.200000 3.080000 0.880000 -0.130493 -48.765919 2378.131836
9.200000 3.080000 0.920000 22.841066 -37.014793 1891.809326
9.200000 3.080000 0.960000 32.676235 -15.124497 1296.486816
9.200000 3.080000 1.000000 27.765306 6.464773 812.705505
9.200000 3.080000 1.040000 11.913867 19.982445 541.238342
9.200000 3.080000 1.080000 -8.412613 20.657986 497.524445
9.200000 3.080000 1.120000 -24.166481 7.373656 638.389587
9.200000 3.080000 1.160000 -25.677431 -14.068027 857.239807
9.200000 3.080000 1.200000 -9.585339 -30.328798 1011.714722
9.200000 3.120000 0.800000 -18.877630 -32.901745 1438.889648
9.200000 3.120000 0.840000 0.063164 -48.087925 2312.452393
9.200000 3.120000 0.880000 26.619535 -45.873245 2812.954346
9.200000 3.120000 0.920000 45.784702 -25.655422 2754.439697
9.200000 3.120000 0.960000 46.958786 2.290720 2210.375000
9.200000 3.120000 1.000000 29.828556 23.468328 1440.505127
9.200000 3.120000 1.040000 4.081286 27.226017 757.912903
9.200000 3.120000 1.080000 -15.759663 12.437588 403.060547
9.200000 3.120000 1.120000 -18.097786 -11.333550 455.979218
9.200000 3.120000 1.160000 -1.502218 -28.425491 810.265198
9.200000 3.120000 1.200000 23.020435 -26.459072 1230.022949
9.200000 3.160000 0.800000 1.688782 -24.215517 589.243225
9.200000 3.160000 0.840000 20.106171 -34.387474 1586.756470
9.200000 3.160000 0.880000 44.387230 -26.337286 2663.878906
9.200000 3.160000 0.920000 57.299950 -0.290929 3283.368896
9.200000 3.160000 0.960000 47.475834 29.122810 3102.092773
9.200000 3.160000 1.000000 19.373833 42.833660 2210.067871
9.200000 3.160000 1.040000 -8.716146 31.932602 1095.662231
9.200000 3.160000 1.080000 -17.935966 5.198822 348.726624
9.200000 3.160000 1.120000 -3.258997 -17.025978 300.505005
9.200000 3.160000 1.160000 22.631643 -18.214224 843.949219
9.200000 3.160000 1.200000 39.259377 1.949333 1545.098633
9.200000 3.200000 0.800000 5.112278 -4.864694 49.800629
9.200000 3.200000 0.840000 22.803883 -13.820899 711.034302
9.200000 3.200000 0.880000 44.445976 -1.872277 1978.950195
9.200000 3.200000 0.920000 49.385571 26.881088 3161.527344
9.200000 3.200000 0.960000 28.937344 51.577065 3497.563477
9.200000 3.200000 1.000000 -3.922065 52.232304 2743.596191
9.200000 3.200000 1.040000 -24.569834 28.136618 1395.345947
9.200000 3.200000 1.080000 -18.180145 -0.643556 330.931824
9.200000 3.200000 1.120000 7.272613 -10.623629 165.752380
9.200000 3.200000 1.160000 28.513704 4.856117 836.613159
9.200000 3.200000 1.200000 27.597401 31.062843 1726.516724
