#kx 	ky 	kz 	real 	imag 	intensity
0.800000 6.800000 6.800000 6.869078 -15.549153 288.960388
0.800000 6.800000 6.840000 3.881582 -2.658684 22.135275
0.800000 6.800000 6.880000 -8.118855 -0.984450 66.884941
0.800000 6.800000 6.920000 -14.413351 -12.949863 375.443665
0.800000 6.800000 6.960000 -5.078959 -26.730165 740.297607
0.800000 6.800000 7.000000 14.691962 -27.234089 957.549377
0.800000 6.800000 7.040000 28.932514 -10.880730 955.480652
0.800000 6.800000 7.080000 26.066730 10.685479 793.653870
0.800000 6.800000 7.120000 9.638179 21.873331 571.337097
0.800000 6.800000 7.160000 -6.186262 17.772469 354.130463
0.800000 6.800000 7.200000 -11.138668 7.114756 174.689682
0.800000 6.840000 6.800000 9.433659 -9.989003 188.774094
0.800000 6.840000 6.840000 0.516364 0.186281 0.301332
0.800000 6.840000 6.880000 -12.154792 -4.348531 166.648682
0.800000 6.840000 6.920000 -13.142634 -19.681503 560.090393
0.800000 6.840000 6.960000 2.086522 -29.759354 889.972717
0.800000 6.840000 7.000000 21.441795 -22.048246 945.875732
0.800000 6.840000 7.040000 27.406723 -0.672067 751.580139
0.800000 6.840000 7.080000 14.390499 17.001095 496.123718
0.800000 6.840000 7.120000 -5.736465 17.350014 333.930023
0.800000 6.840000 7.160000 -15.873302 3.553150 264.586609
0.800000 6.840000 7.200000 -10.756500 -8.949166 195.789886
0.800000 6.880000 6.800000 9.901786 -8.440240 169.283020
0.800000 6.880000 6.840000 -0.753493 -3.618690 13.662671
0.800000 6.880000 6.880000 -9.305289 -12.431499 241.130585
0.800000 6.880000 6.920000 -4.100673 -26.030098 694.381470
0.800000 6.880000 6.960000 12.736856 -29.252291 1017.924011
0.800000 6.880000 7.000000 26.382929 -16.263916 960.573914
0.800000 6.880000 7.040000 24.069599 2.686862 586.564819
0.800000 6.880000 7.080000 8.377248 11.255309 196.860260
0.800000 6.880000 7.120000 -5.354667 3.711535 42.447945
0.800000 6.880000 7.160000 -5.089819 -9.515119 116.443741
0.800000 6.880000 7.200000 5.560180 -13.554004 214.626617
0.800000 6.920000 6.800000 14.300749 -8.196735 271.697876
0.800000 6.920000 6.840000 5.653599 -6.836710 78.703789
0.800000 6.920000 6.880000 1.953347 -15.191789 234.606003
0.800000 6.920000 6.920000 9.607232 -23.624680 650.424377
0.800000 6.920000 6.960000 23.100967 -21.632778 1001.631836
0.800000 6.920000 7.000000 30.390902 -8.986745 1004.368469
0.800000 6.920000 7.040000 25.501877 3.870916 665.329712
0.800000 6.920000 7.080000 14.685886 6.963751 264.169098
0.800000 6.920000 7.120000 9.216584 1.326336 86.704597
0.800000 6.920000 7.160000 12.740870 -2.824989 170.310318
0.800000 6.920000 7.200000 17.430628 1.638349 306.510956
0.800000 6.960000 6.800000 21.726433 -2.431416 477.949646
0.800000 6.960000 6.840000 15.003017 -1.030630 226.152725
0.800000 6.960000 6.880000 12.595430 -6.297863 198.307938
0.800000 6.960000 6.920000 18.020920 -10.990116 445.536194
0.800000 6.960000 6.960000 26.935905 -8.598836 799.483032
0.800000 6.960000 7.000000 31.925749 0.457265 1019.462524
0.800000 6.960000 7.040000 29.891674 10.166815 996.876343
0.800000 6.960000 7.080000 24.038452 15.706202 824.531921
0.800000 6.960000 7.120000 18.863712 17.755447 671.095581
0.800000 6.960000 7.160000 14.655076 19.672869 601.793030
0.800000 6.960000 7.200000 8.276757 21.536287 532.316406
0.800000 7.000000 6.800000 24.665230 10.909542 727.391663
0.800000 7.000000 6.840000 16.831663 13.351739 461.573792
0.800000 7.000000 6.880000 11.953269 9.121578 226.083832
0.800000 7.000000 6.920000 14.239461 3.479582 214.869736
0.800000 7.000000 6.960000 22.045494 2.984219 494.909363
0.800000 7.000000 7.000000 29.215382 10.442205 962.578186
0.800000 7.000000 7.040000 29.684551 23.002176 1410.272705
0.800000 7.000000 7.080000 21.506748 34.434608 1648.282471
0.800000 7.000000 7.120000 7.549173 39.185146 1592.465698
0.800000 7.000000 7.160000 -6.648367 35.128578 1278.217773
0.800000 7.000000 7.200000 -15.696741 23.981258 821.488464
0.800000 7.040000 6.800000 17.055588 25.638502 948.225830
0.800000 7.040000 6.840000 5.918749 26.497417 737.144775
0.800000 7.040000 6.880000 -1.204665 18.817921 355.565369
0.800000 7.040000 6.920000 1.815154 9.193486 87.814972
0.800000 7.040000 6.960000 13.061776 7.484303 226.624786
0.800000 7.040000 7.000000 22.493404 18.415575 845.086670
0.800000 7.040000 7.040000 19.442253 36.240353 1691.364380
0.800000 7.040000 7.080000 1.933869 48.109917 2318.303711
0.800000 7.040000 7.120000 -20.632906 44.121399 2372.414551
0.800000 7.040000 7.160000 -34.341667 25.543631 1831.827148
0.800000 7.040000 7.200000 -31.477880 3.947388 1006.438782
0.800000 7.080000 6.800000 0.843287 32.898804 1083.042480
0.800000 7.080000 6.840000 -12.282397 28.528002 964.704163
0.800000 7.080000 6.880000 -17.285353 15.149013 528.276001
0.800000 7.080000 6.920000 -8.670353 3.588860 88.054932
0.800000 7.080000 6.960000 6.688727 5.875292 79.258133
0.800000 7.080000 7.000000 13.335390 22.993248 706.522095
0.800000 7.080000 7.040000 0.928882 41.411026 1715.735840
0.800000 7.080000 7.080000 -24.713860 43.694778 2520.008545
0.800000 7.080000 7.120000 -44.915192 24.432913 2614.341553
0.800000 7.080000 7.160000 -44.035030 -3.773106 1953.320190
0.800000 7.080000 7.200000 -23.347216 -20.717361 974.301514
0.800000 7.120000 6.800000 -15.910147 29.283615 1110.662842
0.800000 7.120000 6.840000 -27.057922 18.362873 1069.326294
0.800000 7.120000 6.880000 -25.291452 1.682178 642.487305
0.800000 7.120000 6.920000 -10.095181 -6.236742 140.809631
0.800000 7.120000 6.960000 4.818651 3.649299 36.536781
0.800000 7.120000 7.000000 2.943477 23.665596 568.724487
0.800000 7.120000 7.040000 -18.148785 34.105141 1492.539062
0.800000 7.120000 7.080000 -41.949837 21.455891 2220.144043
0.800000 7.120000 7.120000 -47.040028 -7.306496 2266.148926
0.800000 7.120000 7.160000 -27.390221 -29.595762 1626.133301
0.800000 7.120000 7.200000 1.120840 -27.680950 767.491272
0.800000 7.160000 6.800000 -26.646996 18.772022 1062.451172
0.800000 7.160000 6.840000 -32.176105 3.157136 1045.269287
0.800000 7.160000 6.880000 -22.516190 -11.728447 644.535278
0.800000 7.160000 6.920000 -4.755414 -11.848791 163.007812
0.800000 7.160000 6.960000 3.760611 3.767175 28.333801
0.800000 7.160000 7.000000 -7.363583 19.331877 427.943817
0.800000 7.160000 7.040000 -29.113920 16.626928 1124.075073
0.800000 7.160000 7.080000 -39.923660 -5.955647 1629.368408
0.800000 7.160000 7.120000 -26.648605 -29.787638 1597.451538
0.800000 7.160000 7.160000 1.242243 -33.081642 1095.938232
0.800000 7.160000 7.200000 19.543064 -12.360439 534.711792
0.800000 7.200000 6.800000 -31.058321 7.236836 1016.991089
0.800000 7.200000 6.840000 -29.503008 -9.802513 966.516724
0.800000 7.200000 6.880000 -14.603762 -19.031609 575.471985
0.800000 7.200000 6.920000 0.309933 -11.920688 142.198853
0.800000 7.200000 6.960000 0.440631 3.435508 11.996869
0.800000 7.200000 7.000000 -14.168418 9.229046 285.919342
0.800000 7.200000 7.040000 -27.010199 -3.420812 741.252808
0.800000 7.200000 7.080000 -21.559948 -23.717031 1027.328857
0.800000 7.200000 7.120000 0.673036 -30.927076 956.937073
0.800000 7.200000 7.160000 19.967052 -15.664338 644.054688
0.800000 7.200000 7.200000 17.466255 9.245169 390.543213
0.840000 6.800000 6.800000 8.989201 -2.686090 88.020805
0.840000 6.800000 6.840000 1.516806 3.498752 14.541965
0.840000 6.800000 6.880000 -7.394701 -0.669841 55.130291
0.840000 6.800000 6.920000 -7.856326 -12.068600 207.372955
0.840000 6.800000 6.960000 3.285711 -20.258377 421.197754
0.840000 6.800000 7.000000 18.975916 -16.342274 627.155273
0.840000 6.800000 7.040000 27.615557 -0.892991 763.416382
0.840000 6.800000 7.080000 22.845480 16.445267 792.362793
0.840000 6.800000 7.120000 8.419729 25.273262 709.629639
0.840000 6.800000 7.160000 -6.033685 22.621269 548.127197
0.840000 6.800000 7.200000 -13.543346 13.547146 366.947388
0.840000 6.840000 6.800000 7.178182 -0.603156 51.890087
0.840000 6.840000 6.840000 0.417809 1.635727 2.850168
0.840000 6.840000 6.880000 -3.908464 -3.419287 26.967617
0.840000 6.840000 6.920000 -0.456415 -10.125041 102.724770
0.840000 6.840000 6.960000 8.809809 -10.611198 190.210266
0.840000 6.840000 7.000000 15.864045 -2.175754 256.401825
0.840000 6.840000 7.040000 13.850119 9.739553 286.684692
0.840000 6.840000 7.080000 3.548939 16.321480 278.985687
0.840000 6.840000 7.120000 -7.430324 13.439236 235.822754
0.840000 6.840000 7.160000 -11.931895 4.966510 167.036331
0.840000 6.840000 7.200000 -9.531870 -1.839973 94.242043
0.840000 6.880000 6.800000 8.960667 -1.932842 84.029427
0.840000 6.880000 6.840000 5.727451 0.332446 32.914211
0.840000 6.880000 6.880000 3.583786 -0.196242 12.882037
0.840000 6.880000 6.920000 3.750632 -0.979690 15.027035
0.840000 6.880000 6.960000 4.676512 0.078553 21.875933
0.840000 6.880000 7.000000 3.859694 2.390530 20.611870
0.840000 6.880000 7.040000 0.887802 3.292049 11.625779
0.840000 6.880000 7.080000 -1.748442 1.199701 4.496330
0.840000 6.880000 7.120000 -1.295983 -2.144605 6.278902
0.840000 6.880000 7.160000 1.833051 -3.211724 13.675250
0.840000 6.880000 7.200000 4.019476 -0.784131 16.771053
0.840000 6.920000 6.800000 15.387973 1.051578 237.895523
0.840000 6.920000 6.840000 12.637032 7.558779 216.829697
0.840000 6.920000 6.880000 6.018116 11.410841 166.425018
0.840000 6.920000 6.920000 -1.857235 9.878351 101.031143
0.840000 6.920000 6.960000 -6.541142 3.069599 52.208984
0.840000 6.920000 7.000000 -4.789143 -5.276539 50.777748
0.840000 6.920000 7.040000 2.814487 -9.902498 105.980812
0.840000 6.920000 7.080000 11.815606 -7.503255 195.907379
0.840000 6.920000 7.120000 16.579229 0.874105 275.634918
0.840000 6.920000 7.160000 13.951579 10.253826 299.787506
0.840000 6.920000 7.200000 5.509190 14.756796 248.114212
0.840000 6.960000 6.800000 18.707541 12.307886 501.456116
0.840000 6.960000 6.840000 10.623465 21.818396 588.900391
0.840000 6.960000 6.880000 -3.849330 23.172573 551.785461
0.840000 6.960000 6.920000 -15.825638 12.477093 406.128662
0.840000 6.960000 6.960000 -15.570696 -4.773245 265.230438
0.840000 6.960000 7.000000 -1.373700 -16.344574 269.032166
0.840000 6.960000 7.040000 17.547663 -12.798960 471.733826
0.840000 6.960000 7.080000 27.602617 4.329063 780.645264
0.840000 6.960000 7.120000 21.553637 23.271814 1006.136597
0.840000 6.960000 7.160000 4.112770 31.231483 992.320435
0.840000 6.960000 7.200000 -12.184692 24.109028 729.711975
0.840000 7.000000 6.800000 11.127465 25.804317 789.683289
0.840000 7.000000 6.840000 -4.345981 31.852058 1033.441162
0.840000 7.000000 6.880000 -22.073074 23.379164 1033.805908
0.840000 7.000000 6.920000 -27.917086 2.180514 784.118286
0.840000 7.000000 6.960000 -14.138025 -17.300591 499.194183
0.840000 7.000000 7.000000 11.308264 -18.741058 479.104095
0.840000 7.000000 7.040000 29.243916 1.269484 856.818176
0.840000 7.000000 7.080000 24.981306 28.683910 1446.832397
0.840000 7.000000 7.120000 1.227963 43.028214 1852.935059
0.840000 7.000000 7.160000 -24.051575 34.484833 1767.682007
0.840000 7.000000 7.200000 -32.917095 11.492293 1215.607910
0.840000 7.040000 6.800000 -5.801688 30.928425 990.227051
0.840000 7.040000 6.840000 -24.097649 27.718376 1349.005005
0.840000 7.040000 6.880000 -35.773380 8.947485 1359.792236
0.840000 7.040000 6.920000 -28.026043 -14.627892 999.434326
0.840000 7.040000 6.960000 -2.712671 -23.859505 576.634521
0.840000 7.040000 7.000000 21.503700 -8.301695 531.327271
0.840000 7.040000 7.040000 23.860109 22.010813 1053.780762
0.840000 7.040000 7.080000 0.476584 43.178070 1864.572876
0.840000 7.040000 7.120000 -30.863037 37.903141 2389.175049
0.840000 7.040000 7.160000 -45.774357 10.897766 2214.052979
0.840000 7.040000 7.200000 -34.453808 -15.590582 1430.131104
0.840000 7.080000 6.800000 -22.001825 23.337774 1028.732056
0.840000 7.080000 6.840000 -35.660126 11.003086 1392.712402
0.840000 7.080000 6.880000 -35.216331 -10.847990 1357.868896
0.840000 7.080000 6.920000 -15.951900 -25.800798 920.144348
0.840000 7.080000 6.960000 9.417917 -18.917706 446.576752
0.840000 7.080000 7.000000 19.209755 7.285282 422.089996
0.840000 7.080000 7.040000 2.591687 31.819412 1019.191833
0.840000 7.080000 7.080000 -28.426113 32.822350 1885.350586
0.840000 7.080000 7.120000 -48.171173 8.011248 2384.642090
0.840000 7.080000 7.160000 -40.287312 -22.272285 2119.122070
0.840000 7.080000 7.200000 -12.628279 -33.328491 1270.261719
0.840000 7.120000 6.800000 -28.874369 8.971644 914.219604
0.840000 7.120000 6.840000 -33.652592 -7.095128 1182.837769
0.840000 7.120000 6.880000 -22.836052 -23.365898 1067.450439
0.840000 7.120000 6.920000 -1.564159 -24.852734 620.104980
0.840000 7.120000 6.960000 12.624277 -7.342597 213.286102
0.840000 7.120000 7.000000 5.333557 15.294831 262.378693
0.840000 7.120000 7.040000 -19.200891 21.858082 846.449951
0.840000 7.120000 7.080000 -39.609921 3.993145 1584.890991
0.840000 7.120000 7.120000 -36.557224 -24.221825 1923.127441
0.840000 7.120000 7.160000 -11.539334 -38.287926 1599.121460
0.840000 7.120000 7.200000 13.753181 -26.167767 873.901978
0.840000 7.160000 6.800000 -27.104902 -2.985295 743.587708
0.840000 7.160000 6.840000 -24.082621 -17.344631 880.808838
0.840000 7.160000 6.880000 -9.541173 -24.583282 695.371765
0.840000 7.160000 6.920000 5.224372 -16.654068 304.652039
0.840000 7.160000 6.960000 6.099495 0.218276 37.251484
0.840000 7.160000 7.000000 -8.969306 9.321929 167.346802
0.840000 7.160000 7.040000 -25.648260 -0.442058 658.028687
0.840000 7.160000 7.080000 -25.981730 -22.021328 1159.989136
0.840000 7.160000 7.120000 -6.601637 -35.360817 1293.968994
0.840000 7.160000 7.160000 16.405243 -26.584541 975.869873
0.840000 7.160000 7.200000 22.106041 -2.379562 494.339355
0.840000 7.200000 6.800000 -23.746746 -9.800251 659.952881
0.840000 7.200000 6.840000 -16.006351 -20.677107 683.746033
0.840000 7.200000 6.880000 -2.710997 -21.189739 456.354553
0.840000 7.200000 6.920000 4.178865 -11.294427 145.026993
0.840000 7.200000 6.960000 -1.424903 -2.159225 6.692599
0.840000 7.200000 7.000000 -12.086281 -5.006033 171.138550
0.840000 7.200000 7.040000 -13.562658 -18.376938 521.657532
0.840000 7.200000 7.080000 -0.086823 -28.058834 787.305725
0.840000 7.200000 7.120000 17.913883 -21.271675 773.391357
0.840000 7.200000 7.160000 22.974415 -0.943886 528.714661
0.840000 7.200000 7.200000 8.281387 15.330385 303.602081
0.880000 6.800000 6.800000 0.663197 4.738548 22.893663
0.880000 6.800000 6.840000 -3.245708 3.808578 25.039881
0.880000 6.800000 6.880000 -5.466986 -0.650866 30.311558
0.880000 6.800000 6.920000 -3.164486 -6.744928 55.508026
0.880000 6.800000 6.960000 4.537973 -10.331745 127.338158
0.880000 6.800000 7.000000 14.742689 -7.136129 268.271210
0.880000 6.800000 7.040000 21.402489 3.787024 472.408081
0.880000 6.800000 7.080000 19.039047 18.066116 688.869873
0.880000 6.800000 7.120000 7.163935 27.982758 834.356689
0.880000 6.800000 7.160000 -8.506592 27.622581 835.369141
0.880000 6.800000 7.200000 -19.514977 17.237600 677.969177
0.880000 6.840000 6.800000 0.852780 1.466600 2.878150
0.880000 6.840000 6.840000 2.620082 3.781279 21.162899
0.880000 6.840000 6.880000 1.375698 7.811023 62.904621
0.880000 6.840000 6.920000 -3.248230 9.457560 99.996429
0.880000 6.840000 6.960000 -7.281301 6.520433 95.533401
0.880000 6.840000 7.000000 -6.687939 1.832417 48.086273
0.880000 6.840000 7.040000 -2.213589 0.619869 5.284213
0.880000 6.840000 7.080000 0.877283 4.754842 23.378149
0.880000 6.840000 7.120000 -1.803125 10.303629 109.416031
0.880000 6.840000 7.160000 -8.951414 11.215564 205.916687
0.880000 6.840000 7.200000 -14.450036 5.413936 238.114243
0.880000 6.880000 6.800000 7.089148 1.494752 52.490295
0.880000 6.880000 6.840000 8.468204 13.355264 250.073547
0.880000 6.880000 6.880000 -2.860876 24.493292 608.105957
0.880000 6.880000 6.920000 -21.778545 22.616659 985.818359
0.880000 6.880000 6.960000 -33.781990 5.399897 1170.381836
0.880000 6.880000 7.000000 -28.386452 -15.577450 1048.447632
0.880000 6.880000 7.040000 -9.465828 -24.768551 703.083008
0.880000 6.880000 7.080000 8.061275 -16.735924 345.075317
0.880000 6.880000 7.120000 11.899409 -0.475519 141.822067
0.880000 6.880000 7.160000 2.787675 9.836220 104.522354
0.880000 6.880000 7.200000 -7.992710 7.842327 125.385498
0.880000 6.920000 6.800000 11.721909 10.587272 249.493469
0.880000 6.920000 6.840000 2.406803 29.108339 853.088135
0.880000 6.920000 6.880000 -24.168297 34.775402 1793.435181
0.880000 6.920000 6.920000 -49.995296 14.920105 2722.139404
0.880000 6.920000 6.960000 -52.324692 -21.401451 3195.895508
0.880000 6.920000 7.000000 -25.392200 -48.562016 3003.033203
0.880000 6.920000 7.040000 12.515118 -46.449055 2314.142822
0.880000 6.920000 7.080000 34.453957 -18.366014 1524.385498
0.880000 6.920000 7.120000 28.035858 12.582539 944.329590
0.880000 6.920000 7.160000 4.424668 24.560837 622.812378
0.880000 6.920000 7.200000 -14.260030 14.895258 425.217163
0.880000 6.960000 6.800000 5.109037 23.182852 563.546875
0.880000 6.960000 6.840000 -18.462877 36.450939 1669.548828
0.880000 6.960000 6.880000 -51.327774 23.672037 3194.905762
0.880000 6.960000 6.920000 -65.460556 -16.187748 4547.127441
0.880000 6.960000 6.960000 -42.444008 -57.654007 5125.478516
0.880000 6.960000 7.000000 6.484245 -68.656380 4755.743652
0.880000 6.960000 7.040000 47.259430 -39.373989 3783.764648
0.880000 6.960000 7.080000 51.857468 8.033470 2753.733643
0.880000 6.960000 7.120000 22.027216 38.778500 1988.970215
0.880000 6.960000 7.160000 -14.364046 35.341221 1455.327637
0.880000 6.960000 7.200000 -29.589466 9.777149 971.129150
0.880000 7.000000 6.800000 -12.075768 26.658449 856.497070
0.880000 7.000000 6.840000 -41.394909 24.058762 2292.362549
0.880000 7.000000 6.880000 -63.299675 -7.358130 4060.990967
0.880000 7.000000 6.920000 -52.147278 -51.936947 5416.785156
0.880000 7.000000 6.960000 -6.363953 -75.761566 5780.314941
0.880000 7.000000 7.000000 44.765553 -56.245773 5167.541504
0.880000 7.000000 7.040000 64.030083 -4.700362 4121.944824
0.880000 7.000000 7.080000 38.777145 41.411079 3218.544434
0.880000 7.000000 7.120000 -8.127577 50.560707 2622.442627
0.880000 7.000000 7.160000 -39.451420 23.416380 2104.741455
0.880000 7.000000 7.200000 -36.203712 -11.030281 1432.375854
0.880000 7.040000 6.800000 -27.491789 14.943094 979.094543
0.880000 7.040000 6.840000 -48.588322 -2.840904 2368.895752
0.880000 7.040000 6.880000 -48.829006 -38.706306 3882.449707
0.880000 7.040000 6.920000 -16.714638 -67.333244 4813.144531
0.880000 7.040000 6.960000 31.274536 -61.644405 4778.129395
0.880000 7.040000 7.000000 60.396767 -19.414339 4024.686035
0.880000 7.040000 7.040000 47.415291 30.663811 3188.479004
0.880000 7.040000 7.080000 2.546004 52.093445 2720.209229
0.880000 7.040000 7.120000 -38.632759 32.301979 2535.907959
0.880000 7.040000 7.160000 -46.526066 -7.265917 2217.468262
0.880000 7.040000 7.200000 -22.342133 -32.085762 1528.666992
0.880000 7.080000 6.800000 -29.262268 -4.059811 872.762390
0.880000 7.080000 6.840000 -34.716755 -25.824169 1872.140747
0.880000 7.080000 6.880000 -18.108265 -49.641167 2792.154541
0.880000 7.080000 6.920000 16.359159 -53.617199 3142.426025
0.880000 7.080000 6.960000 45.179283 -27.548742 2800.100830
0.880000 7.080000 7.000000 44.200878 13.648153 2139.989746
0.880000 7.080000 7.040000 11.653363 39.642792 1707.351807
0.880000 7.080000 7.080000 -27.723572 30.910198 1724.036865
0.880000 7.080000 7.120000 -43.561710 -3.201822 1907.874268
0.880000 7.080000 7.160000 -26.743565 -32.787312 1790.226074
0.880000 7.080000 7.200000 3.510742 -34.670475 1214.367188
0.880000 7.120000 6.800000 -18.348085 -16.255936 600.907715
0.880000 7.120000 6.840000 -12.400496 -30.824417 1103.916992
0.880000 7.120000 6.880000 6.467607 -37.338272 1435.976562
0.880000 7.120000 6.920000 26.824524 -25.652515 1377.606689
0.880000 7.120000 6.960000 31.550655 -0.106173 995.455139
0.880000 7.120000 7.000000 13.851709 20.810972 624.966431
0.880000 7.120000 7.040000 -13.927730 19.757156 584.326904
0.880000 7.120000 7.080000 -29.436314 -2.754005 874.081116
0.880000 7.120000 7.120000 -20.394398 -27.378502 1165.513794
0.880000 7.120000 7.160000 3.682344 -33.141754 1111.935547
0.880000 7.120000 7.200000 20.252083 -16.810499 692.739746
0.880000 7.160000 6.800000 -7.075426 -16.137432 310.478363
0.880000 7.160000 6.840000 0.822137 -21.409868 459.058350
0.880000 7.160000 6.880000 11.520433 -18.258371 466.088501
0.880000 7.160000 6.920000 16.124426 -6.828098 306.620026
0.880000 7.160000 6.960000 9.207677 4.272540 103.035912
0.880000 7.160000 7.000000 -4.459726 4.769622 42.638451
0.880000 7.160000 7.040000 -12.644428 -7.004381 208.942917
0.880000 7.160000 7.080000 -6.830102 -20.920567 484.320404
0.880000 7.160000 7.120000 8.686733 -23.677681 636.091919
0.880000 7.160000 7.160000 19.727488 -11.771267 527.736511
0.880000 7.160000 7.200000 15.489147 4.235424 257.852509
0.880000 7.200000 6.800000 -5.085299 -12.055202 171.188187
0.880000 7.200000 6.840000 0.322952 -13.488663 182.048309
0.880000 7.200000 6.880000 4.110390 -10.492163 126.980789
0.880000 7.200000 6.920000 3.202522 -6.910602 58.012566
0.880000 7.200000 6.960000 -0.236799 -7.629472 58.264912
0.880000 7.200000 7.000000 -0.289557 -12.945522 167.670395
0.880000 7.200000 7.040000 6.450574 -17.046700 332.199890
0.880000 7.200000 7.080000 16.027351 -13.278589 433.196960
0.880000 7.200000 7.120000 19.586435 -1.680365 386.452087
0.880000 7.200000 7.160000 11.888817 9.259379 227.080078
0.880000 7.200000 7.200000 -2.346277 9.561951 96.935913
0.920000 6.800000 6.800000 -8.623878 2.128917 78.903549
0.920000 6.800000 6.840000 -4.800507 0.786459 23.663380
0.920000 6.800000 6.880000 -3.574434 1.805331 16.035801
0.920000 6.800000 6.920000 -4.314587 0.474482 18.840790
0.920000 6.800000 6.960000 -1.781322 -3.818268 17.752279
0.920000 6.800000 7.000000 6.895095 -5.217117 74.760643
0.920000 6.800000 7.040000 16.650089 2.710228 284.570801
0.920000 6.800000 7.080000 17.644642 18.566486 656.047791
0.920000 6.800000 7.120000 5.067955 31.843929 1039.719971
0.920000 6.800000 7.160000 -14.396389 31.550251 1202.674316
0.920000 6.800000 7.200000 -26.996090 16.842140 1012.446533
0.920000 6.840000 6.800000 -2.310552 -1.253891 6.910892
0.920000 6.840000 6.840000 2.743898 10.502325 117.827805
0.920000 6.840000 6.880000 -7.555981 22.418291 559.672607
0.920000 6.840000 6.920000 -26.071104 19.347952 1054.045654
0.920000 6.840000 6.960000 -34.926506 0.223122 1219.910645
0.920000 6.840000 7.000000 -23.778473 -19.106800 930.485596
0.920000 6.840000 7.040000 -1.370785 -21.056749 445.265747
0.920000 6.840000 7.080000 12.361420 -4.088806 169.523041
0.920000 6.840000 7.120000 5.901142 15.501115 275.108032
0.920000 6.840000 7.160000 -12.756761 19.850161 556.763794
0.920000 6.840000 7.200000 -24.774817 6.956964 662.190857
0.920000 6.880000 6.800000 4.743530 5.055431 48.058464
0.920000 6.880000 6.840000 -3.626129 28.544767 827.952576
0.920000 6.880000 6.880000 -35.427345 35.987259 2550.179688
0.920000 6.880000 6.920000 -65.917397 10.669918 4458.950195
0.920000 6.880000 6.960000 -65.560814 -33.927883 5449.321289
0.920000 6.880000 7.000000 -29.517271 -63.784687 4939.755859
0.920000 6.880000 7.040000 15.739574 -55.576401 3336.470459
0.920000 6.880000 7.080000 36.334923 -18.479832 1661.730713
0.920000 6.880000 7.120000 21.780453 15.335930 709.578857
0.920000 6.880000 7.160000 -7.778213 21.381506 517.669373
0.920000 6.880000 7.200000 -23.630716 3.727467 572.304749
0.920000 6.920000 6.800000 1.143193 17.260971 299.248016
0.920000 6.920000 6.840000 -28.704687 36.773148 2176.223389
0.920000 6.920000 6.880000 -72.806450 19.663696 5687.440430
0.920000 6.920000 6.920000 -90.575661 -35.156910 9439.958984
0.920000 6.920000 6.960000 -56.953712 -90.803680 11489.034180
0.920000 6.920000 7.000000 10.284611 -103.266396 10769.721680
0.920000 6.920000 7.040000 63.453648 -62.014610 7872.177246
0.920000 6.920000 7.080000 67.029167 -0.089725 4492.916992
0.920000 6.920000 7.120000 27.932924 36.441570 2108.236328
0.920000 6.920000 7.160000 -14.638472 29.198977 1066.864990
0.920000 6.920000 7.200000 -27.671614 -0.929113 766.581482
0.920000 6.960000 6.800000 -14.916401 21.483189 684.026428
0.920000 6.960000 6.840000 -56.777840 19.445173 3601.837891
0.920000 6.960000 6.880000 -88.454140 -26.606930 8532.063477
0.920000 6.960000 6.920000 -70.613388 -92.486427 13539.990234
0.920000 6.960000 6.960000 -1.660404 -127.092430 16155.242188
0.920000 6.960000 7.000000 74.291611 -98.040863 15131.253906
0.920000 6.960000 7.040000 103.675629 -23.396946 11296.052734
0.920000 6.960000 7.080000 70.386734 42.846062 6790.077637
0.920000 6.960000 7.120000 8.112613 58.185715 3451.391846
0.920000 6.960000 7.160000 -32.790916 26.212433 1762.335693
0.920000 6.960000 7.200000 -30.123489 -13.270403 1083.528198
0.920000 7.000000 6.800000 -30.495085 8.477894 1001.824890
0.920000 7.000000 6.840000 -63.243134 -17.786442 4316.051270
0.920000 7.000000 6.880000 -63.092896 -74.044556 9463.309570
0.920000 7.000000 6.920000 -11.152722 -119.315918 14360.670898
0.920000 7.000000 6.960000 66.427307 -110.560608 16636.234375
0.920000 7.000000 7.000000 115.512108 -44.269630 15302.846680
0.920000 7.000000 7.040000 100.461113 35.909111 11381.899414
0.920000 7.000000 7.080000 36.005226 75.462906 6991.026855
0.920000 7.000000 7.120000 -26.589657 55.491150 3786.277588
0.920000 7.000000 7.160000 -45.456230 5.371721 2095.124268
0.920000 7.000000 7.200000 -21.725111 -28.460255 1281.966553
0.920000 7.040000 6.800000 -29.725180 -14.354619 1089.641357
0.920000 7.040000 6.840000 -38.683258 -49.142929 3911.421875
0.920000 7.040000 6.880000 -10.378731 -88.469200 7934.517578
0.920000 7.040000 6.920000 48.861282 -95.114731 11434.237305
0.920000 7.040000 6.960000 100.464340 -51.157669 12710.191406
0.920000 7.040000 7.000000 104.275284 20.574438 11296.642578
0.920000 7.040000 7.040000 54.987732 72.038681 8213.222656
0.920000 7.040000 7.080000 -11.277376 70.407822 5084.440430
0.920000 7.040000 7.120000 -47.990036 25.666775 2961.826660
0.920000 7.040000 7.160000 -37.692230 -20.785475 1852.740234
0.920000 7.040000 7.200000 -2.962444 -34.458694 1196.177734
0.920000 7.080000 6.800000 -10.961098 -28.468813 930.619019
0.920000 7.080000 6.840000 -0.222306 -51.667366 2669.565918
0.920000 7.080000 6.880000 33.086014 -61.614899 4891.080078
0.920000 7.080000 6.920000 70.358452 -40.115749 6559.584961
0.920000 7.080000 6.960000 82.361649 7.558596 6840.573242
0.920000 7.080000 7.000000 54.852367 52.041462 5717.095703
0.920000 7.080000 7.040000 3.890341 62.764893 3954.566406
0.920000 7.080000 7.080000 -35.663742 34.449287 2458.655762
0.920000 7.080000 7.120000 -39.428185 -8.095901 1620.125366
0.920000 7.080000 7.160000 -13.381535 -32.153347 1212.903198
0.920000 7.080000 7.200000 14.145950 -25.271378 838.750427
0.920000 7.120000 6.800000 10.077238 -22.815254 622.086548
0.920000 7.120000 6.840000 23.417889 -27.316967 1294.614258
0.920000 7.120000 6.880000 40.481258 -18.699282 1988.395508
0.920000 7.120000 6.920000 48.193493 3.701180 2336.311523
0.920000 7.120000 6.960000 36.688553 28.273670 2145.450439
0.920000 7.120000 7.000000 9.532494 38.330963 1560.131104
0.920000 7.120000 7.040000 -16.638733 25.988035 952.225464
0.920000 7.120000 7.080000 -24.850441 0.126427 617.560425
0.920000 7.120000 7.120000 -12.192239 -20.202845 556.805603
0.920000 7.120000 7.160000 7.807512 -21.923178 541.583008
0.920000 7.120000 7.200000 17.604675 -8.716465 385.901367
0.920000 7.160000 6.800000 15.926304 -5.809532 287.397827
0.920000 7.160000 6.840000 19.118351 -0.881340 366.288116
0.920000 7.160000 6.880000 18.028522 5.923086 360.110565
0.920000 7.160000 6.920000 12.294518 10.944199 270.930664
0.920000 7.160000 6.960000 4.254589 11.191321 143.347198
0.920000 7.160000 7.000000 -2.088329 6.101525 41.589729
0.920000 7.160000 7.040000 -3.277033 -1.660856 13.497387
0.920000 7.160000 7.080000 1.041248 -7.421360 56.160782
0.920000 7.160000 7.120000 7.287157 -7.752607 113.205566
0.920000 7.160000 7.160000 10.378640 -3.497925 119.951653
0.920000 7.160000 7.200000 8.066592 0.554394 65.377258
0.920000 7.200000 6.800000 5.822122 3.223463 44.287819
0.920000 7.200000 6.840000 1.012993 4.883011 24.869949
0.920000 7.200000 6.880000 -4.149853 0.622817 17.609179
0.920000 7.200000 6.920000 -3.681667 -7.466444 69.302460
0.920000 7.200000 6.960000 3.772106 -12.758821 177.016296
0.920000 7.200000 7.000000 13.153379 -10.297194 279.043579
0.920000 7.200000 7.040000 17.358391 -1.488605 303.529663
0.920000 7.200000 7.080000 13.401328 7.055691 229.378372
0.920000 7.200000 7.120000 4.782158 9.152803 106.642845
0.920000 7.200000 7.160000 -1.734301 3.896383 18.189602
0.920000 7.200000 7.200000 -1.534986 -4.173397 19.773428
0.960000 6.800000 6.800000 -11.322754 -5.415333 157.530579
0.960000 6.800000 6.840000 -3.509295 -0.563181 12.632321
0.960000 6.800000 6.880000 -5.328114 5.726217 61.178360
0.960000 6.800000 6.920000 -11.331665 3.731869 142.333481
0.960000 6.800000 6.960000 -10.054831 -5.360146 129.830780
0.960000 6.800000 7.000000 2.426739 -9.694630 99.874908
0.960000 6.800000 7.040000 16.285957 0.519463 265.502228
0.960000 6.800000 7.080000 16.750336 21.009953 721.991821
0.960000 6.800000 7.120000 -0.404232 35.617474 1268.767822
0.960000 6.800000 7.160000 -23.055500 31.508429 1524.337158
0.960000 6.800000 7.200000 -33.369236 12.130157 1260.646606
0.960000 6.840000 6.800000 -2.370589 -2.840225 13.686573
0.960000 6.840000 6.840000 -5.599163 17.380482 333.431763
0.960000 6.840000 6.880000 -29.821350 24.291725 1479.400879
0.960000 6.840000 6.920000 -52.306244 3.597874 2748.887695
0.960000 6.840000 6.960000 -47.763699 -31.134415 3250.722656
0.960000 6.840000 7.000000 -14.885868 -49.624233 2684.153564
0.960000 6.840000 7.040000 20.265343 -34.345608 1590.304810
0.960000 6.840000 7.080000 28.683199 1.664589 825.496765
0.960000 6.840000 7.120000 6.162867 27.248611 780.467773
0.960000 6.840000 7.160000 -23.753281 23.223057 1103.528687
0.960000 6.840000 7.200000 -34.051880 -0.546693 1159.829346
0.960000 6.880000 6.800000 -1.672462 7.987716 66.600739
0.960000 6.880000 6.840000 -29.420473 28.981520 1705.492676
0.960000 6.880000 6.880000 -72.171265 12.265671 5359.138184
0.960000 6.880000 6.920000 -87.193443 -42.049240 9370.834961
0.960000 6.880000 6.960000 -50.339607 -94.386696 11442.924805
0.960000 6.880000 7.000000 16.963051 -100.621185 10412.368164
0.960000 6.880000 7.040000 64.747261 -54.174072 7127.038086
0.960000 6.880000 7.080000 60.027428 7.149273 3654.404053
0.960000 6.880000 7.120000 15.766212 36.726650 1597.420166
0.960000 6.880000 7.160000 -24.726717 21.247643 1062.872803
0.960000 6.880000 7.200000 -30.484560 -11.891743 1070.721924
0.960000 6.920000 6.800000 -14.263405 14.187962 404.742981
0.960000 6.920000 6.840000 -61.100700 13.205799 3907.688721
0.960000 6.920000 6.880000 -95.788651 -39.224144 10713.999023
0.960000 6.920000 6.920000 -72.613678 -112.993065 18040.179688
0.960000 6.920000 6.960000 7.607388 -148.235489 22031.632812
0.960000 6.920000 7.000000 91.588768 -110.386917 20573.773438
0.960000 6.920000 7.040000 119.175545 -24.520967 14804.087891
0.960000 6.920000 7.080000 77.032272 46.198795 8068.299805
0.960000 6.920000 7.120000 7.928905 57.205097 3335.290527
0.960000 6.920000 7.160000 -31.895031 18.798481 1370.675903
0.960000 6.920000 7.200000 -23.398434 -21.301031 1001.220581
0.960000 6.960000 6.800000 -29.536459 3.681225 885.953796
0.960000 6.960000 6.840000 -71.272491 -28.927477 5916.566895
0.960000 6.960000 6.880000 -69.537720 -100.480217 14931.769531
0.960000 6.960000 6.920000 -1.101013 -156.005920 24339.060547
0.960000 6.960000 6.960000 97.583488 -140.940338 29386.716797
0.960000 6.960000 7.000000 156.707932 -54.387657 27515.392578
0.960000 6.960000 7.040000 134.335678 45.541763 20120.126953
0.960000 6.960000 7.080000 53.515488 91.785637 11288.510742
0.960000 6.960000 7.120000 -20.676964 65.783218 4754.968262
0.960000 6.960000 7.160000 -40.483505 7.623384 1697.030151
0.960000 6.960000 7.200000 -12.936993 -27.479580 922.493103
0.960000 7.000000 6.800000 -29.568714 -19.603010 1258.586914
0.960000 7.000000 6.840000 -42.984207 -69.042953 6614.571289
0.960000 7.000000 6.880000 -1.336006 -124.852448 15589.918945
0.960000 7.000000 6.920000 84.321442 -132.103653 24561.480469
0.960000 7.000000 6.960000 156.841370 -66.929893 29078.826172
0.960000 7.000000 7.000000 160.296463 35.448929 26951.582031
0.960000 7.000000 7.040000 90.537468 107.193375 19687.453125
0.960000 7.000000 7.080000 -0.345549 105.651337 11162.324219
0.960000 7.000000 7.120000 -50.367264 47.706333 4812.755859
0.960000 7.000000 7.160000 -39.866714 -10.893774 1708.029297
0.960000 7.000000 7.200000 -0.686928 -28.225986 797.178162
0.960000 7.040000 6.800000 -8.105096 -36.194088 1375.704590
0.960000 7.040000 6.840000 8.333321 -74.799103 5664.350098
0.960000 7.040000 6.880000 63.485725 -91.181686 12344.537109
0.960000 7.040000 6.920000 124.935448 -54.842796 18616.597656
0.960000 7.040000 6.960000 144.244598 24.081123 21386.404297
0.960000 7.040000 7.000000 99.736694 97.170715 19389.554688
0.960000 7.040000 7.040000 18.316017 116.741409 13964.033203
0.960000 7.040000 7.080000 -46.055088 76.067947 7907.403320
0.960000 7.040000 7.120000 -57.730499 13.001635 3501.853027
0.960000 7.040000 7.160000 -26.125439 -25.481926 1331.867188
0.960000 7.040000 7.200000 9.431042 -22.878956 612.391113
0.960000 7.080000 6.800000 20.226780 -29.405342 1273.796753
0.960000 7.080000 6.840000 45.626705 -40.712589 3739.311035
0.960000 7.080000 6.880000 80.922775 -25.051991 7176.097656
0.960000 7.080000 6.920000 98.318077 19.990265 10066.054688
0.960000 7.080000 6.960000 77.083466 71.009972 10984.277344
0.960000 7.080000 7.000000 23.700493 94.882843 9564.466797
0.960000 7.080000 7.040000 -30.522818 75.818169 6680.037109
0.960000 7.080000 7.080000 -53.940544 28.845192 3741.627441
0.960000 7.080000 7.120000 -39.514530 -13.115795 1733.422119
0.960000 7.080000 7.160000 -7.777371 -26.662819 771.393372
0.960000 7.080000 7.200000 13.659886 -14.619603 400.325317
0.960000 7.120000 6.800000 32.367981 -3.316933 1058.688232
0.960000 7.120000 6.840000 43.515301 5.127811 1919.875854
0.960000 7.120000 6.880000 47.256088 23.725941 2796.058105
0.960000 7.120000 6.920000 36.421253 44.321354 3290.890137
0.960000 7.120000 6.960000 12.315392 55.003464 3177.050049
0.960000 7.120000 7.000000 -14.683716 48.064865 2525.842773
0.960000 7.120000 7.040000 -31.269974 25.983973 1652.978027
0.960000 7.120000 7.080000 -30.164858 0.398392 910.077332
0.960000 7.120000 7.120000 -15.079021 -15.807013 477.238525
0.960000 7.120000 7.160000 2.536736 -17.303516 305.846710
0.960000 7.120000 7.200000 12.357222 -8.984930 233.429901
0.960000 7.160000 6.800000 19.700975 19.551851 770.403320
0.960000 7.160000 6.840000 11.567266 26.836918 854.021790
0.960000 7.160000 6.880000 -0.072716 26.025631 677.338806
0.960000 7.160000 6.920000 -7.258301 18.186012 383.413971
0.960000 7.160000 6.960000 -7.385941 10.118650 156.939209
0.960000 7.160000 7.000000 -4.722931 6.493538 64.472107
0.960000 7.160000 7.040000 -4.331793 5.488697 48.890224
0.960000 7.160000 7.080000 -6.010580 2.293686 41.388065
0.960000 7.160000 7.120000 -5.058317 -4.226680 43.451393
0.960000 7.160000 7.160000 1.501765 -9.650164 95.380951
0.960000 7.160000 7.200000 10.699061 -8.871471 193.172913
0.960000 7.200000 6.800000 -2.511971 20.158022 412.655853
0.960000 7.200000 6.840000 -16.147848 14.039869 457.870911
0.960000 7.200000 6.880000 -19.790661 -3.291809 402.506256
0.960000 7.200000 6.920000 -7.181456 -17.668926 363.764252
0.960000 7.200000 6.960000 11.972095 -15.975346 398.542725
0.960000 7.200000 7.000000 20.956352 0.013664 439.168884
0.960000 7.200000 7.040000 12.719813 14.882622 383.286072
0.960000 7.200000 7.080000 -3.133099 14.852196 230.404022
0.960000 7.200000 7.120000 -10.223629 1.214144 105.996735
0.960000 7.200000 7.160000 -1.627250 -11.674862 138.950348
0.960000 7.200000 7.200000 14.076960 -11.088519 321.116058
1.000000 6.800000 6.800000 -8.367597 -10.303364 176.175980
1.000000 6.800000 6.840000 -3.718267 0.490719 14.066318
1.000000 6.800000 6.880000 -11.207363 6.353378 165.970398
1.000000 6.800000 6.920000 -18.668053 -0.683624 348.963531
1.000000 6.800000 6.960000 -13.236818 -13.000923 344.237366
1.000000 6.800000 7.000000 4.048492 -14.801870 235.485657
1.000000 6.800000 7.040000 17.756767 1.008133 316.319122
1.000000 6.800000 7.080000 13.095428 24.006531 747.803772
1.000000 6.800000 7.120000 -8.696143 35.309982 1322.417725
1.000000 6.800000 7.160000 -30.650459 25.766396 1603.357910
1.000000 6.800000 7.200000 -36.130653 4.785781 1328.327759
1.000000 6.840000 6.800000 -4.321724 -2.656713 25.735424
1.000000 6.840000 6.840000 -20.526941 14.335150 626.851807
1.000000 6.840000 6.880000 -48.769264 4.561115 2399.244873
1.000000 6.840000 6.920000 -57.306503 -31.681217 4287.734863
1.000000 6.840000 6.960000 -29.295681 -64.791542 5056.180664
1.000000 6.840000 7.000000 17.778397 -63.227959 4313.846191
1.000000 6.840000 7.040000 46.569511 -24.861912 2786.834229
1.000000 6.840000 7.080000 34.872681 19.704899 1604.386963
1.000000 6.840000 7.120000 -3.828477 35.839378 1299.118286
1.000000 6.840000 7.160000 -34.637371 16.714413 1479.119019
1.000000 6.840000 7.200000 -35.109200 -13.188208 1406.584717
1.000000 6.880000 6.800000 -11.939444 4.104712 159.398972
1.000000 6.880000 6.840000 -50.530830 4.990044 2578.265381
1.000000 6.880000 6.880000 -78.709839 -38.954659 7712.704102
1.000000 6.880000 6.920000 -56.475883 -100.123306 13214.202148
1.000000 6.880000 6.960000 13.519234 -125.772942 16001.602539
1.000000 6.880000 7.000000 82.827209 -87.841560 14576.486328
1.000000 6.880000 7.040000 99.783020 -11.773716 10095.271484
1.000000 6.880000 7.080000 56.674335 45.602646 5291.581543
1.000000 6.880000 7.120000 -5.075066 47.727463 2303.666992
1.000000 6.880000 7.160000 -35.773415 8.475875 1351.577637
1.000000 6.880000 7.200000 -22.431271 -27.120489 1238.682861
1.000000 6.920000 6.800000 -24.682701 -2.361683 614.813293
1.000000 6.920000 6.840000 -65.212051 -33.703407 5388.531250
1.000000 6.920000 6.880000 -61.491219 -103.665543 14527.714844
1.000000 6.920000 6.920000 8.448471 -155.438995 24232.658203
1.000000 6.920000 6.960000 105.328880 -135.331238 29408.714844
1.000000 6.920000 7.000000 158.698792 -46.184647 27318.328125
1.000000 6.920000 7.040000 130.035309 50.911366 19501.148438
1.000000 6.920000 7.080000 47.309425 90.286446 10389.824219
1.000000 6.920000 7.120000 -22.737417 58.623833 3953.743652
1.000000 6.920000 7.160000 -35.936569 0.451651 1291.640991
1.000000 6.920000 7.200000 -5.090062 -29.630772 903.891357
1.000000 6.960000 6.800000 -26.224194 -22.169930 1179.214111
1.000000 6.960000 6.840000 -41.045441 -77.601105 7706.659668
1.000000 6.960000 6.880000 7.786434 -139.238098 19447.876953
1.000000 6.960000 6.920000 105.098694 -143.554779 31653.710938
1.000000 6.960000 6.960000 183.691376 -66.114044 38113.589844
1.000000 6.960000 7.000000 181.871368 49.181931 35496.058594
1.000000 6.960000 7.040000 99.945007 125.011719 25616.933594
1.000000 6.960000 7.080000 0.143253 117.676819 13847.854492
1.000000 6.960000 7.120000 -49.884514 51.805222 5172.246094
1.000000 6.960000 7.160000 -34.253868 -8.814633 1251.025269
1.000000 6.960000 7.200000 7.010880 -22.099712 537.549683
1.000000 7.000000 6.800000 -7.040844 -39.054726 1574.845093
1.000000 7.000000 6.840000 13.930468 -89.875175 8271.605469
1.000000 7.000000 6.880000 86.596291 -110.287193 19662.181641
1.000000 7.000000 6.920000 165.647339 -60.480377 31096.917969
1.000000 7.000000 6.960000 187.100693 42.988647 36854.691406
1.000000 7.000000 7.000000 126.136162 134.756454 34069.632812
1.000000 7.000000 7.040000 21.872715 155.319061 24602.427734
1.000000 7.000000 7.080000 -56.036907 101.445511 13431.326172
1.000000 7.000000 7.120000 -66.979980 24.683603 5095.598145
1.000000 7.000000 7.160000 -28.461845 -18.189047 1140.918091
1.000000 7.000000 7.200000 9.625709 -12.938538 260.060028
1.000000 7.040000 6.800000 22.787735 -34.287033 1694.881470
1.000000 7.040000 6.840000 61.927673 -55.322445 6895.609375
1.000000 7.040000 6.880000 118.732307 -32.282310 15139.507812
1.000000 7.040000 6.920000 146.521851 38.458260 22947.689453
1.000000 7.040000 6.960000 112.577133 117.450470 26468.224609
1.000000 7.040000 7.000000 30.006994 152.185883 24060.962891
1.000000 7.040000 7.040000 -50.560814 121.321014 17275.183594
1.000000 7.040000 7.080000 -82.829285 51.736328 9537.337891
1.000000 7.040000 7.120000 -61.139130 -6.846363 3784.865967
1.000000 7.040000 7.160000 -18.680687 -24.295698 939.249023
1.000000 7.040000 7.200000 7.072079 -9.644790 143.036255
1.000000 7.080000 6.800000 39.983837 -6.206715 1637.230591
1.000000 7.080000 6.840000 67.522842 2.569818 4565.938477
1.000000 7.080000 6.880000 84.311447 39.017185 8630.760742
1.000000 7.080000 6.920000 68.058807 86.050667 12036.718750
1.000000 7.080000 6.960000 18.836143 113.184616 13165.556641
1.000000 7.080000 7.000000 -38.307178 100.636795 11595.205078
1.000000 7.080000 7.040000 -72.018486 55.427887 8258.913086
1.000000 7.080000 7.080000 -68.359947 5.242420 4700.565430
1.000000 7.080000 7.120000 -38.994102 -23.811535 2087.529297
1.000000 7.080000 7.160000 -8.259549 -25.410473 713.912292
1.000000 7.080000 7.200000 7.277149 -12.446668 207.876434
1.000000 7.120000 6.800000 29.649307 25.318129 1520.089111
1.000000 7.120000 6.840000 30.054054 40.907131 2576.639648
1.000000 7.120000 6.880000 17.147303 56.466026 3482.442139
1.000000 7.120000 6.920000 -5.505051 61.766598 3845.418213
1.000000 7.120000 6.960000 -28.445709 52.773296 3594.179199
1.000000 7.120000 7.000000 -42.925102 32.877132 2923.470215
1.000000 7.120000 7.040000 -45.030743 9.335873 2114.926270
1.000000 7.120000 7.080000 -35.680450 -10.798473 1389.701660
1.000000 7.120000 7.120000 -18.811874 -22.566252 863.122314
1.000000 7.120000 7.160000 -0.082096 -23.647694 559.220154
1.000000 7.120000 7.200000 14.248606 -15.098932 431.000519
1.000000 7.160000 6.800000 0.734715 36.223118 1312.654053
1.000000 7.160000 6.840000 -15.958288 35.750710 1532.780273
1.000000 7.160000 6.880000 -27.747396 21.636063 1238.037231
1.000000 7.160000 6.920000 -25.308205 4.593744 661.607727
1.000000 7.160000 6.960000 -13.843513 -2.441551 197.604034
1.000000 7.160000 7.000000 -6.744349 1.478073 47.670948
1.000000 7.160000 7.040000 -10.121052 4.918835 126.630630
1.000000 7.160000 7.080000 -15.800234 -2.112483 254.109970
1.000000 7.160000 7.120000 -10.862267 -15.831953 368.639587
1.000000 7.160000 7.160000 6.904658 -21.931038 528.644714
1.000000 7.160000 7.200000 24.947283 -11.102466 745.631714
1.000000 7.200000 6.800000 -21.405804 21.230053 908.923584
1.000000 7.200000 6.840000 -33.428970 2.340971 1122.976196
1.000000 7.200000 6.880000 -24.070843 -22.068867 1066.440308
1.000000 7.200000 6.920000 2.523623 -29.628489 884.216003
1.000000 7.200000 6.960000 23.622051 -12.706951 719.467896
1.000000 7.200000 7.000000 20.842854 12.182552 582.839111
1.000000 7.200000 7.040000 -0.396412 20.603800 424.673706
1.000000 7.200000 7.080000 -16.080559 5.406011 287.809326
1.000000 7.200000 7.120000 -8.426893 -15.876582 323.078369
1.000000 7.200000 7.160000 15.777238 -19.312239 621.883789
1.000000 7.200000 7.200000 32.431328 0.743754 1052.344238
1.040000 6.800000 6.800000 -5.884230 -10.841305 152.158051
1.040000 6.800000 6.840000 -7.071766 -0.215130 50.056152
1.040000 6.800000 6.880000 -16.336351 0.617462 267.257629
1.040000 6.800000 6.920000 -19.759167 -9.966953 489.764832
1.040000 6.800000 6.960000 -9.162033 -20.049419 485.922058
1.040000 6.800000 7.000000 8.582634 -16.025692 330.484436
1.040000 6.800000 7.040000 17.377148 3.098141 311.563751
1.040000 6.800000 7.080000 7.439849 23.575350 611.148499
1.040000 6.800000 7.120000 -14.875098 29.379547 1084.426270
1.040000 6.800000 7.160000 -32.843403 17.016884 1368.263428
1.040000 6.800000 7.200000 -34.849373 -1.946428 1218.267334
1.040000 6.840000 6.800000 -9.391407 -6.140230 125.900955
1.040000 6.840000 6.840000 -29.966854 -2.717915 905.399414
1.040000 6.840000 6.880000 -45.953690 -26.467197 2812.254150
1.040000 6.840000 6.920000 -32.144730 -60.948162 4747.961914
1.040000 6.840000 6.960000 10.058487 -73.634361 5523.192383
1.040000 6.840000 7.000000 50.492580 -47.362545 4792.711426
1.040000 6.840000 7.040000 57.025444 1.355106 3253.737793
1.040000 6.840000 7.080000 25.509739 36.233589 1963.619629
1.040000 6.840000 7.120000 -16.788647 34.128857 1446.637451
1.040000 6.840000 7.160000 -37.281994 4.553322 1410.679810
1.040000 6.840000 7.200000 -27.264849 -22.448082 1247.288330
1.040000 6.880000 6.800000 -17.725082 -10.311371 420.502930
1.040000 6.880000 6.840000 -45.797356 -31.780342 3107.387939
1.040000 6.880000 6.880000 -41.313995 -81.666183 8376.211914
1.040000 6.880000 6.920000 11.800278 -116.983368 13824.354492
1.040000 6.880000 6.960000 83.012596 -97.947960 16484.894531
1.040000 6.880000 7.000000 119.068985 -28.406059 14984.327148
1.040000 6.880000 7.040000 92.381950 43.999348 10470.367188
1.040000 6.880000 7.080000 26.502062 69.755638 5568.208496
1.040000 6.880000 7.120000 -26.465729 40.761921 2361.968994
1.040000 6.880000 7.160000 -33.503239 -6.742032 1167.921997
1.040000 6.880000 7.200000 -6.415386 -30.130371 948.996399
1.040000 6.920000 6.800000 -18.606949 -25.172153 979.855835
1.040000 6.920000 6.840000 -29.474630 -71.680359 6006.827637
1.040000 6.920000 6.880000 14.854687 -122.277649 15172.485352
1.040000 6.920000 6.920000 99.368431 -121.485786 24632.880859
1.040000 6.920000 6.960000 164.173157 -50.151409 29467.990234
1.040000 6.920000 7.000000 156.794342 50.548393 27139.605469
1.040000 6.920000 7.040000 81.126587 112.481552 19233.623047
1.040000 6.920000 7.080000 -5.618736 100.251999 10082.033203
1.040000 6.920000 7.120000 -44.919678 39.465179 3575.277832
1.040000 6.920000 7.160000 -26.564440 -12.260043 855.978088
1.040000 6.920000 7.200000 10.948743 -20.058775 522.229431
1.040000 6.960000 6.800000 -2.898432 -39.065281 1534.497070
1.040000 6.960000 6.840000 19.367550 -88.393311 8188.479492
1.040000 6.960000 6.880000 92.907791 -105.564804 19775.785156
1.040000 6.960000 6.920000 169.922211 -51.642014 31540.457031
1.040000 6.960000 6.960000 186.127869 53.413380 37496.570312
1.040000 6.960000 7.000000 120.121521 141.872559 34557.000000
1.040000 6.960000 7.040000 15.382347 156.146637 24618.388672
1.040000 6.960000 7.080000 -57.651161 98.140945 12955.301758
1.040000 6.960000 7.120000 -62.471638 23.024078 4432.813477
1.040000 6.960000 7.160000 -21.987829 -14.007528 679.675476
1.040000 6.960000 7.200000 12.373441 -4.188682 170.647095
1.040000 7.000000 6.800000 23.446474 -35.726814 1826.142334
1.040000 7.000000 6.840000 69.570038 -60.405548 8488.820312
1.040000 7.000000 6.880000 136.195190 -31.886484 19565.878906
1.040000 7.000000 6.920000 166.407745 52.524124 30450.320312
1.040000 7.000000 6.960000 122.935852 143.420959 35682.796875
1.040000 7.000000 7.000000 25.263786 178.935394 32656.134766
1.040000 7.000000 7.040000 -64.675262 138.233612 23291.421875
1.040000 7.000000 7.080000 -95.316811 57.772980 12423.011719
1.040000 7.000000 7.120000 -66.258209 -3.944778 4405.711426
1.040000 7.000000 7.160000 -20.092607 -17.169209 698.494629
1.040000 7.000000 7.200000 2.176483 1.158302 6.078743
1.040000 7.040000 6.800000 41.281727 -10.622236 1817.012939
1.040000 7.040000 6.840000 83.047775 -1.995914 6900.916992
1.040000 7.040000 6.880000 110.906891 49.824673 14782.836914
1.040000 7.040000 6.920000 89.058380 118.872925 22062.167969
1.040000 7.040000 6.960000 17.991302 157.599518 25161.294922
1.040000 7.040000 7.000000 -62.391075 137.100143 22689.095703
1.040000 7.040000 7.040000 -105.235596 71.638893 16206.661133
1.040000 7.040000 7.080000 -94.336525 4.876200 8923.157227
1.040000 7.040000 7.120000 -52.545628 -27.644293 3525.250000
1.040000 7.040000 7.160000 -16.278019 -23.938633 838.032104
1.040000 7.040000 7.200000 -3.526642 -7.867506 74.334846
1.040000 7.080000 6.800000 34.650066 21.737171 1673.131714
1.040000 7.080000 6.840000 49.138367 45.996063 4530.216797
1.040000 7.080000 6.880000 37.832230 83.053375 8329.140625
1.040000 7.080000 6.920000 -3.036018 106.426849 11335.891602
1.040000 7.080000 6.960000 -53.884682 96.313530 12179.854492
1.040000 7.080000 7.000000 -86.977661 55.659847 10663.132812
1.040000 7.080000 7.040000 -87.543571 6.704250 7708.823730
1.040000 7.080000 7.080000 -62.310596 -27.236912 4624.459961
1.040000 7.080000 7.120000 -30.164322 -37.495171 2315.774170
1.040000 7.080000 7.160000 -6.182032 -30.914305 993.911743
1.040000 7.080000 7.200000 6.221561 -18.969290 398.541779
1.040000 7.120000 6.800000 6.538153 38.732010 1542.916016
1.040000 7.120000 6.840000 -4.785273 51.296921 2654.272949
1.040000 7.120000 6.880000 -26.113235 52.857365 3475.802002
1.040000 7.120000 6.920000 -45.257149 39.628185 3618.602539
1.040000 7.120000 6.960000 -53.230812 18.531021 3176.917969
1.040000 7.120000 7.000000 -50.240898 -1.341152 2525.946533
1.040000 7.120000 7.040000 -41.265717 -16.497452 1975.025269
1.040000 7.120000 7.080000 -28.620327 -27.958260 1600.787354
1.040000 7.120000 7.120000 -11.140566 -34.772099 1333.211060
1.040000 7.120000 7.160000 9.735077 -31.942163 1115.073486
1.040000 7.120000 7.200000 25.992298 -16.488895 947.483215
1.040000 7.160000 6.800000 -22.297100 29.772461 1383.560059
1.040000 7.160000 6.840000 -37.840828 18.008753 1756.243408
1.040000 7.160000 6.880000 -38.979935 -4.222876 1537.267944
1.040000 7.160000 6.920000 -23.205502 -19.050335 901.410522
1.040000 7.160000 6.960000 -5.560712 -16.119331 290.754364
1.040000 7.160000 7.000000 -1.847492 -4.402512 22.795336
1.040000 7.160000 7.040000 -10.498222 -1.922981 113.910522
1.040000 7.160000 7.080000 -14.045813 -14.586157 410.040833
1.040000 7.160000 7.120000 0.677887 -28.135448 792.062988
1.040000 7.160000 7.160000 25.999516 -23.117680 1210.401855
1.040000 7.160000 7.200000 39.491161 2.959958 1568.313232
1.040000 7.200000 6.800000 -31.688324 6.094123 1041.288208
1.040000 7.200000 6.840000 -31.891565 -19.596508 1401.095093
1.040000 7.200000 6.880000 -7.819900 -37.605064 1475.291748
1.040000 7.200000 6.920000 22.583527 -28.582870 1326.996094
1.040000 7.200000 6.960000 32.323814 0.586750 1045.173218
1.040000 7.200000 7.000000 14.199013 22.010506 686.074341
1.040000 7.200000 7.040000 -10.368364 15.674171 353.182617
1.040000 7.200000 7.080000 -13.326870 -8.883075 256.514496
1.040000 7.200000 7.120000 10.064341 -22.106285 589.978760
1.040000 7.200000 7.160000 35.603195 -5.683793 1299.893066
1.040000 7.200000 7.200000 35.240608 27.638828 2005.805420
1.080000 6.800000 6.800000 -6.853160 -11.723587 184.408295
1.080000 6.800000 6.840000 -9.577422 -5.824547 125.652359
1.080000 6.800000 6.880000 -15.014837 -8.326969 294.783752
1.080000 6.800000 6.920000 -13.478859 -16.932365 468.384644
1.080000 6.800000 6.960000 -2.102837 -21.606163 471.248230
1.080000 6.800000 7.000000 11.472893 -14.190849 333.007477
1.080000 6.800000 7.040000 15.456423 3.196056 249.115784
1.080000 6.800000 7.080000 4.613661 19.066326 384.810638
1.080000 6.800000 7.120000 -14.675556 22.180174 707.332031
1.080000 6.800000 7.160000 -29.725056 10.958738 1003.672852
1.080000 6.800000 7.200000 -32.079636 -5.848927 1063.312988
1.080000 6.840000 6.800000 -11.283462 -16.686356 405.750946
1.080000 6.840000 6.840000 -22.420460 -24.297777 1093.058960
1.080000 6.840000 6.880000 -19.669086 -46.142044 2515.961182
1.080000 6.840000 6.920000 6.338017 -62.016769 3886.250000
1.080000 6.840000 6.960000 41.902100 -51.502010 4408.243164
1.080000 6.840000 7.000000 60.384644 -14.888771 3867.980713
1.080000 6.840000 7.040000 46.141140 24.570206 2732.699951
1.080000 6.840000 7.080000 9.261576 40.257561 1706.447876
1.080000 6.840000 7.120000 -23.295242 25.065029 1170.924072
1.080000 6.840000 7.160000 -31.393513 -4.071952 1002.133423
1.080000 6.840000 7.200000 -17.428806 -23.358139 849.365967
1.080000 6.880000 6.800000 -9.233845 -28.455000 894.950928
1.080000 6.880000 6.840000 -12.668118 -54.651840 3147.304932
1.080000 6.880000 6.880000 16.753342 -82.554214 7095.872559
1.080000 6.880000 6.920000 69.623024 -78.208313 10963.905273
1.080000 6.880000 6.960000 108.635933 -30.190681 12713.243164
1.080000 6.880000 7.000000 101.127243 35.217079 11466.962891
1.080000 6.880000 7.040000 49.913078 74.676758 8067.933594
1.080000 6.880000 7.080000 -8.192957 65.403252 4344.709961
1.080000 6.880000 7.120000 -34.967072 23.623123 1780.748047
1.080000 6.880000 7.160000 -22.792704 -13.087654 690.794006
1.080000 6.880000 7.200000 3.957091 -20.748743 446.168915
1.080000 6.920000 6.800000 5.334100 -38.032196 1474.900513
1.080000 6.920000 6.840000 24.889809 -70.512802 5591.557617
1.080000 6.920000 6.880000 80.071014 -77.807549 12465.381836
1.080000 6.920000 6.920000 134.629944 -32.780514 19199.785156
1.080000 6.920000 6.960000 141.692520 47.597069 22342.250000
1.080000 6.920000 7.000000 87.721794 112.075699 20256.074219
1.080000 6.920000 7.040000 7.371735 118.974762 14209.336914
1.080000 6.920000 7.080000 -46.263927 72.140358 7344.582520
1.080000 6.920000 7.120000 -47.305336 14.598389 2450.907959
1.080000 6.920000 7.160000 -14.913203 -12.322460 374.246643
1.080000 6.920000 7.200000 11.329785 -3.441989 140.211319
1.080000 6.960000 6.800000 27.305382 -33.381195 1859.888062
1.080000 6.960000 6.840000 68.371216 -50.314369 7206.158691
1.080000 6.960000 6.880000 124.280159 -20.581936 15869.173828
1.080000 6.960000 6.920000 145.440765 55.526390 24236.195312
1.080000 6.960000 6.960000 101.961624 132.929352 28066.386719
1.080000 6.960000 7.000000 14.488718 158.645050 25378.175781
1.080000 6.960000 7.040000 -61.415154 118.311249 17769.373047
1.080000 6.960000 7.080000 -83.021370 47.368931 9136.363281
1.080000 6.960000 7.120000 -54.296677 -2.861477 2956.317139
1.080000 6.960000 7.160000 -15.065185 -9.794678 322.895508
1.080000 6.960000 7.200000 0.193437 7.792665 60.763054
1.080000 7.000000 6.800000 41.857445 -11.325947 1880.322754
1.080000 7.000000 6.840000 84.465393 -0.361886 7134.533691
1.080000 7.000000 6.880000 111.049301 55.011986 15358.265625
1.080000 7.000000 6.920000 84.859344 125.892815 23050.109375
1.080000 7.000000 6.960000 9.156356 162.072647 26351.380859
1.080000 7.000000 7.000000 -71.838776 135.972595 23649.355469
1.080000 7.000000 7.040000 -110.074417 66.794739 16577.914062
1.080000 7.000000 7.080000 -93.272346 2.109312 8704.179688
1.080000 7.000000 7.120000 -49.993523 -23.943962 3072.665527
1.080000 7.000000 7.160000 -18.515366 -15.216299 574.354492
1.080000 7.000000 7.200000 -12.733870 -0.320754 162.254318
1.080000 7.040000 6.800000 36.372040 16.964123 1610.706787
1.080000 7.040000 6.840000 58.101196 46.611626 5548.392578
1.080000 7.040000 6.880000 46.526333 95.751465 11333.042969
1.080000 7.040000 6.920000 -5.642063 127.888214 16387.228516
1.080000 7.040000 6.960000 -71.433144 114.629440 18242.601562
1.080000 7.040000 7.000000 -111.553818 60.880371 16150.673828
1.080000 7.040000 7.040000 -106.893143 -0.213074 11426.188477
1.080000 7.040000 7.080000 -71.113029 -36.283543 6373.558594
1.080000 7.040000 7.120000 -33.820961 -40.098938 2751.782227
1.080000 7.040000 7.160000 -13.680471 -27.992710 970.747070
1.080000 7.040000 7.200000 -7.667837 -18.497284 400.945221
1.080000 7.080000 6.800000 12.294320 33.619381 1281.413086
1.080000 7.080000 6.840000 7.488565 58.480423 3476.038574
1.080000 7.080000 6.880000 -21.922379 75.800575 6226.317871
1.080000 7.080000 6.920000 -61.251022 66.788986 8212.456055
1.080000 7.080000 6.960000 -86.720093 32.357574 8567.386719
1.080000 7.080000 7.000000 -85.329079 -8.988174 7361.838867
1.080000 7.080000 7.040000 -62.839542 -37.873863 5383.237793
1.080000 7.080000 7.080000 -34.667641 -47.920998 3498.267578
1.080000 7.080000 7.120000 -11.667635 -44.952309 2156.843750
1.080000 7.080000 7.160000 4.739972 -36.325951 1342.041992
1.080000 7.080000 7.200000 16.324484 -24.029974 843.928406
1.080000 7.120000 6.800000 -14.919502 28.865589 1055.813721
1.080000 7.120000 6.840000 -31.108124 31.409101 1954.247070
1.080000 7.120000 6.880000 -47.349182 18.543194 2585.795166
1.080000 7.120000 6.920000 -50.962864 -3.120476 2606.950684
1.080000 7.120000 6.960000 -41.483223 -20.599976 2145.216797
1.080000 7.120000 7.000000 -28.375698 -28.397873 1611.619385
1.080000 7.120000 7.040000 -18.316795 -31.682207 1339.267334
1.080000 7.120000 7.080000 -8.076868 -36.168465 1373.393677
1.080000 7.120000 7.120000 8.523664 -38.257172 1536.264038
1.080000 7.120000 7.160000 28.607262 -28.411821 1625.606934
1.080000 7.120000 7.200000 39.056366 -4.552772 1546.127563
1.080000 7.160000 6.800000 -28.605284 9.234720 903.542358
1.080000 7.160000 6.840000 -34.857376 -8.350702 1284.770874
1.080000 7.160000 6.880000 -23.138805 -27.170992 1273.667114
1.080000 7.160000 6.920000 -0.946136 -29.943127 897.486023
1.080000 7.160000 6.960000 12.310757 -15.878433 403.679382
1.080000 7.160000 7.000000 7.436394 -2.422800 61.169914
1.080000 7.160000 7.040000 -3.322578 -5.433662 40.564217
1.080000 7.160000 7.080000 0.161240 -19.938656 397.575989
1.080000 7.160000 7.120000 21.875351 -24.261166 1067.135132
1.080000 7.160000 7.160000 42.562958 -4.292014 1830.026733
1.080000 7.160000 7.200000 38.988300 28.633167 2339.945801
1.080000 7.200000 6.800000 -24.767754 -8.870661 692.130188
1.080000 7.200000 6.840000 -12.150281 -29.789564 1035.047485
1.080000 7.200000 6.880000 16.649632 -32.020477 1302.521118
1.080000 7.200000 6.920000 36.584789 -8.712765 1414.359009
1.080000 7.200000 6.960000 28.884811 20.031713 1235.601807
1.080000 7.200000 7.000000 2.848263 27.192408 747.539612
1.080000 7.200000 7.040000 -12.554887 8.340289 227.185608
1.080000 7.200000 7.080000 0.256314 -12.298547 151.319962
1.080000 7.200000 7.120000 27.396545 -7.372837 804.929382
1.080000 7.200000 7.160000 37.245552 23.377968 1933.760498
1.080000 7.200000 7.200000 14.227551 51.265713 2830.596436
1.120000 6.800000 6.800000 -7.533282 -16.961952 344.458160
1.120000 6.800000 6.840000 -6.117510 -13.466544 218.771729
1.120000 6.800000 6.880000 -7.183453 -13.480035 233.313324
1.120000 6.800000 6.920000 -5.378414 -17.102589 321.425873
1.120000 6.800000 6.960000 2.264633 -19.080767 369.204224
1.120000 6.800000 7.000000 12.182796 -13.269413 324.497864
1.120000 6.800000 7.040000 15.989002 0.790993 256.273865
1.120000 6.800000 7.080000 7.596205 15.499418 297.934296
1.120000 6.800000 7.120000 -10.283808 20.259401 516.200012
1.120000 6.800000 7.160000 -26.785622 10.358382 824.765625
1.120000 6.800000 7.200000 -31.023319 -8.346819 1032.115723
1.120000 6.840000 6.800000 -2.788253 -28.857058 840.504150
1.120000 6.840000 6.840000 0.233639 -33.961170 1153.415649
1.120000 6.840000 6.880000 11.566380 -40.009739 1734.560303
1.120000 6.840000 6.920000 30.512627 -36.721504 2279.489258
1.120000 6.840000 6.960000 46.295105 -18.216255 2475.068848
1.120000 6.840000 7.000000 46.178989 9.420750 2221.249512
1.120000 6.840000 7.040000 26.873203 30.987141 1682.371948
1.120000 6.840000 7.080000 -1.316992 33.776344 1142.575928
1.120000 6.840000 7.120000 -21.903931 17.728989 794.099243
1.120000 6.840000 7.160000 -24.784031 -4.853292 637.802612
1.120000 6.840000 7.200000 -12.970719 -19.562523 550.931885
1.120000 6.880000 6.800000 13.124401 -35.962738 1465.568359
1.120000 6.880000 6.840000 27.053823 -45.240425 2778.605469
1.120000 6.880000 6.880000 54.142235 -42.021904 4697.222168
1.120000 6.880000 6.920000 78.442368 -15.320292 6387.916504
1.120000 6.880000 6.960000 79.218796 26.799847 6993.849609
1.120000 6.880000 7.000000 50.128849 60.714447 6199.145508
1.120000 6.880000 7.040000 6.828667 66.109108 4417.044922
1.120000 6.880000 7.080000 -25.020748 42.917187 2467.922852
1.120000 6.880000 7.120000 -30.414665 10.521946 1035.763184
1.120000 6.880000 7.160000 -15.290174 -9.504192 324.119080
1.120000 6.880000 7.200000 2.041779 -10.450628 113.384491
1.120000 6.920000 6.800000 33.312248 -28.740280 1935.709717
1.120000 6.920000 6.840000 59.543694 -30.049360 4448.415527
1.120000 6.920000 6.880000 89.369995 -4.447388 8006.775391
1.120000 6.920000 6.920000 95.393265 44.853138 11111.678711
1.120000 6.920000 6.960000 63.204041 90.609192 12204.776367
1.120000 6.920000 7.000000 7.245955 103.218636 10706.590820
1.120000 6.920000 7.040000 -39.491184 76.353943 7389.478516
1.120000 6.920000 7.080000 -52.806915 31.970224 3810.665527
1.120000 6.920000 7.120000 -35.787868 0.239970 1280.829102
1.120000 6.920000 7.160000 -11.894809 -5.699923 173.975601
1.120000 6.920000 7.200000 -1.310432 3.485620 13.866776
1.120000 6.960000 6.800000 44.275303 -7.030277 2009.727295
1.120000 6.960000 6.840000 72.183380 8.763320 5287.236328
1.120000 6.960000 6.880000 84.120934 53.077408 9893.542969
1.120000 6.960000 6.920000 57.400879 102.813766 13865.531250
1.120000 6.960000 6.960000 -1.310861 123.294533 15203.260742
1.120000 6.960000 7.000000 -58.627644 98.908791 13220.150391
1.120000 6.960000 7.040000 -82.264069 47.135490 8989.130859
1.120000 6.960000 7.080000 -67.396805 2.481845 4548.488770
1.120000 6.960000 7.120000 -36.878277 -13.368915 1538.735229
1.120000 6.960000 7.160000 -17.175257 -6.399277 335.940186
1.120000 6.960000 7.200000 -15.241418 2.072989 236.598099
1.120000 7.000000 6.800000 36.954414 17.571657 1674.391846
1.120000 7.000000 6.840000 51.524445 46.804726 4845.450684
1.120000 7.000000 6.880000 35.666862 89.315323 9249.352539
1.120000 7.000000 6.920000 -13.673015 112.956688 12946.164062
1.120000 7.000000 6.960000 -70.222687 95.657082 14081.502930
1.120000 7.000000 7.000000 -100.145042 45.961937 12141.529297
1.120000 7.000000 7.040000 -90.717377 -4.785019 8252.539062
1.120000 7.000000 7.080000 -58.378006 -30.158363 4317.518555
1.120000 7.000000 7.120000 -30.205866 -28.729786 1737.794922
1.120000 7.000000 7.160000 -19.180586 -18.680492 716.855652
1.120000 7.000000 7.200000 -17.522970 -15.757280 555.346375
1.120000 7.040000 6.800000 15.130258 30.281195 1145.875488
1.120000 7.040000 6.840000 9.992962 57.860043 3447.643799
1.120000 7.040000 6.880000 -22.592407 77.525848 6520.674316
1.120000 7.040000 6.920000 -66.387650 67.297035 8936.210938
1.120000 7.040000 6.960000 -93.395851 28.189194 9517.416016
1.120000 7.040000 7.000000 -88.492882 -16.902567 8116.687012
1.120000 7.040000 7.040000 -60.638481 -44.161549 5627.267578
1.120000 7.040000 7.080000 -31.229431 -47.896660 3269.367432
1.120000 7.040000 7.120000 -13.696157 -39.913197 1780.647949
1.120000 7.040000 7.160000 -5.349321 -33.184006 1129.793457
1.120000 7.040000 7.200000 2.877670 -29.035343 851.332153
1.120000 7.080000 6.800000 -7.327015 25.203793 688.916321
1.120000 7.080000 6.840000 -23.867960 36.669151 1914.306152
1.120000 7.080000 6.880000 -49.663322 29.798866 3354.417969
1.120000 7.080000 6.920000 -65.295082 3.615379 4276.518555
1.120000 7.080000 6.960000 -59.803246 -26.611881 4284.620605
1.120000 7.080000 7.000000 -39.260887 -44.845634 3552.548340
1.120000 7.080000 7.040000 -17.781548 -47.975533 2617.834961
1.120000 7.080000 7.080000 -2.823252 -44.025368 1946.203735
1.120000 7.080000 7.120000 8.737255 -39.543270 1640.009766
1.120000 7.080000 7.160000 21.311146 -32.201443 1491.097778
1.120000 7.080000 7.200000 31.235256 -16.844139 1259.366211
1.120000 7.120000 6.800000 -18.218279 9.508882 422.324524
1.120000 7.120000 6.840000 -30.065001 2.685100 911.114014
1.120000 7.120000 6.880000 -32.785297 -14.678722 1290.340576
1.120000 7.120000 6.920000 -21.549847 -29.459538 1332.260254
1.120000 7.120000 6.960000 -5.564259 -32.107124 1061.828369
1.120000 7.120000 7.000000 3.793060 -26.712025 727.919617
1.120000 7.120000 7.040000 6.515896 -24.126129 624.527039
1.120000 7.120000 7.080000 12.638535 -26.940266 885.510498
1.120000 7.120000 7.120000 27.556206 -25.118753 1390.296265
1.120000 7.120000 7.160000 42.023884 -8.528638 1838.744507
1.120000 7.120000 7.200000 40.253273 18.014454 1944.846436
1.120000 7.160000 6.800000 -16.597202 -4.190160 293.024567
1.120000 7.160000 6.840000 -13.019779 -18.689274 518.803589
1.120000 7.160000 6.880000 4.170524 -25.769098 681.439697
1.120000 7.160000 6.920000 21.048584 -15.925739 696.672058
1.120000 7.160000 6.960000 22.435671 1.703915 506.262634
1.120000 7.160000 7.000000 10.382223 8.848659 186.089325
1.120000 7.160000 7.040000 3.065372 -0.284451 9.477420
1.120000 7.160000 7.080000 13.806131 -10.631592 303.640015
1.120000 7.160000 7.120000 33.755085 -2.418753 1145.256104
1.120000 7.160000 7.160000 39.278763 25.093742 2172.517090
1.120000 7.160000 7.200000 17.726238 49.500851 2764.553711
1.120000 7.200000 6.800000 -11.254061 -9.532260 217.517868
1.120000 7.200000 6.840000 6.032334 -18.571169 381.277374
1.120000 7.200000 6.880000 26.568413 -7.257764 758.555664
1.120000 7.200000 6.920000 29.168560 17.896772 1171.099365
1.120000 7.200000 6.960000 9.943413 33.603764 1228.084351
1.120000 7.200000 7.000000 -11.155750 25.201385 759.560547
1.120000 7.200000 7.040000 -11.229422 4.416820 145.608200
1.120000 7.200000 7.080000 9.356222 -2.041312 91.705849
1.120000 7.200000 7.120000 25.441254 17.892134 967.385864
1.120000 7.200000 7.160000 13.752504 46.382805 2340.495850
1.120000 7.200000 7.200000 -20.507618 53.060844 3236.015625
1.160000 6.800000 6.800000 -2.473511 -24.063488 585.169678
1.160000 6.800000 6.840000 2.947962 -16.601002 284.283752
1.160000 6.800000 6.880000 0.860273 -11.341325 129.365707
1.160000 6.800000 6.920000 -1.688501 -13.276947 179.128357
1.160000 6.800000 6.960000 3.201111 -17.784142 326.522797
1.160000 6.800000 7.000000 14.504936 -14.674772 425.742126
1.160000 6.800000 7.040000 21.182140 0.333651 448.794403
1.160000 6.800000 7.080000 12.590067 18.605320 504.667725
1.160000 6.800000 7.120000 -9.358236 24.716084 698.461365
1.160000 6.800000 7.160000 -29.332518 11.053814 982.583435
1.160000 6.800000 7.200000 -31.411518 -13.474366 1168.242065
1.160000 6.840000 6.800000 14.614365 -32.003536 1237.805908
1.160000 6.840000 6.840000 22.311909 -23.814487 1064.951050
1.160000 6.840000 6.880000 25.556173 -15.618198 897.046082
1.160000 6.840000 6.920000 27.512136 -8.418505 827.788879
1.160000 6.840000 6.960000 29.135983 0.522400 849.178345
1.160000 6.840000 7.000000 26.710968 12.875044 879.242554
1.160000 6.840000 7.040000 15.637981 24.588589 849.145142
1.160000 6.840000 7.080000 -2.886478 27.434631 760.990784
1.160000 6.840000 7.120000 -19.794235 16.592014 667.106689
1.160000 6.840000 7.160000 -24.359255 -3.062312 602.751038
1.160000 6.840000 7.200000 -13.597473 -19.107679 549.994690
1.160000 6.880000 6.800000 35.589596 -24.163239 1850.481445
1.160000 6.880000 6.840000 45.172569 -11.280418 2167.808838
1.160000 6.880000 6.880000 48.403343 6.016301 2379.079346
1.160000 6.880000 6.920000 43.001762 24.087547 2429.361572
1.160000 6.880000 6.960000 29.071552 38.015457 2290.330078
1.160000 6.880000 7.000000 9.796610 43.317390 1972.369873
1.160000 6.880000 7.040000 -9.118149 38.037998 1530.029907
1.160000 6.880000 7.080000 -21.536478 24.192879 1049.115234
1.160000 6.880000 7.120000 -23.768696 7.424789 620.078430
1.160000 6.880000 7.160000 -16.654966 -5.485912 307.483154
1.160000 6.880000 7.200000 -5.223989 -10.132042 129.948334
1.160000 6.920000 6.800000 45.828346 -1.580984 2102.736816
1.160000 6.920000 6.840000 52.246037 18.322744 3065.371338
1.160000 6.920000 6.880000 45.600861 42.918442 3921.431152
1.160000 6.920000 6.920000 23.979988 61.185596 4318.717285
1.160000 6.920000 6.960000 -4.856876 63.592857 4067.640869
1.160000 6.920000 7.000000 -28.316856 49.588585 3260.872070
1.160000 6.920000 7.040000 -37.932907 27.845135 2214.256836
1.160000 6.920000 7.080000 -34.500751 9.219663 1275.304077
1.160000 6.920000 7.120000 -25.313744 -0.876160 641.553284
1.160000 6.920000 7.160000 -17.062361 -4.172999 308.538055
1.160000 6.920000 7.200000 -11.341548 -4.999161 153.622314
1.160000 6.960000 6.800000 36.793350 22.355373 1853.513306
1.160000 6.960000 6.840000 33.891121 45.766426 3243.173828
1.160000 6.960000 6.880000 12.663467 66.821304 4625.450195
1.160000 6.960000 6.920000 -20.659199 70.348320 5375.688477
1.160000 6.960000 6.960000 -49.121868 51.978745 5114.748047
1.160000 6.960000 7.000000 -58.890625 22.562313 3977.163574
1.160000 6.960000 7.040000 -50.212559 -1.299566 2522.989990
1.160000 6.960000 7.080000 -35.107269 -11.110407 1355.961548
1.160000 6.960000 7.120000 -24.981480 -11.288695 751.508972
1.160000 6.960000 7.160000 -21.091679 -11.370093 574.137939
1.160000 6.960000 7.200000 -16.781200 -14.916078 504.098022
1.160000 7.000000 6.800000 14.427029 32.356213 1255.063599
1.160000 7.000000 6.840000 0.956838 51.033531 2605.336914
1.160000 7.000000 6.880000 -28.110153 57.113464 4052.128418
1.160000 7.000000 6.920000 -57.023308 40.623402 4901.918457
1.160000 7.000000 6.960000 -68.007980 9.250534 4710.657715
1.160000 7.000000 7.000000 -57.278568 -18.346273 3617.420166
1.160000 7.000000 7.040000 -37.118347 -29.494762 2247.712891
1.160000 7.000000 7.080000 -22.657204 -27.261555 1256.541260
1.160000 7.000000 7.120000 -17.755600 -23.890112 885.998779
1.160000 7.000000 7.160000 -14.395302 -26.211559 894.270569
1.160000 7.000000 7.200000 -4.727286 -29.142757 871.647522
1.160000 7.040000 6.800000 -5.580626 24.469810 629.914978
1.160000 7.040000 6.840000 -23.578529 31.553251 1551.554688
1.160000 7.040000 6.880000 -46.396091 20.973808 2592.498047
1.160000 7.040000 6.920000 -56.560280 -5.127863 3225.360107
1.160000 7.040000 6.960000 -46.617634 -30.658831 3113.167725
1.160000 7.040000 7.000000 -25.793844 -41.387890 2378.279785
1.160000 7.040000 7.040000 -9.406767 -37.788311 1516.443726
1.160000 7.040000 7.080000 -3.312147 -31.607626 1010.012329
1.160000 7.040000 7.120000 -0.350933 -31.192856 973.117432
1.160000 7.040000 7.160000 8.386662 -32.541954 1129.314819
1.160000 7.040000 7.200000 21.310951 -25.760323 1117.750854
1.160000 7.080000 6.800000 -11.883060 8.922445 220.817139
1.160000 7.080000 6.840000 -25.031523 4.447978 646.361633
1.160000 7.080000 6.880000 -31.421082 -12.588120 1145.745117
1.160000 7.080000 6.920000 -22.706730 -30.521627 1447.165283
1.160000 7.080000 6.960000 -5.132104 -36.770096 1378.378418
1.160000 7.080000 7.000000 8.151623 -31.031466 1029.400757
1.160000 7.080000 7.040000 11.855175 -23.874233 710.524170
1.160000 7.080000 7.080000 13.120320 -23.025223 702.303711
1.160000 7.080000 7.120000 20.890383 -23.955910 1010.293701
1.160000 7.080000 7.160000 33.121529 -16.068558 1355.234131
1.160000 7.080000 7.200000 37.534451 2.818784 1416.780518
1.160000 7.120000 6.800000 -7.085412 -0.616217 50.582787
1.160000 7.120000 6.840000 -9.401109 -9.937218 187.129150
1.160000 7.120000 6.880000 -0.964502 -19.648476 386.992859
1.160000 7.120000 6.920000 12.939869 -19.184444 535.483093
1.160000 7.120000 6.960000 20.375137 -9.295835 501.558777
1.160000 7.120000 7.000000 17.473419 -1.289862 306.984131
1.160000 7.120000 7.040000 13.462435 -2.865373 189.447510
1.160000 7.120000 7.080000 19.173649 -7.683627 426.666931
1.160000 7.120000 7.120000 32.297001 -2.123933 1047.607422
1.160000 7.120000 7.160000 37.618210 17.548050 1723.063843
1.160000 7.120000 7.200000 23.687241 37.816521 1991.174561
1.160000 7.160000 6.800000 -3.170444 -0.546493 10.350369
1.160000 7.160000 6.840000 4.591247 -6.767345 66.876503
1.160000 7.160000 6.880000 17.120802 -2.552278 299.635986
1.160000 7.160000 6.920000 21.232311 11.614943 585.717896
1.160000 7.160000 6.960000 11.797199 22.387569 640.377197
1.160000 7.160000 7.000000 -0.285933 18.952902 359.294250
1.160000 7.160000 7.040000 0.311365 7.312347 53.567371
1.160000 7.160000 7.080000 14.442511 5.252964 236.179749
1.160000 7.160000 7.120000 24.855968 21.856770 1095.537598
1.160000 7.160000 7.160000 14.188598 44.563889 2187.256592
1.160000 7.160000 7.200000 -14.271744 50.237267 2727.465576
1.160000 7.200000 6.800000 -7.612522 0.255431 58.015732
1.160000 7.200000 6.840000 5.155414 1.120081 27.832870
1.160000 7.200000 6.880000 11.815357 15.413004 377.163330
1.160000 7.200000 6.920000 2.090371 30.148788 913.319092
1.160000 7.200000 6.960000 -15.924823 29.391546 1117.462891
1.160000 7.200000 7.000000 -23.123474 13.724429 723.055054
1.160000 7.200000 7.040000 -11.362803 1.822292 132.434036
1.160000 7.200000 7.080000 5.096097 10.132282 128.633347
1.160000 7.200000 7.120000 3.674476 32.638985 1078.805176
1.160000 7.200000 7.160000 -20.817030 44.765465 2437.295410
1.160000 7.200000 7.200000 -47.688065 29.351837 3135.681885
1.200000 6.800000 6.800000 8.226527 -26.348593 761.924072
1.200000 6.800000 6.840000 11.268061 -12.341449 279.280548
1.200000 6.800000 6.880000 3.156340 -5.963410 45.524746
1.200000 6.800000 6.920000 -2.292353 -12.112732 151.973160
1.200000 6.800000 6.960000 5.604086 -20.063705 433.958069
1.200000 6.800000 7.000000 21.363468 -14.547089 668.015564
1.200000 6.800000 7.040000 27.269737 6.671105 788.142212
1.200000 6.800000 7.080000 11.672632 27.611427 898.641235
1.200000 6.800000 7.120000 -16.907040 28.405560 1092.723755
1.200000 6.800000 7.160000 -35.585945 5.513619 1296.759521
1.200000 6.800000 7.200000 -28.290108 -22.962322 1327.598389
1.200000 6.840000 6.800000 29.869473 -21.393196 1349.854248
1.200000 6.840000 6.840000 28.400547 -2.924010 815.140930
1.200000 6.840000 6.880000 17.017002 4.959471 314.174713
1.200000 6.840000 6.920000 9.787895 1.209047 97.264687
1.200000 6.840000 6.960000 13.476992 -2.473214 187.746094
1.200000 6.840000 7.000000 20.082668 4.763178 426.001434
1.200000 6.840000 7.040000 15.757208 19.774490 639.320068
1.200000 6.840000 7.080000 -2.979083 27.444139 762.055725
1.200000 6.840000 7.120000 -23.298901 16.504135 815.225220
1.200000 6.840000 7.160000 -27.646664 -7.257837 817.014221
1.200000 6.840000 7.200000 -11.405172 -24.846960 747.449341
1.200000 6.880000 6.800000 42.154991 -0.140263 1777.062988
1.200000 6.880000 6.840000 32.426975 19.775425 1442.576172
1.200000 6.880000 6.880000 14.815830 25.911074 890.892578
1.200000 6.880000 6.920000 3.034253 19.831297 402.487030
1.200000 6.880000 6.960000 2.023199 13.113018 176.044586
1.200000 6.880000 7.000000 4.283009 14.433164 226.660370
1.200000 6.880000 7.040000 -0.541840 20.436834 417.957764
1.200000 6.880000 7.080000 -13.287609 20.076889 579.642029
1.200000 6.880000 7.120000 -23.536469 7.619515 612.022339
1.200000 6.880000 7.160000 -20.514521 -9.805655 516.996460
1.200000 6.880000 7.200000 -5.010306 -18.380724 362.954193
1.200000 6.920000 6.800000 34.662552 24.329720 1793.427734
1.200000 6.920000 6.840000 15.896723 39.443855 1808.523560
1.200000 6.920000 6.880000 -6.554904 37.726555 1466.259766
1.200000 6.920000 6.920000 -18.986816 23.668026 920.674683
1.200000 6.920000 6.960000 -17.784708 10.355419 423.530548
1.200000 6.920000 7.000000 -11.448437 6.802961 177.346970
1.200000 6.920000 7.040000 -10.796505 10.095264 218.478882
1.200000 6.920000 7.080000 -17.658894 10.000978 411.856079
1.200000 6.920000 7.120000 -23.625675 0.808522 558.826233
1.200000 6.920000 7.160000 -19.695354 -12.179390 536.244507
1.200000 6.920000 7.200000 -6.366122 -18.007671 364.803711
1.200000 6.960000 6.800000 12.136375 35.055866 1376.205444
1.200000 6.960000 6.840000 -10.965863 39.504883 1680.885864
1.200000 6.960000 6.880000 -31.068325 26.568054 1671.102295
1.200000 6.960000 6.920000 -35.756844 5.136693 1304.937500
1.200000 6.960000 6.960000 -25.437441 -9.557072 738.401001
1.200000 6.960000 7.000000 -12.662104 -9.903385 258.405914
1.200000 6.960000 7.040000 -9.666739 -2.393334 99.173904
1.200000 6.960000 7.080000 -16.616636 -0.081339 276.119232
1.200000 6.960000 7.120000 -22.390608 -8.838371 579.456116
1.200000 6.960000 7.160000 -16.785789 -21.430975 741.049438
1.200000 6.960000 7.200000 -1.431472 -25.236881 638.949280
1.200000 7.000000 6.800000 -8.534414 26.203793 759.474976
1.200000 7.000000 6.840000 -27.736034 19.315838 1142.389160
1.200000 7.000000 6.880000 -37.190338 -0.862597 1383.865234
1.200000 7.000000 6.920000 -29.225529 -21.193855 1303.311035
1.200000 7.000000 6.960000 -11.086497 -27.632999 886.493042
1.200000 7.000000 7.000000 1.430435 -18.962109 361.607697
1.200000 7.000000 7.040000 -0.549466 -7.906670 62.817337
1.200000 7.000000 7.080000 -10.350420 -8.015575 171.380646
1.200000 7.000000 7.120000 -13.138290 -19.668736 559.473816
1.200000 7.000000 7.160000 -1.715473 -29.855721 894.306946
1.200000 7.000000 7.200000 15.733910 -25.861311 916.363342
1.200000 7.040000 6.800000 -13.498631 8.539814 255.141449
1.200000 7.040000 6.840000 -22.618879 -4.007059 527.670227
1.200000 7.040000 6.880000 -18.979866 -21.857588 837.989502
1.200000 7.040000 6.920000 -2.637347 -31.242809 983.068787
1.200000 7.040000 6.960000 13.655466 -24.950010 808.974731
1.200000 7.040000 7.000000 16.955509 -10.712234 402.241272
1.200000 7.040000 7.040000 7.797409 -3.675462 74.308601
1.200000 7.040000 7.080000 -0.192698 -10.406959 108.341919
1.200000 7.040000 7.120000 5.091553 -21.693731 496.541901
1.200000 7.040000 7.160000 20.899801 -22.265903 932.572144
1.200000 7.040000 7.200000 32.039585 -7.269877 1079.386108
1.200000 7.080000 6.800000 -4.792842 -1.224606 24.470997
1.200000 7.080000 6.840000 -3.917238 -11.582114 149.490128
1.200000 7.080000 6.880000 7.087685 -19.100414 415.061096
1.200000 7.080000 6.920000 21.062262 -14.861084 664.470703
1.200000 7.080000 6.960000 25.854929 -1.527644 670.811035
1.200000 7.080000 7.000000 18.151201 8.173533 396.272736
1.200000 7.080000 7.040000 8.190639 5.259126 94.744980
1.200000 7.080000 7.080000 8.954618 -4.865582 103.859070
1.200000 7.080000 7.120000 21.291464 -7.605414 511.168762
1.200000 7.080000 7.160000 31.894205 4.666840 1039.019653
1.200000 7.080000 7.200000 27.205242 23.270393 1281.636475
1.200000 7.120000 6.800000 2.572010 2.751549 14.186260
1.200000 7.120000 6.840000 8.349639 -1.145938 71.029640
1.200000 7.120000 6.880000 17.638590 2.297066 316.396362
1.200000 7.120000 6.920000 20.809792 13.497169 615.221008
1.200000 7.120000 6.960000 13.116358 22.683157 686.564453
1.200000 7.120000 7.000000 2.114234 20.588280 428.347229
1.200000 7.120000 7.040000 0.396310 10.347517 107.228165
1.200000 7.120000 7.080000 10.737724 5.693539 147.715103
1.200000 7.120000 7.120000 21.080872 15.821355 694.718384
1.200000 7.120000 7.160000 16.678038 33.577744 1405.621826
1.200000 7.120000 7.200000 -3.069497 41.403969 1723.710327
1.200000 7.160000 6.800000 -2.970303 9.709115 103.089615
1.200000 7.160000 6.840000 2.899063 11.210873 134.088226
1.200000 7.160000 6.880000 5.287492 19.867388 422.670685
1.200000 7.160000 6.920000 -2.108624 28.223589 801.017273
1.200000 7.160000 6.960000 -14.170981 26.278042 891.352173
1.200000 7.160000 7.000000 -18.215662 14.631997 545.905640
1.200000 7.160000 7.040000 -8.816413 6.389115 118.549927
1.200000 7.160000 7.080000 3.586917 13.295128 189.626389
1.200000 7.160000 7.120000 2.251058 30.866987 957.838135
1.200000 7.160000 7.160000 -16.926479 40.580360 1933.271362
1.200000 7.160000 7.200000 -38.410851 29.048956 2319.235352
1.200000 7.200000 6.800000 -16.432114 4.210206 287.740204
1.200000 7.200000 6.840000 -11.250370 8.247101 194.585495
1.200000 7.200000 6.880000 -14.391878 16.314482 473.288483
1.200000 7.200000 6.920000 -25.362066 17.164055 937.839111
1.200000 7.200000 6.960000 -32.340652 6.528082 1088.533691
1.200000 7.200000 7.000000 -25.658890 -5.395346 687.488342
1.200000 7.200000 7.040000 -11.135498 -4.055090 140.443069
1.200000 7.200000 7.080000 -6.153584 11.749070 175.907242
1.200000 7.200000 7.120000 -20.527468 25.445286 1068.839478
1.200000 7.200000 7.160000 -43.130852 19.110332 2225.475098
1.200000 7.200000 7.200000 -51.162048 -5.834116 2651.592041
