#kx 	ky 	kz 	real 	imag 	intensity
0.800000 8.800000 2.800000 15.310601 -24.826225 850.755981
0.800000 8.800000 2.840000 14.179899 -6.934993 249.163666
0.800000 8.800000 2.880000 0.197532 -0.551197 0.342837
0.800000 8.800000 2.920000 -10.415884 -10.484045 218.405838
0.800000 8.800000 2.960000 -5.267338 -25.582617 682.215149
0.800000 8.800000 3.000000 12.669397 -29.659702 1040.211548
0.800000 8.800000 3.040000 28.367601 -16.741823 1085.009521
0.800000 8.800000 3.080000 29.086205 4.056953 862.466187
0.800000 8.800000 3.120000 15.427647 17.987408 561.559143
0.800000 8.800000 3.160000 -1.136815 18.153574 330.844604
0.800000 8.800000 3.200000 -10.273476 9.678160 199.211090
0.800000 8.840000 2.800000 16.562023 -13.597978 459.205597
0.800000 8.840000 2.840000 8.555262 -0.698795 73.680817
0.800000 8.840000 2.880000 -5.713310 -2.962380 41.417610
0.800000 8.840000 2.920000 -9.406166 -18.287649 422.914062
0.800000 8.840000 2.960000 4.335782 -30.668318 959.344727
0.800000 8.840000 3.000000 25.001556 -25.639118 1282.442139
0.800000 8.840000 3.040000 34.446030 -4.636741 1208.028320
0.800000 8.840000 3.080000 24.220865 16.205137 849.256836
0.800000 8.840000 3.120000 3.159349 21.486744 471.661652
0.800000 8.840000 3.160000 -12.004519 10.439787 253.097610
0.800000 8.840000 3.200000 -12.665623 -4.365996 179.479919
0.800000 8.880000 2.800000 13.833599 -9.504175 281.697815
0.800000 8.880000 2.840000 4.627341 -3.342273 32.583076
0.800000 8.880000 2.880000 -4.141259 -11.074137 139.786530
0.800000 8.880000 2.920000 0.618994 -25.035488 627.158875
0.800000 8.880000 2.960000 18.514078 -29.282753 1200.250732
0.800000 8.880000 3.000000 34.839722 -15.847775 1464.958130
0.800000 8.880000 3.040000 34.700851 6.408654 1245.219849
0.800000 8.880000 3.080000 17.882189 19.915983 716.419067
0.800000 8.880000 3.120000 -0.973372 15.397441 238.028641
0.800000 8.880000 3.160000 -6.970559 0.204714 48.630604
0.800000 8.880000 3.200000 1.002645 -10.263437 106.343437
0.800000 8.920000 2.800000 15.885528 -9.100043 335.160767
0.800000 8.920000 2.840000 9.141115 -6.594103 127.042183
0.800000 8.920000 2.880000 6.316034 -13.939022 234.188629
0.800000 8.920000 2.920000 15.070544 -21.743071 699.882446
0.800000 8.920000 2.960000 30.383631 -18.274021 1257.104858
0.800000 8.920000 3.000000 38.898895 -2.173453 1517.847900
0.800000 8.920000 3.040000 32.456959 15.302480 1287.620117
0.800000 8.920000 3.080000 16.621550 21.285421 729.345093
0.800000 8.920000 3.120000 4.992584 14.044019 222.160370
0.800000 8.920000 3.160000 5.433132 3.981983 45.375114
0.800000 8.920000 3.200000 12.894086 2.125230 170.774048
0.800000 8.960000 2.800000 22.362144 -3.411547 511.704132
0.800000 8.960000 2.840000 17.153618 -1.057045 295.363953
0.800000 8.960000 2.880000 16.101391 -5.236118 286.671722
0.800000 8.960000 2.920000 23.060736 -8.009111 595.943420
0.800000 8.960000 2.960000 32.676270 -2.125013 1072.254272
0.800000 8.960000 3.000000 35.820107 11.223310 1409.042725
0.800000 8.960000 3.040000 28.908882 23.546671 1390.169189
0.800000 8.960000 3.080000 17.206959 27.666607 1061.520630
0.800000 8.960000 3.120000 8.889292 24.446404 676.646179
0.800000 8.960000 3.160000 6.694159 20.616413 469.848267
0.800000 8.960000 3.200000 6.303847 20.694229 467.989624
0.800000 9.000000 2.800000 24.262465 10.574526 700.487793
0.800000 9.000000 2.840000 17.642063 12.739517 473.537720
0.800000 9.000000 2.880000 14.720858 9.395872 304.986053
0.800000 9.000000 2.920000 18.337616 6.681049 380.904572
0.800000 9.000000 2.960000 24.880260 10.271753 724.536255
0.800000 9.000000 3.000000 27.655571 20.363827 1179.516113
0.800000 9.000000 3.040000 22.662971 31.757307 1522.136841
0.800000 9.000000 3.080000 11.452671 38.453613 1609.844116
0.800000 9.000000 3.120000 -0.941814 38.070229 1450.229248
0.800000 9.000000 3.160000 -10.237676 32.402073 1154.704346
0.800000 9.000000 3.200000 -15.074350 24.704775 837.561951
0.800000 9.040000 2.800000 14.334766 25.352448 848.232117
0.800000 9.040000 2.840000 5.685076 24.303900 622.999634
0.800000 9.040000 2.880000 1.758555 17.811638 320.346985
0.800000 9.040000 2.920000 5.574814 11.989064 174.816208
0.800000 9.040000 2.960000 13.803177 13.580344 374.953430
0.800000 9.040000 3.000000 18.323513 24.202482 921.511230
0.800000 9.040000 3.040000 12.305986 37.943604 1591.154297
0.800000 9.040000 3.080000 -3.849200 45.165092 2054.701904
0.800000 9.040000 3.120000 -22.074810 39.849010 2075.240723
0.800000 9.040000 3.160000 -32.483959 24.413074 1651.205811
0.800000 9.040000 3.200000 -30.702810 7.790112 1003.348389
0.800000 9.080000 2.800000 -4.233627 30.163731 927.774231
0.800000 9.080000 2.840000 -11.974887 23.865372 712.953857
0.800000 9.080000 2.880000 -12.762358 13.417682 342.911957
0.800000 9.080000 2.920000 -4.507928 6.409806 61.407021
0.800000 9.080000 2.960000 6.895617 10.296137 153.559967
0.800000 9.080000 3.000000 10.355221 24.612036 712.982910
0.800000 9.080000 3.040000 -1.067028 38.843708 1509.972168
0.800000 9.080000 3.080000 -22.493252 40.001087 2106.033447
0.800000 9.080000 3.120000 -39.623344 24.081694 2149.937500
0.800000 9.080000 3.160000 -40.306816 0.594778 1624.993164
0.800000 9.080000 3.200000 -25.011799 -14.930912 848.522217
0.800000 9.120000 2.800000 -20.350906 22.003807 898.326904
0.800000 9.120000 2.840000 -23.684639 12.029652 705.674622
0.800000 9.120000 2.880000 -18.527119 1.007950 344.270081
0.800000 9.120000 2.920000 -5.645364 -2.436676 37.807526
0.800000 9.120000 2.960000 5.531210 6.970151 79.177292
0.800000 9.120000 3.000000 3.530066 23.509560 565.160767
0.800000 9.120000 3.040000 -13.639188 32.683712 1254.252441
0.800000 9.120000 3.080000 -33.990486 23.627407 1713.607544
0.800000 9.120000 3.120000 -40.614357 0.356744 1649.653320
0.800000 9.120000 3.160000 -26.946507 -20.170898 1132.979370
0.800000 9.120000 3.200000 -3.437795 -22.649948 524.838562
0.800000 9.160000 2.800000 -25.877300 8.465364 741.297058
0.800000 9.160000 2.840000 -24.211460 -1.621669 588.824646
0.800000 9.160000 2.880000 -14.439413 -9.165499 292.503021
0.800000 9.160000 2.920000 -0.937866 -6.501071 43.143517
0.800000 9.160000 2.960000 5.346390 6.902609 76.229897
0.800000 9.160000 3.000000 -3.093643 20.571537 432.758759
0.800000 9.160000 3.040000 -20.932936 20.930927 876.291504
0.800000 9.160000 3.080000 -32.480583 4.776492 1077.803101
0.800000 9.160000 3.120000 -25.689896 -15.642908 904.671326
0.800000 9.160000 3.160000 -4.433096 -22.711040 535.443726
0.800000 9.160000 3.200000 13.926792 -9.820255 290.392944
0.800000 9.200000 2.800000 -23.055477 -0.454747 531.761841
0.800000 9.200000 2.840000 -18.610603 -8.790958 423.635498
0.800000 9.200000 2.880000 -7.815114 -11.953907 203.971909
0.800000 9.200000 2.920000 2.310016 -5.138036 31.735588
0.800000 9.200000 2.960000 2.581879 7.451870 62.196472
0.800000 9.200000 3.000000 -8.324844 14.401859 276.716583
0.800000 9.200000 3.040000 -20.404778 7.939523 479.390961
0.800000 9.200000 3.080000 -20.856747 -7.011398 484.163574
0.800000 9.200000 3.120000 -7.114264 -16.056355 308.419250
0.800000 9.200000 3.160000 9.302205 -8.942351 166.496674
0.800000 9.200000 3.200000 12.965760 9.814892 264.443024
0.840000 8.800000 2.800000 27.374126 -3.694197 762.989868
0.840000 8.800000 2.840000 14.699362 6.773380 261.949921
0.840000 8.800000 2.880000 1.225268 2.452007 7.513618
0.840000 8.800000 2.920000 -0.876979 -10.237607 105.577682
0.840000 8.800000 2.960000 9.769622 -18.127928 424.067261
0.840000 8.800000 3.000000 23.505650 -13.124865 724.777649
0.840000 8.800000 3.040000 28.941158 1.620561 840.216858
0.840000 8.800000 3.080000 22.412231 15.946808 756.608765
0.840000 8.800000 3.120000 9.221098 22.006372 569.309082
0.840000 8.800000 3.160000 -2.820209 19.427633 385.386505
0.840000 8.800000 3.200000 -9.984299 12.681577 260.508606
0.840000 8.840000 2.800000 17.301247 6.942578 347.532532
0.840000 8.840000 2.840000 6.039881 8.235459 104.302948
0.840000 8.840000 2.880000 0.496017 0.316651 0.346301
0.840000 8.840000 2.920000 5.421648 -7.442500 84.785080
0.840000 8.840000 2.960000 15.545549 -6.203363 280.145813
0.840000 8.840000 3.000000 20.816343 4.333567 452.099976
0.840000 8.840000 3.040000 15.661077 16.167839 506.668335
0.840000 8.840000 3.080000 3.433956 20.673576 439.188812
0.840000 8.840000 3.120000 -7.591226 15.900901 310.465363
0.840000 8.840000 3.160000 -11.908906 6.830822 188.482162
0.840000 8.840000 3.200000 -10.393436 -0.570890 108.349434
0.840000 8.880000 2.800000 8.387540 5.472229 100.296112
0.840000 8.880000 2.840000 4.322958 3.776460 32.949615
0.840000 8.880000 2.880000 5.052343 0.621165 25.912016
0.840000 8.880000 2.920000 8.935298 1.152753 81.168388
0.840000 8.880000 2.960000 10.724977 6.331469 155.112640
0.840000 8.880000 3.000000 7.025424 12.002048 193.405762
0.840000 8.880000 3.040000 -0.281452 13.102735 171.760864
0.840000 8.880000 3.080000 -5.947345 8.594504 109.236412
0.840000 8.880000 3.120000 -6.461780 2.207568 46.627956
0.840000 8.880000 3.160000 -3.046492 -1.534607 11.636133
0.840000 8.880000 3.200000 0.355799 -1.622476 2.759020
0.840000 8.920000 2.800000 8.932855 1.386474 81.718201
0.840000 8.920000 2.840000 9.394209 4.266521 106.454361
0.840000 8.920000 2.880000 8.165768 8.232468 134.453278
0.840000 8.920000 2.920000 3.922591 11.209202 141.032928
0.840000 8.920000 2.960000 -1.783306 10.335344 109.999519
0.840000 8.920000 3.000000 -5.013218 5.309450 53.322617
0.840000 8.920000 3.040000 -2.980021 -0.344720 8.999354
0.840000 8.920000 3.080000 2.882888 -1.973613 12.206189
0.840000 8.920000 3.120000 7.713841 1.925690 63.211624
0.840000 8.920000 3.160000 7.504022 8.082715 121.640625
0.840000 8.920000 3.200000 2.834282 11.365237 137.201782
0.840000 8.960000 2.800000 13.907368 5.196109 220.414413
0.840000 8.960000 2.840000 11.180285 13.536089 308.224487
0.840000 8.960000 2.880000 1.976578 18.220860 335.906586
0.840000 8.960000 2.920000 -8.573503 14.083647 271.854065
0.840000 8.960000 2.960000 -12.049267 2.603837 151.964798
0.840000 8.960000 3.000000 -4.359825 -7.494913 75.181793
0.840000 8.960000 3.040000 9.296440 -7.114185 137.035431
0.840000 8.960000 3.080000 17.904531 4.810709 343.715149
0.840000 8.960000 3.120000 14.048869 19.661215 583.934082
0.840000 8.960000 3.160000 0.535802 26.393232 696.889832
0.840000 8.960000 3.200000 -12.189078 21.110027 594.206848
0.840000 9.000000 2.800000 11.966736 16.276600 408.130493
0.840000 9.000000 2.840000 1.832247 23.536938 557.344543
0.840000 9.000000 2.880000 -12.499054 20.256308 566.544312
0.840000 9.000000 2.920000 -19.659237 5.530184 417.068542
0.840000 9.000000 2.960000 -11.372734 -10.260885 234.624847
0.840000 9.000000 3.000000 7.967353 -12.834570 228.204895
0.840000 9.000000 3.040000 22.807858 2.703938 527.509644
0.840000 9.000000 3.080000 19.462168 25.765812 1042.653076
0.840000 9.000000 3.120000 -1.169091 38.490532 1482.887817
0.840000 9.000000 3.160000 -23.812218 31.384735 1552.023315
0.840000 9.000000 3.200000 -32.309219 11.498109 1176.092163
0.840000 9.040000 2.800000 -0.991799 23.818720 568.315063
0.840000 9.040000 2.840000 -14.720488 23.083849 749.556824
0.840000 9.040000 2.880000 -24.978920 9.780443 719.603516
0.840000 9.040000 2.920000 -20.309601 -8.957638 492.719177
0.840000 9.040000 2.960000 -0.320167 -17.177353 295.163971
0.840000 9.040000 3.000000 20.111977 -4.384893 423.718903
0.840000 9.040000 3.040000 22.161978 22.323187 989.477905
0.840000 9.040000 3.080000 0.687526 41.987186 1763.396484
0.840000 9.040000 3.120000 -29.328293 37.786339 2287.956055
0.840000 9.040000 3.160000 -45.196949 12.604591 2201.639893
0.840000 9.040000 3.200000 -36.654003 -13.401646 1523.120117
0.840000 9.080000 2.800000 -16.903877 19.134384 651.865723
0.840000 9.080000 2.840000 -26.400457 10.180056 800.617676
0.840000 9.080000 2.880000 -25.927425 -6.529279 714.862854
0.840000 9.080000 2.920000 -10.188164 -18.600082 449.761749
0.840000 9.080000 2.960000 11.641020 -12.547052 292.941864
0.840000 9.080000 3.000000 20.617317 11.337194 553.605713
0.840000 9.080000 3.040000 5.200245 35.227898 1268.047363
0.840000 9.080000 3.080000 -25.609186 37.890797 2091.542969
0.840000 9.080000 3.120000 -47.947296 14.604277 2512.228027
0.840000 9.080000 3.160000 -44.066525 -17.079685 2233.574219
0.840000 9.080000 3.200000 -18.634253 -32.631897 1412.076050
0.840000 9.120000 2.800000 -24.284338 5.278416 617.590759
0.840000 9.120000 2.840000 -25.522945 -5.744578 684.420898
0.840000 9.120000 2.880000 -16.071144 -17.183493 553.554077
0.840000 9.120000 2.920000 1.967549 -17.445427 308.214172
0.840000 9.120000 2.960000 14.961847 -1.157020 225.195572
0.840000 9.120000 3.000000 8.849247 21.559498 543.121094
0.840000 9.120000 3.040000 -15.559805 31.038139 1205.473633
0.840000 9.120000 3.080000 -39.780434 16.068663 1840.684814
0.840000 9.120000 3.120000 -42.947197 -13.606222 2029.590942
0.840000 9.120000 3.160000 -21.473230 -34.353756 1641.280151
0.840000 9.120000 3.200000 6.689079 -29.942787 941.314270
0.840000 9.160000 2.800000 -20.495371 -6.546258 462.913757
0.840000 9.160000 2.840000 -16.308147 -13.898636 459.127747
0.840000 9.160000 2.880000 -5.135778 -17.267876 324.555756
0.840000 9.160000 2.920000 7.031347 -9.667862 142.907394
0.840000 9.160000 2.960000 8.706930 6.812286 122.217865
0.840000 9.160000 3.000000 -5.220946 19.154617 394.157623
0.840000 9.160000 3.040000 -25.288794 14.404710 847.018738
0.840000 9.160000 3.080000 -33.775978 -6.375741 1181.466675
0.840000 9.160000 3.120000 -21.296228 -26.562551 1159.098511
0.840000 9.160000 3.160000 2.842682 -28.399963 814.638733
0.840000 9.160000 3.200000 18.132915 -10.030180 429.407104
0.840000 9.200000 2.800000 -13.846258 -9.379793 279.699402
0.840000 9.200000 2.840000 -9.392366 -13.128124 260.564178
0.840000 9.200000 2.880000 -1.344314 -12.513637 158.398270
0.840000 9.200000 2.920000 4.257699 -4.594523 39.237648
0.840000 9.200000 2.960000 0.675357 5.652551 32.407440
0.840000 9.200000 3.000000 -10.875283 8.390506 188.672363
0.840000 9.200000 3.040000 -20.042894 -0.829643 402.405914
0.840000 9.200000 3.080000 -16.752647 -14.674584 495.994629
0.840000 9.200000 3.120000 -2.210011 -19.730158 394.163269
0.840000 9.200000 3.160000 10.725030 -9.679967 208.728027
0.840000 9.200000 3.200000 9.357979 7.477079 143.478485
0.880000 8.800000 2.800000 18.124384 21.031900 770.834106
0.880000 8.800000 2.840000 4.223269 16.720978 297.427094
0.880000 8.800000 2.880000 0.260742 5.790359 33.596249
0.880000 8.800000 2.920000 6.061901 -1.402253 38.712955
0.880000 8.800000 2.960000 14.007763 0.032651 196.218491
0.880000 8.800000 3.000000 17.236797 6.996223 346.054321
0.880000 8.800000 3.040000 14.953418 13.710138 411.572601
0.880000 8.800000 3.080000 10.342827 17.758120 422.324860
0.880000 8.800000 3.120000 5.165567 20.341555 440.461914
0.880000 8.800000 3.160000 -1.809415 21.853878 480.865967
0.880000 8.800000 3.200000 -10.995707 19.432573 498.530457
0.880000 8.840000 2.800000 -0.044600 20.543755 422.047821
0.880000 8.840000 2.840000 -2.125508 12.956940 172.400085
0.880000 8.840000 2.880000 1.877050 10.959820 123.640968
0.880000 8.840000 2.920000 3.039377 15.761017 257.647461
0.880000 8.840000 2.960000 -3.092880 20.099579 413.558990
0.880000 8.840000 3.000000 -11.732918 17.179546 432.798157
0.880000 8.840000 3.040000 -14.779152 8.616785 292.672302
0.880000 8.840000 3.080000 -10.349426 2.465471 113.189178
0.880000 8.840000 3.120000 -5.014729 3.778527 39.424770
0.880000 8.840000 3.160000 -6.148554 8.573534 111.310196
0.880000 8.840000 3.200000 -13.082859 8.205996 238.499557
0.880000 8.880000 2.800000 -7.635992 8.616348 132.549835
0.880000 8.880000 2.840000 -1.090952 10.151518 104.243492
0.880000 8.880000 2.880000 -2.108921 20.560268 427.172180
0.880000 8.880000 2.920000 -16.287060 27.069370 998.019104
0.880000 8.880000 2.960000 -33.975780 17.875290 1473.879639
0.880000 8.880000 3.000000 -38.940914 -4.108471 1533.274292
0.880000 8.880000 3.040000 -25.081293 -22.557072 1137.892822
0.880000 8.880000 3.080000 -3.435495 -23.382740 558.555115
0.880000 8.880000 3.120000 8.292079 -8.667852 143.890244
0.880000 8.880000 3.160000 3.031291 5.807560 42.916473
0.880000 8.880000 3.200000 -9.498610 6.688962 134.965790
0.880000 8.920000 2.800000 -2.436252 0.251633 5.998641
0.880000 8.920000 2.840000 -0.157457 14.332584 205.447769
0.880000 8.920000 2.880000 -16.519024 26.640163 982.576416
0.880000 8.920000 2.920000 -42.195400 18.488890 2122.290771
0.880000 8.920000 2.960000 -53.884903 -11.635132 3038.958984
0.880000 8.920000 3.000000 -36.793884 -43.017609 3204.304688
0.880000 8.920000 3.040000 -0.839531 -50.627197 2563.817871
0.880000 8.920000 3.080000 26.986715 -28.884438 1562.593506
0.880000 8.920000 3.120000 27.396580 2.867792 758.796814
0.880000 8.920000 3.160000 6.019112 18.959766 395.702454
0.880000 8.920000 3.200000 -13.860495 11.207400 317.719116
0.880000 8.960000 2.800000 4.144621 3.257509 27.789249
0.880000 8.960000 2.840000 -7.603806 20.124901 462.829498
0.880000 8.960000 2.880000 -35.389851 18.898567 1609.597412
0.880000 8.960000 2.920000 -55.073601 -10.119191 3135.499512
0.880000 8.960000 2.960000 -43.086887 -49.503960 4307.122070
0.880000 8.960000 3.000000 -1.429527 -67.241722 4523.492676
0.880000 8.960000 3.040000 40.461678 -46.288795 3779.799805
0.880000 8.960000 3.080000 51.184883 -1.904322 2623.518799
0.880000 8.960000 3.120000 25.909779 31.533850 1665.700317
0.880000 8.960000 3.160000 -10.260970 31.852089 1119.843018
0.880000 8.960000 3.200000 -27.054348 7.718307 791.510010
0.880000 9.000000 2.800000 1.203046 10.949464 121.338074
0.880000 9.000000 2.840000 -21.197514 16.957916 736.905518
0.880000 9.000000 2.880000 -44.542202 -3.137768 1993.853394
0.880000 9.000000 2.920000 -42.272224 -41.387161 3499.837891
0.880000 9.000000 2.960000 -5.870100 -67.422424 4580.241211
0.880000 9.000000 3.000000 41.857174 -54.977028 4774.496582
0.880000 9.000000 3.040000 64.034737 -8.544743 4173.459961
0.880000 9.000000 3.080000 42.999458 37.747841 3273.853027
0.880000 9.000000 3.120000 -2.913479 50.024437 2510.932617
0.880000 9.000000 3.160000 -36.385742 24.781406 1938.040283
0.880000 9.000000 3.200000 -35.371334 -10.134707 1353.843506
0.880000 9.040000 2.800000 -9.495468 11.327158 218.468414
0.880000 9.040000 2.840000 -29.306133 2.149940 863.471680
0.880000 9.040000 2.880000 -34.787659 -26.508862 1912.900879
0.880000 9.040000 2.920000 -10.807474 -53.895939 3021.573730
0.880000 9.040000 2.960000 31.877392 -52.361969 3757.943848
0.880000 9.040000 3.000000 60.872246 -14.818074 3925.005859
0.880000 9.040000 3.040000 50.162388 34.073803 3677.289062
0.880000 9.040000 3.080000 5.635697 57.266121 3311.169678
0.880000 9.040000 3.120000 -38.311302 38.463486 2947.195557
0.880000 9.040000 3.160000 -49.433899 -3.195038 2453.918701
0.880000 9.040000 3.200000 -26.095434 -31.773684 1690.538574
0.880000 9.080000 2.800000 -16.566761 1.365647 276.322571
0.880000 9.080000 2.840000 -23.564955 -14.506081 765.733459
0.880000 9.080000 2.880000 -12.120704 -35.440727 1402.956665
0.880000 9.080000 2.920000 17.645878 -40.846306 1979.797607
0.880000 9.080000 2.960000 45.133659 -17.665241 2349.107910
0.880000 9.080000 3.000000 44.897182 22.804682 2535.810547
0.880000 9.080000 3.040000 11.458522 50.413467 2672.815430
0.880000 9.080000 3.080000 -32.048721 42.176567 2805.983398
0.880000 9.080000 3.120000 -52.588264 4.356844 2784.507812
0.880000 9.080000 3.160000 -36.811123 -32.138115 2387.916992
0.880000 9.080000 3.200000 -2.673537 -39.825558 1593.222900
0.880000 9.120000 2.800000 -12.831358 -9.890606 262.467834
0.880000 9.120000 2.840000 -8.739204 -20.497387 496.516571
0.880000 9.120000 2.880000 6.748165 -26.200611 732.009766
0.880000 9.120000 2.920000 25.622890 -15.731897 904.025146
0.880000 9.120000 2.960000 30.776649 10.007395 1047.350098
0.880000 9.120000 3.000000 11.932013 33.591042 1270.730957
0.880000 9.120000 3.040000 -21.128475 34.314880 1623.923462
0.880000 9.120000 3.080000 -43.760715 8.198820 1982.220947
0.880000 9.120000 3.120000 -37.829464 -25.703421 2091.734131
0.880000 9.120000 3.160000 -9.047394 -41.123436 1772.992310
0.880000 9.120000 3.200000 17.667433 -28.324783 1114.431519
0.880000 9.160000 2.800000 -3.615556 -12.441936 167.874039
0.880000 9.160000 2.840000 1.781883 -14.039041 200.269775
0.880000 9.160000 2.880000 9.968870 -10.659618 213.005829
0.880000 9.160000 2.920000 14.527650 0.725809 211.579407
0.880000 9.160000 2.960000 7.517153 14.656131 271.309753
0.880000 9.160000 3.000000 -10.633565 19.023554 474.968292
0.880000 9.160000 3.040000 -27.667267 6.344675 805.732544
0.880000 9.160000 3.080000 -28.827423 -16.609615 1106.899658
0.880000 9.160000 3.120000 -11.237136 -32.423851 1177.579346
0.880000 9.160000 3.160000 11.580117 -28.380346 939.543152
0.880000 9.160000 3.200000 21.161425 -8.830340 525.780762
0.880000 9.200000 2.800000 -0.072158 -7.321489 53.609413
0.880000 9.200000 2.840000 0.354170 -6.116400 37.535782
0.880000 9.200000 2.880000 1.523444 -4.386333 21.560804
0.880000 9.200000 2.920000 1.171987 -0.561804 1.689176
0.880000 9.200000 2.960000 -3.613744 2.657672 20.122366
0.880000 9.200000 3.000000 -11.025062 0.150767 121.574715
0.880000 9.200000 3.040000 -14.247429 -9.147371 286.663635
0.880000 9.200000 3.080000 -8.058165 -18.863037 420.748199
0.880000 9.200000 3.120000 4.463617 -20.122272 424.829742
0.880000 9.200000 3.160000 13.269173 -10.626101 288.984985
0.880000 9.200000 3.200000 10.596113 1.880936 115.815536
0.920000 8.800000 2.800000 -8.204006 31.257576 1044.341797
0.920000 8.800000 2.840000 -11.305838 16.090580 386.728729
0.920000 8.800000 2.880000 -3.963171 8.117138 81.594650
0.920000 8.800000 2.920000 2.525223 10.304291 112.555153
0.920000 8.800000 2.960000 1.547489 14.966591 226.393570
0.920000 8.800000 3.000000 -2.747160 14.288307 211.702606
0.920000 8.800000 3.040000 -2.297283 9.854691 102.392441
0.920000 8.800000 3.080000 3.590347 10.111856 115.140236
0.920000 8.800000 3.120000 6.192310 18.871304 394.470795
0.920000 8.800000 3.160000 -2.496805 28.613722 824.979065
0.920000 8.800000 3.200000 -18.913324 27.277534 1101.777710
0.920000 8.840000 2.800000 -23.400057 15.417693 785.267944
0.920000 8.840000 2.840000 -12.476004 11.001053 276.673828
0.920000 8.840000 2.880000 -9.172295 21.046650 527.092468
0.920000 8.840000 2.920000 -22.722694 28.838787 1347.996582
0.920000 8.840000 2.960000 -41.446720 18.320724 2053.479492
0.920000 8.840000 3.000000 -44.630001 -6.928345 2039.838989
0.920000 8.840000 3.040000 -25.402161 -25.740017 1307.818237
0.920000 8.840000 3.080000 0.355560 -21.127516 446.498352
0.920000 8.840000 3.120000 9.465878 1.353798 91.435608
0.920000 8.840000 3.160000 -4.770427 18.662392 371.041809
0.920000 8.840000 3.200000 -25.683952 13.774449 849.400879
0.920000 8.880000 2.800000 -20.625916 -3.596262 438.361511
0.920000 8.880000 2.840000 -11.830822 11.425261 270.504944
0.920000 8.880000 2.880000 -29.341164 28.157343 1653.739746
0.920000 8.880000 2.920000 -61.927475 18.377590 4172.748047
0.920000 8.880000 2.960000 -76.709251 -21.735432 6356.738281
0.920000 8.880000 3.000000 -52.387268 -63.543003 6782.138672
0.920000 8.880000 3.040000 -3.112419 -72.141327 5214.058105
0.920000 8.880000 3.080000 33.048500 -40.890297 2764.219727
0.920000 8.880000 3.120000 30.335022 1.603601 922.785095
0.920000 8.880000 3.160000 -0.769915 19.509249 381.203552
0.920000 8.880000 3.200000 -25.952780 3.951843 689.163818
0.920000 8.920000 2.800000 -7.263642 -10.662816 166.456146
0.920000 8.920000 2.840000 -17.557095 13.890201 501.189209
0.920000 8.920000 2.880000 -54.965797 14.805672 3240.446777
0.920000 8.920000 2.920000 -83.763519 -25.820179 7683.008789
0.920000 8.920000 2.960000 -66.999191 -83.863693 11522.010742
0.920000 8.920000 3.000000 -5.829754 -111.615753 12492.062500
0.920000 8.920000 3.040000 56.904518 -82.957550 10120.079102
0.920000 8.920000 3.080000 75.033913 -19.793528 6021.871582
0.920000 8.920000 3.120000 41.685028 27.942314 2518.414551
0.920000 8.920000 3.160000 -6.465039 28.916679 877.971069
0.920000 8.920000 3.200000 -26.575422 -3.079241 715.734802
0.920000 8.960000 2.800000 1.549532 -5.282767 30.308680
0.920000 8.960000 2.840000 -28.545269 8.289352 883.545776
0.920000 8.960000 2.880000 -64.958755 -19.067934 4583.226074
0.920000 8.960000 2.920000 -63.790173 -78.081505 10165.907227
0.920000 8.960000 2.960000 -8.391436 -121.684410 14877.511719
0.920000 8.960000 3.000000 68.074310 -107.075119 16099.193359
0.920000 8.960000 3.040000 108.826447 -38.403873 13318.052734
0.920000 8.960000 3.080000 85.080261 34.062042 8398.874023
0.920000 8.960000 3.120000 22.128969 59.224789 3997.267090
0.920000 8.960000 3.160000 -26.045822 30.503628 1608.856201
0.920000 8.960000 3.200000 -27.555519 -12.999804 928.301514
0.920000 9.000000 2.800000 -0.330882 0.630053 0.506449
0.920000 9.000000 2.840000 -33.133308 -8.661263 1172.833618
0.920000 9.000000 2.880000 -45.593376 -53.567886 4948.274414
0.920000 9.000000 2.920000 -9.155704 -100.931747 10271.044922
0.920000 9.000000 2.960000 61.797417 -103.796936 14592.724609
0.920000 9.000000 3.000000 115.902107 -47.059013 15647.849609
0.920000 9.000000 3.040000 109.489662 33.384171 13102.489258
0.920000 9.000000 3.080000 47.539825 80.027527 8664.440430
0.920000 9.000000 3.120000 -20.304798 64.889221 4622.895508
0.920000 9.000000 3.160000 -45.408604 12.565281 2219.827637
0.920000 9.000000 3.200000 -22.542917 -26.573681 1214.343628
0.920000 9.040000 2.800000 -5.165400 -1.989829 30.640772
0.920000 9.040000 2.840000 -21.781780 -26.436008 1173.308472
0.920000 9.040000 2.880000 -6.095262 -63.928391 4123.991211
0.920000 9.040000 2.920000 44.319031 -77.629303 7990.485352
0.920000 9.040000 2.960000 95.796936 -42.478821 10981.502930
0.920000 9.040000 3.000000 104.708443 26.207354 11650.683594
0.920000 9.040000 3.040000 58.020042 80.912704 9913.191406
0.920000 9.040000 3.080000 -11.843506 82.603683 6963.637207
0.920000 9.040000 3.120000 -54.548378 35.609909 4243.591309
0.920000 9.040000 3.160000 -46.243484 -17.613342 2448.689697
0.920000 9.040000 3.200000 -7.905349 -36.602566 1402.242310
0.920000 9.080000 2.800000 -2.696575 -9.209663 92.089417
0.920000 9.080000 2.840000 0.333023 -29.848097 891.019775
0.920000 9.080000 2.880000 26.733421 -43.176765 2578.908936
0.920000 9.080000 2.920000 62.177284 -27.475187 4620.900391
0.920000 9.080000 2.960000 76.336845 17.351522 6128.389160
0.920000 9.080000 3.000000 49.741329 63.289242 6479.728027
0.920000 9.080000 3.040000 -4.979603 75.529945 5729.568848
0.920000 9.080000 3.080000 -50.464756 43.677036 4454.375000
0.920000 9.080000 3.120000 -56.277161 -7.533515 3223.872803
0.920000 9.080000 3.160000 -25.272160 -39.848351 2226.572998
0.920000 9.080000 3.200000 10.923750 -35.248169 1361.761841
0.920000 9.120000 2.800000 6.572972 -10.306150 149.420700
0.920000 9.120000 2.840000 16.133720 -15.497297 500.463165
0.920000 9.120000 2.880000 31.760258 -9.624349 1101.342041
0.920000 9.120000 2.920000 40.497398 11.630627 1775.310791
0.920000 9.120000 2.960000 28.773436 38.122604 2281.243652
0.920000 9.120000 3.000000 -3.028629 49.814774 2490.684326
0.920000 9.120000 3.040000 -36.359509 33.671772 2455.802246
0.920000 9.120000 3.080000 -47.905151 -2.485638 2301.082031
0.920000 9.120000 3.120000 -29.879097 -34.213211 2063.304199
0.920000 9.120000 3.160000 2.328553 -40.802200 1670.241699
0.920000 9.120000 3.200000 23.633322 -23.008593 1087.929199
0.920000 9.160000 2.800000 12.008472 -2.190359 149.001083
0.920000 9.160000 2.840000 13.542725 2.898479 191.806580
0.920000 9.160000 2.880000 12.473541 9.581266 247.389893
0.920000 9.160000 2.920000 6.529654 16.732178 322.602142
0.920000 9.160000 2.960000 -5.618650 19.808521 423.946747
0.920000 9.160000 3.000000 -19.989164 12.992259 568.365479
0.920000 9.160000 3.040000 -27.332134 -4.357243 766.031067
0.920000 9.160000 3.080000 -20.156569 -23.887108 976.881226
0.920000 9.160000 3.120000 -0.805141 -33.081764 1095.051270
0.920000 9.160000 3.160000 18.435543 -25.870756 1009.165283
0.920000 9.160000 3.200000 25.092489 -8.785025 706.809631
0.920000 9.200000 2.800000 6.518878 5.648754 74.404190
0.920000 9.200000 2.840000 -1.317253 7.601855 59.523361
0.920000 9.200000 2.880000 -7.365738 3.374723 65.642853
0.920000 9.200000 2.920000 -8.642128 -2.629730 81.601860
0.920000 9.200000 2.960000 -7.131939 -6.866089 98.007729
0.920000 9.200000 3.000000 -5.587925 -9.927973 129.789551
0.920000 9.200000 3.040000 -3.403472 -13.948323 206.139343
0.920000 9.200000 3.080000 2.172709 -18.029966 329.800354
0.920000 9.200000 3.120000 11.188991 -17.996416 449.064514
0.920000 9.200000 3.160000 18.900265 -11.245246 483.675568
0.920000 9.200000 3.200000 19.782671 -0.917767 392.196350
0.960000 8.800000 2.800000 -34.809982 18.935268 1570.279297
0.960000 8.800000 2.840000 -23.053583 4.317950 550.112427
0.960000 8.800000 2.880000 -10.628944 5.901703 147.804550
0.960000 8.800000 2.920000 -10.169716 13.733089 292.020874
0.960000 8.800000 2.960000 -18.088478 13.242050 502.544952
0.960000 8.800000 3.000000 -19.916443 2.398430 402.417175
0.960000 8.800000 3.040000 -8.235321 -5.626453 99.477493
0.960000 8.800000 3.080000 7.049873 2.189535 54.494778
0.960000 8.800000 3.120000 8.334990 22.322056 567.746216
0.960000 8.800000 3.160000 -10.013181 36.082596 1402.217529
0.960000 8.800000 3.200000 -33.615036 28.431381 1938.314209
0.960000 8.840000 2.800000 -36.452618 -6.250237 1367.858765
0.960000 8.840000 2.840000 -20.723505 1.701664 432.359314
0.960000 8.840000 2.880000 -28.583061 17.434975 1120.969727
0.960000 8.840000 2.920000 -53.501293 12.808388 3026.443115
0.960000 8.840000 2.960000 -65.745407 -19.111504 4687.708008
0.960000 8.840000 3.000000 -44.013393 -53.554115 4805.222168
0.960000 8.840000 3.040000 -0.338951 -57.856873 3347.532715
0.960000 8.840000 3.080000 29.393982 -25.654627 1522.166016
0.960000 8.840000 3.120000 20.708525 14.893475 650.658569
0.960000 8.840000 3.160000 -14.890549 28.293793 1022.267151
0.960000 8.840000 3.200000 -41.768356 6.468514 1786.437256
0.960000 8.880000 2.800000 -20.193565 -22.835667 929.247742
0.960000 8.880000 2.840000 -23.185335 2.701460 544.857666
0.960000 8.880000 2.880000 -58.061310 7.070015 3421.100830
0.960000 8.880000 2.920000 -87.338913 -32.326538 8673.090820
0.960000 8.880000 2.960000 -69.837509 -91.518784 13252.964844
0.960000 8.880000 3.000000 -5.432716 -119.139465 14223.726562
0.960000 8.880000 3.040000 59.778084 -86.681404 11087.084961
0.960000 8.880000 3.080000 75.766220 -18.486858 6082.284180
0.960000 8.880000 3.120000 36.227875 30.359940 2234.184814
0.960000 8.880000 3.160000 -16.885328 26.318779 977.792419
0.960000 8.880000 3.200000 -35.842098 -13.187162 1458.557251
0.960000 8.920000 2.800000 -1.131186 -22.143738 491.624695
0.960000 8.920000 2.840000 -31.442162 -2.498585 994.852417
0.960000 8.920000 2.880000 -73.509567 -31.056847 6368.184082
0.960000 8.920000 2.920000 -72.936302 -99.278801 15175.984375
0.960000 8.920000 2.960000 -7.651875 -150.801758 22799.720703
0.960000 8.920000 3.000000 83.257996 -133.381714 24722.576172
0.960000 8.920000 3.040000 131.541946 -51.738914 19980.199219
0.960000 8.920000 3.080000 103.071930 33.567253 11750.583008
0.960000 8.920000 3.120000 29.184307 61.763191 4666.415527
0.960000 8.920000 3.160000 -25.197292 26.600016 1342.464355
0.960000 8.920000 3.200000 -23.414036 -23.664745 1108.237305
0.960000 8.960000 2.800000 7.458920 -12.048895 200.811356
0.960000 8.960000 2.840000 -34.532097 -19.212835 1561.598755
0.960000 8.960000 2.880000 -52.663277 -75.849846 8526.620117
0.960000 8.960000 2.920000 -6.231319 -138.531265 19229.742188
0.960000 8.960000 2.960000 87.262383 -143.857941 28309.832031
0.960000 8.960000 3.000000 160.150070 -70.668777 30642.121094
0.960000 8.960000 3.040000 154.767731 34.438976 25139.093750
0.960000 8.960000 3.080000 77.472015 96.765900 15365.552734
0.960000 8.960000 3.120000 -7.692270 80.689896 6570.030273
0.960000 8.960000 3.160000 -39.286598 18.334454 1879.588989
0.960000 8.960000 3.200000 -12.228927 -26.732819 864.190247
0.960000 9.000000 2.800000 6.570262 -5.618000 74.730270
0.960000 9.000000 2.840000 -20.714054 -38.008606 1873.726196
0.960000 9.000000 2.880000 -0.791941 -93.248466 8695.903320
0.960000 9.000000 2.920000 72.042862 -115.795738 18598.828125
0.960000 9.000000 2.960000 149.051071 -67.292175 26744.458984
0.960000 9.000000 3.000000 166.566559 31.341730 28726.722656
0.960000 9.000000 3.040000 105.009636 112.784203 23747.300781
0.960000 9.000000 3.080000 9.034300 122.025978 14971.957031
0.960000 9.000000 3.120000 -52.455856 64.496475 6911.412109
0.960000 9.000000 3.160000 -47.464363 -3.008757 2261.918457
0.960000 9.000000 3.200000 -3.894601 -27.778564 786.816528
0.960000 9.040000 2.800000 6.700702 -5.998353 80.879639
0.960000 9.040000 2.840000 6.952404 -41.140244 1740.855591
0.960000 9.040000 2.880000 48.731323 -66.708427 6824.755859
0.960000 9.040000 2.920000 108.510406 -44.590942 13762.861328
0.960000 9.040000 2.960000 136.121399 26.592196 19236.179688
0.960000 9.040000 3.000000 99.467194 102.697784 20440.558594
0.960000 9.040000 3.040000 17.027437 129.397644 17033.683594
0.960000 9.040000 3.080000 -55.427444 89.964607 11165.832031
0.960000 9.040000 3.120000 -72.990807 19.454082 5706.119141
0.960000 9.040000 3.160000 -38.753643 -28.423849 2309.760010
0.960000 9.040000 3.200000 4.809050 -28.913717 859.130005
0.960000 9.080000 2.800000 12.904944 -4.948167 191.021957
0.960000 9.080000 2.840000 29.272026 -21.156361 1304.443115
0.960000 9.080000 2.880000 61.806305 -14.677877 4035.459473
0.960000 9.080000 2.920000 83.103104 23.915222 7478.063965
0.960000 9.080000 2.960000 66.536560 74.996315 10051.560547
0.960000 9.080000 3.000000 12.527985 102.008354 10562.654297
0.960000 9.080000 3.040000 -47.280880 82.152504 8984.515625
0.960000 9.080000 3.080000 -74.665253 27.490517 6330.628418
0.960000 9.080000 3.120000 -56.656929 -24.499321 3810.224365
0.960000 9.080000 3.160000 -14.870157 -42.820454 2054.712891
0.960000 9.080000 3.200000 15.983624 -27.426987 1007.715820
0.960000 9.120000 2.800000 18.199072 4.308125 349.766144
0.960000 9.120000 2.840000 28.197771 8.381704 865.367310
0.960000 9.120000 2.880000 34.055077 24.076244 1739.413818
0.960000 9.120000 2.920000 25.054611 45.431961 2691.796387
0.960000 9.120000 2.960000 -1.350880 57.903595 3354.651367
0.960000 9.120000 3.000000 -34.024651 48.461960 3506.238281
0.960000 9.120000 3.040000 -53.832554 17.340126 3198.623779
0.960000 9.120000 3.080000 -47.835335 -19.563717 2670.958252
0.960000 9.120000 3.120000 -20.152760 -41.581078 2135.119629
0.960000 9.120000 3.160000 10.829152 -39.046795 1641.922729
0.960000 9.120000 3.200000 27.211721 -19.999321 1140.450684
0.960000 9.160000 2.800000 13.104731 16.359247 439.358948
0.960000 9.160000 2.840000 5.822954 23.684978 594.885010
0.960000 9.160000 2.880000 -5.540562 24.804949 645.983276
0.960000 9.160000 2.920000 -15.952036 19.224962 624.066650
0.960000 9.160000 2.960000 -22.567318 9.208230 594.075317
0.960000 9.160000 3.000000 -24.454391 -3.356346 609.282349
0.960000 9.160000 3.040000 -20.279884 -16.968044 699.188232
0.960000 9.160000 3.080000 -8.551476 -28.170897 866.727173
0.960000 9.160000 3.120000 9.049099 -31.438711 1070.278809
0.960000 9.160000 3.160000 25.841215 -23.354961 1213.222656
0.960000 9.160000 3.200000 33.710075 -7.080077 1186.496582
0.960000 9.200000 2.800000 -0.478037 18.765535 352.373840
0.960000 9.200000 2.840000 -15.815676 13.844620 441.809082
0.960000 9.200000 2.880000 -22.107899 -2.100946 493.173157
0.960000 9.200000 2.920000 -14.646559 -17.009850 503.856689
0.960000 9.200000 2.960000 -0.876762 -21.301514 454.523193
0.960000 9.200000 3.000000 8.437759 -16.585623 346.278687
0.960000 9.200000 3.040000 10.459307 -11.865181 250.179611
0.960000 9.200000 3.080000 11.622047 -12.285506 286.005676
0.960000 9.200000 3.120000 18.384350 -13.461930 519.207886
0.960000 9.200000 3.160000 28.486374 -7.419208 866.518127
0.960000 9.200000 3.200000 32.742874 7.095846 1122.446899
1.000000 8.800000 2.800000 -45.287888 -8.235035 2118.808594
1.000000 8.800000 2.840000 -24.466742 -13.009985 767.881165
1.000000 8.800000 2.880000 -14.798273 -2.826630 226.978729
1.000000 8.800000 2.920000 -20.626286 3.859230 440.337311
1.000000 8.800000 2.960000 -27.577658 -4.150726 777.755737
1.000000 8.800000 3.000000 -19.631195 -17.933739 707.002808
1.000000 8.800000 3.040000 1.360672 -18.147198 331.172211
1.000000 8.800000 3.080000 15.571152 2.574032 249.086411
1.000000 8.800000 3.120000 5.759228 29.014153 874.989746
1.000000 8.800000 3.160000 -23.170988 37.148071 1916.874023
1.000000 8.800000 3.200000 -47.180256 18.535881 2569.555420
1.000000 8.840000 2.800000 -31.105532 -31.141041 1937.318481
1.000000 8.840000 2.840000 -22.024366 -13.017486 654.527649
1.000000 8.840000 2.880000 -40.467247 -4.013187 1653.703735
1.000000 8.840000 2.920000 -60.817131 -26.311783 4391.033203
1.000000 8.840000 2.960000 -49.744293 -66.078873 6840.912109
1.000000 8.840000 3.000000 -3.507828 -84.604141 7170.165527
1.000000 8.840000 3.040000 43.886745 -57.868683 5274.831055
1.000000 8.840000 3.080000 52.411743 -3.500664 2759.245361
1.000000 8.840000 3.120000 15.887716 34.124645 1416.911011
1.000000 8.840000 3.160000 -31.333111 26.422731 1679.924561
1.000000 8.840000 3.200000 -48.066505 -12.651184 2470.441406
1.000000 8.880000 2.800000 -6.545072 -36.896561 1404.194214
1.000000 8.880000 2.840000 -25.953648 -15.453463 912.401306
1.000000 8.880000 2.880000 -61.048355 -35.066994 4956.595703
1.000000 8.880000 2.920000 -61.567696 -91.991005 12252.925781
1.000000 8.880000 2.960000 -4.636185 -136.245636 18584.367188
1.000000 8.880000 3.000000 75.810539 -119.120972 19937.042969
1.000000 8.880000 3.040000 117.100967 -43.925789 15642.111328
1.000000 8.880000 3.080000 87.392982 33.270130 8744.434570
1.000000 8.880000 3.120000 16.470102 55.508316 3352.437500
1.000000 8.880000 3.160000 -33.696449 17.502949 1441.803955
1.000000 8.880000 3.200000 -28.159672 -33.601589 1922.033936
1.000000 8.920000 2.800000 11.620831 -26.246201 823.906738
1.000000 8.920000 2.840000 -28.351650 -28.015385 1588.677856
1.000000 8.920000 2.880000 -47.709869 -82.032440 9005.552734
1.000000 8.920000 2.920000 -1.647335 -144.797165 20968.931641
1.000000 8.920000 2.960000 93.504272 -149.748108 31167.544922
1.000000 8.920000 3.000000 167.622787 -73.916008 33560.976562
1.000000 8.920000 3.040000 160.549438 34.211662 26946.560547
1.000000 8.920000 3.080000 79.595840 96.621101 15671.135742
1.000000 8.920000 3.120000 -7.443922 77.058411 5993.410645
1.000000 8.920000 3.160000 -36.603863 10.903584 1458.730957
1.000000 8.920000 3.200000 -4.466615 -34.292362 1195.916748
1.000000 8.960000 2.800000 16.486858 -12.067272 417.435547
1.000000 8.960000 2.840000 -16.344191 -45.295868 2318.848145
1.000000 8.960000 2.880000 4.537586 -108.232834 11734.936523
1.000000 8.960000 2.920000 88.083984 -134.993011 25981.902344
1.000000 8.960000 2.960000 177.648346 -79.331818 37852.472656
1.000000 8.960000 3.000000 198.526367 34.685028 40615.769531
1.000000 8.960000 3.040000 128.233887 128.540451 32966.578125
1.000000 8.960000 3.080000 19.330654 139.128510 19730.416016
1.000000 8.960000 3.120000 -48.827106 74.379364 7916.375977
1.000000 8.960000 3.160000 -41.442944 0.612484 1717.892700
1.000000 8.960000 3.200000 7.167202 -23.118279 585.823547
1.000000 9.000000 2.800000 14.846788 -4.137918 237.549484
1.000000 9.000000 2.840000 11.555126 -49.940132 2627.537842
1.000000 9.000000 2.880000 65.161835 -85.848289 11615.994141
1.000000 9.000000 2.920000 144.997772 -58.866776 24489.650391
1.000000 9.000000 2.960000 183.682037 33.857880 34885.445312
1.000000 9.000000 3.000000 138.507690 134.036682 37150.210938
1.000000 9.000000 3.040000 34.019871 170.895294 30362.552734
1.000000 9.000000 3.080000 -57.697403 123.967697 18696.980469
1.000000 9.000000 3.120000 -80.795815 39.084198 8055.538574
1.000000 9.000000 3.160000 -41.504295 -16.861267 2006.908936
1.000000 9.000000 3.200000 6.478877 -16.018841 298.579132
1.000000 9.040000 2.800000 15.694544 -0.009960 246.318817
1.000000 9.040000 2.840000 38.366344 -29.778072 2358.709961
1.000000 9.040000 2.880000 90.746132 -24.501207 8835.169922
1.000000 9.040000 2.920000 128.264496 33.053154 17544.292969
1.000000 9.040000 2.960000 107.838379 112.428581 24269.300781
1.000000 9.040000 3.000000 29.862633 157.071930 25563.369141
1.000000 9.040000 3.040000 -57.843601 133.144043 21073.218750
1.000000 9.040000 3.080000 -99.915108 59.389603 13510.153320
1.000000 9.040000 3.120000 -79.795387 -10.601372 6479.692871
1.000000 9.040000 3.160000 -29.100740 -35.842464 2131.535400
1.000000 9.040000 3.200000 6.279931 -19.361473 414.304169
1.000000 9.080000 2.800000 18.224274 8.220728 399.704529
1.000000 9.080000 2.840000 41.917820 6.252743 1796.200439
1.000000 9.080000 2.880000 63.380535 33.180347 5118.027832
1.000000 9.080000 2.920000 55.297852 78.103844 9158.062500
1.000000 9.080000 2.960000 9.920341 109.321327 12049.565430
1.000000 9.080000 3.000000 -50.395996 99.732849 12486.398438
1.000000 9.080000 3.040000 -89.167671 50.528847 10504.038086
1.000000 9.080000 3.080000 -84.834198 -8.861404 7275.365723
1.000000 9.080000 3.120000 -46.819016 -44.747314 4194.342285
1.000000 9.080000 3.160000 -4.872437 -45.062820 2054.398438
1.000000 9.080000 3.200000 16.936064 -24.374790 880.960632
1.000000 9.120000 2.800000 13.884951 20.779825 624.593018
1.000000 9.120000 2.840000 17.132645 32.437012 1345.687256
1.000000 9.120000 2.880000 7.862139 47.857094 2352.114746
1.000000 9.120000 2.920000 -14.530350 55.189381 3256.998779
1.000000 9.120000 2.960000 -40.948898 45.482883 3745.504883
1.000000 9.120000 3.000000 -57.949356 19.167652 3725.526855
1.000000 9.120000 3.040000 -56.036514 -13.663662 3326.786377
1.000000 9.120000 3.080000 -35.373501 -39.099739 2780.074219
1.000000 9.120000 3.120000 -5.393618 -47.344147 2270.559326
1.000000 9.120000 3.160000 20.984114 -37.697151 1861.408203
1.000000 9.120000 3.200000 34.645790 -17.807137 1517.424927
1.000000 9.160000 2.800000 -0.440250 27.681244 766.445129
1.000000 9.160000 2.840000 -16.149673 29.492334 1130.609741
1.000000 9.160000 2.880000 -30.426971 17.895138 1246.036621
1.000000 9.160000 2.920000 -33.386234 -0.725046 1115.166260
1.000000 9.160000 2.960000 -25.155567 -15.683594 878.777649
1.000000 9.160000 3.000000 -13.414272 -22.524902 687.313904
1.000000 9.160000 3.040000 -3.580856 -25.002861 637.965576
1.000000 9.160000 3.080000 6.338482 -27.342537 787.790649
1.000000 9.160000 3.120000 20.519753 -27.030022 1151.682373
1.000000 9.160000 3.160000 36.685356 -17.320967 1645.831177
1.000000 9.160000 3.200000 45.229649 3.280423 2056.482178
1.000000 9.200000 2.800000 -15.101089 20.766628 659.295776
1.000000 9.200000 2.840000 -30.392342 3.985922 939.582031
1.000000 9.200000 2.880000 -26.479626 -21.348946 1156.947998
1.000000 9.200000 2.920000 -4.215084 -35.388573 1270.118042
1.000000 9.200000 2.960000 19.106190 -28.820633 1195.675415
1.000000 9.200000 3.000000 27.608459 -11.475750 893.919922
1.000000 9.200000 3.040000 22.411943 -0.544622 502.591797
1.000000 9.200000 3.080000 18.241230 -1.776320 335.897766
1.000000 9.200000 3.120000 25.412151 -4.289225 664.174927
1.000000 9.200000 3.160000 37.531940 5.680736 1440.917358
1.000000 9.200000 3.200000 38.404816 27.881680 2252.317871
1.040000 8.800000 2.800000 -35.353348 -33.746590 2388.691406
1.040000 8.800000 2.840000 -14.646051 -27.551460 973.589783
1.040000 8.800000 2.880000 -10.703318 -14.278709 318.442566
1.040000 8.800000 2.920000 -17.888947 -11.575470 454.005920
1.040000 8.800000 2.960000 -18.420586 -21.607372 806.196533
1.040000 8.800000 3.000000 -3.124893 -28.601143 827.790344
1.040000 8.800000 3.040000 16.631672 -16.596970 552.071899
1.040000 8.800000 3.080000 19.589960 11.212761 509.492554
1.040000 8.800000 3.120000 -2.593025 32.977409 1094.233276
1.040000 8.800000 3.160000 -34.642570 29.144604 2049.515625
1.040000 8.800000 3.200000 -51.202190 2.390614 2627.379395
1.040000 8.840000 2.800000 -11.979267 -45.756042 2237.118408
1.040000 8.840000 2.840000 -13.056497 -27.527138 928.215393
1.040000 8.840000 2.880000 -30.955742 -30.744118 1903.458740
1.040000 8.840000 2.920000 -33.456791 -59.511745 4661.004883
1.040000 8.840000 2.960000 -1.226761 -84.833282 7198.190918
1.040000 8.840000 3.000000 47.894066 -73.250488 7659.475586
1.040000 8.840000 3.040000 73.000725 -23.305138 5872.235352
1.040000 8.840000 3.080000 50.153690 28.993256 3356.001465
1.040000 8.840000 3.120000 -2.565371 43.071526 1861.737549
1.040000 8.840000 3.160000 -41.373302 12.364964 1864.642456
1.040000 8.840000 3.200000 -38.274651 -30.628300 2403.041504
1.040000 8.880000 2.800000 11.832401 -39.173767 1674.589722
1.040000 8.880000 2.840000 -13.441986 -33.721970 1317.858276
1.040000 8.880000 2.880000 -28.433846 -68.757278 5536.046875
1.040000 8.880000 2.920000 4.521641 -113.732292 12955.479492
1.040000 8.880000 2.960000 76.018448 -116.337631 19313.248047
1.040000 8.880000 3.000000 132.039291 -56.361202 20610.960938
1.040000 8.880000 3.040000 123.952301 29.080345 16209.839844
1.040000 8.880000 3.080000 56.581009 77.178467 9157.925781
1.040000 8.880000 3.120000 -15.040648 57.682663 3553.510742
1.040000 8.880000 3.160000 -37.485382 -0.601192 1405.515381
1.040000 8.880000 3.200000 -7.060921 -40.717964 1707.809204
1.040000 8.920000 2.800000 23.443626 -21.959362 1031.817261
1.040000 8.920000 2.840000 -5.020000 -45.754108 2118.638916
1.040000 8.920000 2.880000 11.861055 -98.620506 9866.688477
1.040000 8.920000 2.920000 84.959694 -121.348480 21943.603516
1.040000 8.920000 2.960000 164.219574 -70.679749 31963.695312
1.040000 8.920000 3.000000 181.514999 32.456345 34001.109375
1.040000 8.920000 3.040000 116.112518 116.409790 27033.355469
1.040000 8.920000 3.080000 16.647961 123.419403 15509.502930
1.040000 8.920000 3.120000 -43.458340 61.698402 5695.320312
1.040000 8.920000 3.160000 -32.742172 -6.283742 1111.535156
1.040000 8.920000 3.200000 15.371937 -25.492075 886.142334
1.040000 8.960000 2.800000 22.913454 -6.818687 571.520874
1.040000 8.960000 2.840000 17.612568 -50.711380 2881.846680
1.040000 8.960000 2.880000 70.928795 -87.059464 12610.244141
1.040000 8.960000 2.920000 152.478241 -59.519028 26792.128906
1.040000 8.960000 2.960000 192.155823 35.908691 38213.292969
1.040000 8.960000 3.000000 145.441833 138.741974 40402.664062
1.040000 8.960000 3.040000 38.418121 175.691513 32343.458984
1.040000 8.960000 3.080000 -53.752621 126.836456 18976.830078
1.040000 8.960000 3.120000 -74.414551 41.241184 7238.360840
1.040000 8.960000 3.160000 -32.534760 -11.908945 1200.333618
1.040000 8.960000 3.200000 14.693446 -6.217323 254.552460
1.040000 9.000000 2.800000 19.017754 1.686454 364.519073
1.040000 9.000000 2.840000 43.590210 -34.673191 3102.336670
1.040000 9.000000 2.880000 106.213928 -30.484310 12210.691406
1.040000 9.000000 2.920000 152.862305 37.135845 24745.955078
1.040000 9.000000 2.960000 130.644653 131.956039 34480.421875
1.040000 9.000000 3.000000 39.993851 185.878754 36150.417969
1.040000 9.000000 3.040000 -61.497414 159.264191 29147.013672
1.040000 9.000000 3.080000 -108.976334 75.997643 17651.482422
1.040000 9.000000 3.120000 -85.650719 -0.394110 7336.200684
1.040000 9.000000 3.160000 -30.939587 -24.520668 1558.521240
1.040000 9.000000 3.200000 2.613112 -4.009079 22.901070
1.040000 9.040000 2.800000 16.870235 8.591913 358.425842
1.040000 9.040000 2.840000 51.757698 0.204120 2678.901123
1.040000 9.040000 2.880000 88.145447 35.860977 9055.628906
1.040000 9.040000 2.920000 82.814232 101.844376 17230.472656
1.040000 9.040000 2.960000 22.007812 150.860703 23243.294922
1.040000 9.040000 3.000000 -61.903522 142.314041 24085.333984
1.040000 9.040000 3.040000 -116.181091 78.468788 19655.396484
1.040000 9.040000 3.080000 -111.946823 2.035688 12536.234375
1.040000 9.040000 3.120000 -65.327339 -41.519482 5991.528320
1.040000 9.040000 3.160000 -17.769722 -40.164169 1928.923584
1.040000 9.040000 3.200000 2.284153 -17.384331 307.432312
1.040000 9.080000 2.800000 12.488276 18.289879 490.476685
1.040000 9.080000 2.840000 30.758196 32.376141 1994.281006
1.040000 9.080000 2.880000 28.854340 65.660431 5143.864746
1.040000 9.080000 2.920000 -4.860622 93.042007 8680.441406
1.040000 9.080000 2.960000 -55.860558 88.746231 10996.294922
1.040000 9.080000 3.000000 -93.782349 48.538853 11151.149414
1.040000 9.080000 3.040000 -96.451660 -6.553234 9345.868164
1.040000 9.080000 3.080000 -65.926239 -47.449730 6597.746094
1.040000 9.080000 3.120000 -23.652510 -58.641350 3998.249023
1.040000 9.080000 3.160000 8.343941 -45.626984 2151.442871
1.040000 9.080000 3.200000 22.122423 -24.781132 1103.506104
1.040000 9.120000 2.800000 0.408888 26.318995 692.856628
1.040000 9.120000 2.840000 -6.867709 38.337341 1516.917114
1.040000 9.120000 2.880000 -26.480198 42.103897 2473.938965
1.040000 9.120000 2.920000 -47.507816 29.631800 3135.036133
1.040000 9.120000 2.960000 -57.372505 4.635601 3313.093018
1.040000 9.120000 3.000000 -51.233131 -21.959606 3107.058105
1.040000 9.120000 3.040000 -32.899204 -40.876041 2753.208496
1.040000 9.120000 3.080000 -9.073425 -48.664280 2450.539307
1.040000 9.120000 3.120000 15.110635 -45.334328 2283.532471
1.040000 9.120000 3.160000 35.356583 -31.310770 2230.452148
1.040000 9.120000 3.200000 46.070549 -8.579633 2196.105713
1.040000 9.160000 2.800000 -15.889282 24.071133 831.888733
1.040000 9.160000 2.840000 -33.276516 15.245943 1339.765381
1.040000 9.160000 2.880000 -39.349552 -7.665520 1607.147461
1.040000 9.160000 2.920000 -26.597786 -29.325670 1567.437134
1.040000 9.160000 2.960000 -4.283967 -35.830009 1302.141968
1.040000 9.160000 3.000000 12.190556 -28.361626 952.991455
1.040000 9.160000 3.040000 17.789865 -19.554680 698.864807
1.040000 9.160000 3.080000 21.357489 -17.364662 757.673828
1.040000 9.160000 3.120000 32.418377 -15.486865 1290.794189
1.040000 9.160000 3.160000 47.096107 -1.709209 2220.964844
1.040000 9.160000 3.200000 50.068405 25.344973 3149.212891
1.040000 9.200000 2.800000 -24.977230 10.963371 744.057495
1.040000 9.200000 2.840000 -30.606201 -14.761744 1154.648682
1.040000 9.200000 2.880000 -11.194689 -38.765888 1628.115112
1.040000 9.200000 2.920000 21.516689 -39.791603 2046.339600
1.040000 9.200000 2.960000 42.918961 -17.153507 2136.280029
1.040000 9.200000 3.000000 40.417633 8.706202 1709.383057
1.040000 9.200000 3.040000 25.332016 18.094141 969.109009
1.040000 9.200000 3.080000 18.857876 12.444919 510.495483
1.040000 9.200000 3.120000 27.824123 10.915846 893.337524
1.040000 9.200000 3.160000 37.041168 27.258097 2115.052002
1.040000 9.200000 3.200000 26.668350 52.778225 3496.741943
1.080000 8.800000 2.800000 -13.985567 -44.981529 2218.934082
1.080000 8.800000 2.840000 1.512412 -32.749336 1074.806396
1.080000 8.800000 2.880000 1.875216 -20.171785 410.417328
1.080000 8.800000 2.920000 -3.029205 -18.539499 352.889130
1.080000 8.800000 2.960000 0.488091 -23.748163 564.213501
1.080000 8.800000 3.000000 13.908726 -21.334587 648.617249
1.080000 8.800000 3.040000 23.515772 -3.454613 564.925842
1.080000 8.800000 3.080000 14.541101 20.299095 623.496826
1.080000 8.800000 3.120000 -12.097876 30.543196 1079.245361
1.080000 8.800000 3.160000 -38.392426 17.071081 1765.400146
1.080000 8.800000 3.200000 -45.465378 -10.407352 2175.413574
1.080000 8.840000 2.800000 9.258874 -45.412613 2148.032227
1.080000 8.840000 2.840000 4.402148 -34.044655 1178.417480
1.080000 8.840000 2.880000 -2.956539 -42.542778 1818.629028
1.080000 8.840000 2.920000 9.947891 -60.538311 3763.847656
1.080000 8.840000 2.960000 43.691875 -60.855206 5612.335938
1.080000 8.840000 3.000000 72.054863 -28.761658 6019.136230
1.080000 8.840000 3.040000 66.525833 19.182983 4793.673340
1.080000 8.840000 3.080000 25.805256 47.775135 2948.375000
1.080000 8.840000 3.120000 -20.415497 35.976353 1711.090454
1.080000 8.840000 3.160000 -38.286335 -3.080318 1475.331909
1.080000 8.840000 3.200000 -20.573395 -35.132950 1657.588867
1.080000 8.880000 2.800000 26.114750 -31.518438 1675.392090
1.080000 8.880000 2.840000 10.687657 -39.228783 1653.123413
1.080000 8.880000 2.880000 20.068174 -67.577347 4969.429199
1.080000 8.880000 2.920000 64.840828 -79.540138 10530.966797
1.080000 8.880000 2.960000 114.655830 -45.085480 15178.659180
1.080000 8.880000 3.000000 124.173508 24.189339 16004.183594
1.080000 8.880000 3.040000 77.753586 80.814461 12576.597656
1.080000 8.880000 3.080000 7.364780 84.245773 7151.589844
1.080000 8.880000 3.120000 -35.648209 38.509079 2753.744141
1.080000 8.880000 3.160000 -27.262247 -12.946202 910.834229
1.080000 8.880000 3.200000 10.356759 -29.322838 967.091248
1.080000 8.920000 2.800000 30.152786 -13.507607 1091.645874
1.080000 8.920000 2.840000 26.130066 -41.554512 2409.557861
1.080000 8.920000 2.880000 65.234818 -65.988861 8610.111328
1.080000 8.920000 2.920000 126.039780 -42.900879 17726.511719
1.080000 8.920000 2.960000 154.709503 31.988937 24958.324219
1.080000 8.920000 3.000000 116.153488 112.017990 26039.664062
1.080000 8.920000 3.040000 30.720589 139.534866 20413.732422
1.080000 8.920000 3.080000 -41.850117 98.841904 11521.154297
1.080000 8.920000 3.120000 -56.273235 29.548183 4039.772217
1.080000 8.920000 3.160000 -20.175117 -12.260870 557.364319
1.080000 8.920000 3.200000 19.399393 -5.187357 403.245117
1.080000 8.960000 2.800000 25.511154 -0.424788 650.999390
1.080000 8.960000 2.840000 46.087475 -29.885265 3017.184570
1.080000 8.960000 2.880000 100.715126 -24.649740 10751.145508
1.080000 8.960000 2.920000 141.360031 36.862228 21341.482422
1.080000 8.960000 2.960000 120.156982 122.353081 29407.976562
1.080000 8.960000 3.000000 37.748878 170.229431 30403.037109
1.080000 8.960000 3.040000 -53.121597 145.176254 23898.048828
1.080000 8.960000 3.080000 -93.852798 70.192787 13735.375000
1.080000 8.960000 3.120000 -70.810738 3.786011 5028.494629
1.080000 8.960000 3.160000 -21.814945 -13.788805 666.023010
1.080000 8.960000 3.200000 4.890123 8.040060 88.555870
1.080000 9.000000 2.800000 19.449413 7.186858 429.930603
1.080000 9.000000 2.840000 55.194603 -1.827322 3049.783203
1.080000 9.000000 2.880000 94.253738 35.482800 10142.796875
1.080000 9.000000 2.920000 89.803902 105.852203 19269.429688
1.080000 9.000000 2.960000 26.385414 158.792191 25911.148438
1.080000 9.000000 3.000000 -61.318127 150.913788 26534.882812
1.080000 9.000000 3.040000 -117.090454 85.556229 21030.042969
1.080000 9.000000 3.080000 -111.748215 9.111124 12570.675781
1.080000 9.000000 3.120000 -64.877609 -31.198620 5182.458008
1.080000 9.000000 3.160000 -21.201645 -26.001652 1125.595581
1.080000 9.000000 3.200000 -8.182854 -3.309360 77.910950
1.080000 9.040000 2.800000 13.614950 13.742464 374.222168
1.080000 9.040000 2.840000 40.628063 28.769390 2478.317383
1.080000 9.040000 2.880000 44.256302 72.914352 7275.123047
1.080000 9.040000 2.920000 4.752428 113.746964 12960.958008
1.080000 9.040000 2.960000 -60.920174 114.490959 16819.447266
1.080000 9.040000 3.000000 -111.689133 67.394890 17016.533203
1.080000 9.040000 3.040000 -117.191765 0.652256 13734.335938
1.080000 9.040000 3.080000 -81.491409 -46.707680 8822.457031
1.080000 9.040000 3.120000 -34.897652 -56.531784 4413.688477
1.080000 9.040000 3.160000 -5.108788 -40.539097 1669.518066
1.080000 9.040000 3.200000 3.078947 -22.272350 505.537506
1.080000 9.080000 2.800000 4.321999 19.970663 417.507080
1.080000 9.080000 2.840000 6.968596 40.769169 1710.686401
1.080000 9.080000 2.880000 -14.972614 61.214394 3971.381104
1.080000 9.080000 2.920000 -52.762726 58.816742 6243.314453
1.080000 9.080000 2.960000 -82.301163 27.688963 7540.160156
1.080000 9.080000 3.000000 -84.668037 -16.616348 7444.779785
1.080000 9.080000 3.040000 -60.271400 -51.149765 6248.939941
1.080000 9.080000 3.080000 -24.869579 -63.297695 4625.094238
1.080000 9.080000 3.120000 5.446584 -56.002121 3165.902832
1.080000 9.080000 3.160000 24.332615 -39.255531 2133.072754
1.080000 9.080000 3.200000 33.067204 -20.012272 1493.930908
1.080000 9.120000 2.800000 -9.434250 20.716539 518.180115
1.080000 9.120000 2.840000 -24.095398 24.957439 1203.461914
1.080000 9.120000 2.880000 -41.720779 13.338625 1918.542358
1.080000 9.120000 2.920000 -47.194405 -10.785545 2343.639648
1.080000 9.120000 2.960000 -35.520386 -33.358635 2374.496338
1.080000 9.120000 3.000000 -14.794664 -43.801662 2137.467773
1.080000 9.120000 3.040000 4.380856 -43.113354 1877.953125
1.080000 9.120000 3.080000 19.428988 -37.976383 1819.691284
1.080000 9.120000 3.120000 34.078857 -29.922955 2056.751709
1.080000 9.120000 3.160000 47.997559 -13.864187 2495.981201
1.080000 9.120000 3.200000 52.263950 12.067334 2877.141113
1.080000 9.160000 2.800000 -21.383591 12.130028 604.395508
1.080000 9.160000 2.840000 -31.780075 -5.541416 1040.680420
1.080000 9.160000 2.880000 -23.347023 -29.910965 1439.749268
1.080000 9.160000 2.920000 2.417216 -41.305042 1711.949463
1.080000 9.160000 2.960000 27.374289 -31.254274 1726.181396
1.080000 9.160000 3.000000 35.863266 -11.168804 1410.916016
1.080000 9.160000 3.040000 30.835155 1.169538 952.174622
1.080000 9.160000 3.080000 28.476671 1.904431 814.547607
1.080000 9.160000 3.120000 37.458687 4.702983 1425.271240
1.080000 9.160000 3.160000 46.922607 23.074009 2734.141113
1.080000 9.160000 3.200000 37.852123 51.537544 4088.901611
1.080000 9.200000 2.800000 -23.762743 -1.039542 565.748596
1.080000 9.200000 2.840000 -15.501417 -26.009159 916.770325
1.080000 9.200000 2.880000 14.279125 -37.080460 1578.853882
1.080000 9.200000 2.920000 44.487701 -20.428715 2396.487793
1.080000 9.200000 2.960000 51.856491 12.336855 2841.293701
1.080000 9.200000 3.000000 34.846893 35.494785 2474.185791
1.080000 9.200000 3.040000 14.431152 35.957085 1501.170166
1.080000 9.200000 3.080000 10.503672 26.051916 789.029419
1.080000 9.200000 3.120000 19.915730 28.119383 1187.335938
1.080000 9.200000 3.160000 20.621138 47.951576 2724.584961
1.080000 9.200000 3.200000 -2.491657 66.733032 4459.505859
1.120000 8.800000 2.800000 5.339631 -40.770500 1690.745361
1.120000 8.800000 2.840000 16.084703 -27.196754 998.381104
1.120000 8.800000 2.880000 15.301186 -14.931841 457.086151
1.120000 8.800000 2.920000 10.969589 -10.656170 233.885834
1.120000 8.800000 2.960000 11.695978 -10.428093 245.541016
1.120000 8.800000 3.000000 16.945705 -5.022816 312.385590
1.120000 8.800000 3.040000 17.219696 8.696186 372.141602
1.120000 8.800000 3.080000 4.507366 22.511555 527.086426
1.120000 8.800000 3.120000 -17.722334 23.809361 880.966736
1.120000 8.800000 3.160000 -35.819084 8.144570 1349.340820
1.120000 8.800000 3.200000 -37.775490 -15.454029 1665.814697
1.120000 8.840000 2.800000 23.064262 -34.814003 1743.974976
1.120000 8.840000 2.840000 22.303162 -27.908953 1276.340698
1.120000 8.840000 2.880000 24.223011 -30.032194 1488.687012
1.120000 8.840000 2.920000 37.132721 -30.433414 2305.031738
1.120000 8.840000 2.960000 53.641899 -15.822281 3127.797852
1.120000 8.840000 3.000000 56.185211 13.303974 3333.773926
1.120000 8.840000 3.040000 34.892159 39.533493 2780.359863
1.120000 8.840000 3.080000 -0.316334 43.286659 1873.834961
1.120000 8.840000 3.120000 -26.629715 21.361881 1165.471680
1.120000 8.840000 3.160000 -28.203840 -9.406686 883.942322
1.120000 8.840000 3.200000 -9.562002 -27.275269 835.372131
1.120000 8.880000 2.800000 32.686584 -20.080990 1471.658936
1.120000 8.880000 2.840000 32.672894 -26.453827 1767.322876
1.120000 8.880000 2.880000 50.765652 -32.624546 3641.512207
1.120000 8.880000 2.920000 78.703339 -17.040516 6484.594727
1.120000 8.880000 2.960000 90.327469 23.824245 8726.646484
1.120000 8.880000 3.000000 66.846649 67.055557 8964.921875
1.120000 8.880000 3.040000 17.643322 81.938171 7025.150391
1.120000 8.880000 3.080000 -25.466698 58.312347 4048.882568
1.120000 8.880000 3.120000 -35.997284 16.372038 1563.848022
1.120000 8.880000 3.160000 -15.476221 -12.008519 383.717957
1.120000 8.880000 3.200000 10.791240 -11.735664 254.176666
1.120000 8.920000 2.800000 32.254887 -4.988955 1065.267334
1.120000 8.920000 2.840000 45.311790 -16.728794 2333.010986
1.120000 8.920000 2.880000 76.917465 -8.267343 5984.645508
1.120000 8.920000 2.920000 98.484673 33.344376 10811.078125
1.120000 8.920000 2.960000 80.993607 88.075546 14317.265625
1.120000 8.920000 3.000000 25.368559 117.484802 14446.242188
1.120000 8.920000 3.040000 -34.615723 99.515671 11101.617188
1.120000 8.920000 3.080000 -61.274574 49.244778 6179.621582
1.120000 8.920000 3.120000 -45.732048 4.838309 2114.829346
1.120000 8.920000 3.160000 -12.725845 -7.032462 211.402664
1.120000 8.920000 3.200000 5.650047 7.831139 93.249763
1.120000 8.960000 2.800000 26.230032 5.390087 717.067627
1.120000 8.960000 2.840000 51.336285 3.760468 2649.555176
1.120000 8.960000 2.880000 77.170563 34.905800 7173.710938
1.120000 8.960000 2.920000 69.997406 88.534370 12737.971680
1.120000 8.960000 2.960000 19.523977 127.177383 16555.273438
1.120000 8.960000 3.000000 -47.387154 119.398651 16501.580078
1.120000 8.960000 3.040000 -88.662209 69.179283 12646.760742
1.120000 8.960000 3.080000 -83.616005 12.334439 7143.774414
1.120000 8.960000 3.120000 -48.602276 -16.004793 2618.334473
1.120000 8.960000 3.160000 -17.993481 -10.402176 431.970612
1.120000 8.960000 3.200000 -11.575644 6.426641 175.297241
1.120000 9.000000 2.800000 18.993570 11.772499 499.347443
1.120000 9.000000 2.840000 41.313019 27.455551 2460.572754
1.120000 9.000000 2.880000 42.748993 68.177460 6475.642578
1.120000 9.000000 2.920000 5.834146 105.178513 11096.556641
1.120000 9.000000 2.960000 -53.828491 105.748093 14080.166016
1.120000 9.000000 3.000000 -99.112686 63.796879 13893.366211
1.120000 9.000000 3.040000 -103.564667 5.752393 10758.730469
1.120000 9.000000 3.080000 -72.721321 -33.383175 6402.827148
1.120000 9.000000 3.120000 -35.162151 -39.321964 2782.593750
1.120000 9.000000 3.160000 -14.762390 -25.371397 861.635925
1.120000 9.000000 3.200000 -12.595509 -13.703747 346.439514
1.120000 9.040000 2.800000 10.769357 16.283119 381.119019
1.120000 9.040000 2.840000 15.723455 39.715828 1824.574097
1.120000 9.040000 2.880000 -6.477467 65.819328 4374.141602
1.120000 9.040000 2.920000 -49.048458 68.163116 7051.961914
1.120000 9.040000 2.960000 -85.081375 37.313648 8631.148438
1.120000 9.040000 3.000000 -91.260620 -10.199345 8432.527344
1.120000 9.040000 3.040000 -67.089531 -47.148186 6723.957031
1.120000 9.040000 3.080000 -31.885609 -58.526711 4442.067871
1.120000 9.040000 3.120000 -5.364116 -49.852097 2514.005127
1.120000 9.040000 3.160000 7.212860 -35.865360 1338.349487
1.120000 9.040000 3.200000 12.430904 -24.806648 769.897217
1.120000 9.080000 2.800000 0.190784 17.844942 318.478363
1.120000 9.080000 2.840000 -11.807240 30.947975 1097.188110
1.120000 9.080000 2.880000 -36.574955 29.153631 2187.661621
1.120000 9.080000 2.920000 -55.840679 6.317577 3158.093262
1.120000 9.080000 2.960000 -54.560089 -25.571194 3630.689209
1.120000 9.080000 3.000000 -34.027008 -48.399864 3500.384277
1.120000 9.080000 3.040000 -7.821270 -53.970383 2973.974609
1.120000 9.080000 3.080000 12.692719 -47.313786 2399.699219
1.120000 9.080000 3.120000 26.328445 -36.519653 2026.872070
1.120000 9.080000 3.160000 36.453697 -23.157141 1865.125244
1.120000 9.080000 3.200000 41.481777 -4.639965 1742.267090
1.120000 9.120000 2.800000 -10.844664 13.483173 299.402679
1.120000 9.120000 2.840000 -24.234165 6.752876 632.896057
1.120000 9.120000 2.880000 -28.899237 -13.029137 1004.924316
1.120000 9.120000 2.920000 -16.332756 -32.558498 1326.814697
1.120000 9.120000 2.960000 5.998590 -37.994492 1479.564453
1.120000 9.120000 3.000000 23.358109 -29.168503 1396.402832
1.120000 9.120000 3.040000 29.863714 -17.537287 1199.397827
1.120000 9.120000 3.080000 32.786812 -11.025622 1196.539307
1.120000 9.120000 3.120000 40.327057 -4.542905 1646.909424
1.120000 9.120000 3.160000 48.238007 11.921563 2469.029053
1.120000 9.120000 3.200000 42.630962 37.166061 3198.715088
1.120000 9.160000 2.800000 -17.229717 3.605586 309.863403
1.120000 9.160000 2.840000 -16.038048 -15.278040 490.637451
1.120000 9.160000 2.880000 3.566488 -29.762354 898.517578
1.120000 9.160000 2.920000 30.242928 -24.335068 1506.830078
1.120000 9.160000 2.960000 44.113243 -1.552725 1948.389282
1.120000 9.160000 3.000000 37.931351 19.997463 1838.685913
1.120000 9.160000 3.040000 24.466597 26.045809 1276.998535
1.120000 9.160000 3.080000 21.013670 22.232864 935.874573
1.120000 9.160000 3.120000 28.423744 26.471298 1508.638916
1.120000 9.160000 3.160000 29.191557 46.183975 2985.106445
1.120000 9.160000 3.200000 8.003546 66.572853 4496.001465
1.120000 9.200000 2.800000 -16.256264 -6.255746 303.400482
1.120000 9.200000 2.840000 1.424364 -20.875740 437.825317
1.120000 9.200000 2.880000 29.319433 -15.263496 1092.603516
1.120000 9.200000 2.920000 44.830204 12.143220 2157.205078
1.120000 9.200000 2.960000 34.753574 41.621975 2940.199707
1.120000 9.200000 3.000000 9.723497 51.858944 2783.896484
1.120000 9.200000 3.040000 -7.148413 42.117538 1824.986938
1.120000 9.200000 3.080000 -5.522387 31.959335 1051.895874
1.120000 9.200000 3.120000 1.177199 38.246487 1464.179443
1.120000 9.200000 3.160000 -8.188891 54.938477 3085.294189
1.120000 9.200000 3.200000 -36.884617 58.800625 4817.988281
1.160000 8.800000 2.800000 14.475143 -29.070375 1054.616455
1.160000 8.800000 2.840000 22.452631 -15.363948 740.171509
1.160000 8.800000 2.880000 19.797777 -2.100724 396.365051
1.160000 8.800000 2.920000 11.926251 3.892138 157.384201
1.160000 8.800000 2.960000 6.747868 3.662045 58.944290
1.160000 8.800000 3.000000 6.541869 4.203653 60.466751
1.160000 8.800000 3.040000 5.670437 10.168297 135.548111
1.160000 8.800000 3.080000 -2.975363 17.723129 322.962097
1.160000 8.800000 3.120000 -19.150780 17.432945 670.659912
1.160000 8.800000 3.160000 -33.371368 3.854587 1128.505981
1.160000 8.800000 3.200000 -34.646927 -17.753378 1515.592041
1.160000 8.840000 2.800000 26.861965 -22.246067 1216.452637
1.160000 8.840000 2.840000 30.889088 -12.596987 1112.819824
1.160000 8.840000 2.880000 31.782282 -4.256323 1028.229736
1.160000 8.840000 2.920000 31.841232 3.888275 1028.982788
1.160000 8.840000 2.960000 29.738600 14.016905 1080.857910
1.160000 8.840000 3.000000 21.687279 24.904844 1090.589355
1.160000 8.840000 3.040000 6.367506 30.921919 996.710144
1.160000 8.840000 3.080000 -11.489641 26.318960 824.699524
1.160000 8.840000 3.120000 -23.155365 11.068036 658.672302
1.160000 8.840000 3.160000 -22.425056 -7.635345 561.181641
1.160000 8.840000 3.200000 -10.698778 -20.192421 522.197693
1.160000 8.880000 2.800000 32.800220 -10.012247 1176.099609
1.160000 8.880000 2.840000 39.084385 -3.571294 1540.343262
1.160000 8.880000 2.880000 45.695690 8.037412 2152.696289
1.160000 8.880000 2.920000 46.187447 26.480803 2834.513184
1.160000 8.880000 2.960000 34.060547 45.692467 3247.922363
1.160000 8.880000 3.000000 10.447868 54.901058 3123.284180
1.160000 8.880000 3.040000 -14.396486 47.466286 2460.307129
1.160000 8.880000 3.080000 -28.175884 27.238396 1535.810547
1.160000 8.880000 3.120000 -26.017508 6.056645 713.593628
1.160000 8.880000 3.160000 -13.611168 -5.494595 215.454453
1.160000 8.880000 3.200000 -1.432745 -5.558969 32.954899
1.160000 8.920000 2.800000 31.629036 2.291363 1005.646301
1.160000 8.920000 2.840000 41.513393 11.852465 1863.842773
1.160000 8.920000 2.880000 46.257591 32.774956 3213.962402
1.160000 8.920000 2.920000 34.735733 58.191998 4592.879883
1.160000 8.920000 2.960000 6.168493 72.763428 5332.566895
1.160000 8.920000 3.000000 -26.416813 65.653076 5008.174316
1.160000 8.920000 3.040000 -45.807877 40.659397 3751.548096
1.160000 8.920000 3.080000 -44.548935 13.399590 2164.156494
1.160000 8.920000 3.120000 -29.934179 -1.796781 899.283508
1.160000 8.920000 3.160000 -15.915402 -2.662607 260.389496
1.160000 8.920000 3.200000 -10.564130 2.231202 116.579102
1.160000 8.960000 2.800000 25.784782 11.608754 799.618164
1.160000 8.960000 2.840000 33.055832 28.363361 1897.168213
1.160000 8.960000 2.880000 25.467255 53.870670 3550.630127
1.160000 8.960000 2.920000 -2.065531 71.803894 5160.065918
1.160000 8.960000 2.960000 -37.854118 67.216713 5951.020508
1.160000 8.960000 3.000000 -62.013336 40.717377 5503.558594
1.160000 8.960000 3.040000 -63.174538 8.407902 4061.715088
1.160000 8.960000 3.080000 -47.018127 -12.167042 2358.741211
1.160000 8.960000 3.120000 -29.008400 -15.994326 1097.305664
1.160000 8.960000 3.160000 -19.762163 -11.401098 520.528137
1.160000 8.960000 3.200000 -17.826405 -8.857706 396.239655
1.160000 9.000000 2.800000 17.497122 17.448864 610.612122
1.160000 9.000000 2.840000 14.468472 36.893257 1570.449097
1.160000 9.000000 2.880000 -6.986352 53.608040 2922.631104
1.160000 9.000000 2.920000 -39.168777 51.303471 4166.239258
1.160000 9.000000 2.960000 -63.155865 27.019672 4718.726074
1.160000 9.000000 3.000000 -65.478241 -5.515908 4317.825195
1.160000 9.000000 3.040000 -49.131607 -28.360310 3218.221924
1.160000 9.000000 3.080000 -28.560085 -34.430286 2001.123047
1.160000 9.000000 3.120000 -15.212981 -30.287195 1148.749023
1.160000 9.000000 3.160000 -9.185406 -25.873734 753.821777
1.160000 9.000000 3.200000 -4.091892 -23.859892 586.038025
1.160000 9.040000 2.800000 7.754571 19.661407 446.704315
1.160000 9.040000 2.840000 -5.719335 31.329201 1014.229614
1.160000 9.040000 2.880000 -29.379032 29.440979 1729.898682
1.160000 9.040000 2.920000 -47.587109 9.260908 2350.297363
1.160000 9.040000 2.960000 -47.613853 -18.393900 2605.414551
1.160000 9.040000 3.000000 -31.271576 -37.565807 2389.101318
1.160000 9.040000 3.040000 -11.320994 -41.661373 1863.834961
1.160000 9.040000 3.080000 2.106411 -36.652882 1347.870728
1.160000 9.040000 3.120000 9.483578 -31.177406 1061.968872
1.160000 9.040000 3.160000 16.532497 -26.407846 970.697754
1.160000 9.040000 3.200000 23.814274 -17.388016 869.462708
1.160000 9.080000 2.800000 -2.155751 17.423685 308.232086
1.160000 9.080000 2.840000 -16.471581 14.631006 485.379303
1.160000 9.080000 2.880000 -26.410492 -1.633081 700.181030
1.160000 9.080000 2.920000 -21.302711 -22.230087 947.982300
1.160000 9.080000 2.960000 -3.794527 -33.260921 1120.687378
1.160000 9.080000 3.000000 13.501572 -30.316137 1101.360596
1.160000 9.080000 3.040000 21.930916 -21.324295 935.690613
1.160000 9.080000 3.080000 24.705868 -15.400907 847.567810
1.160000 9.080000 3.120000 29.835381 -11.712511 1027.332764
1.160000 9.080000 3.160000 37.393322 -2.052973 1402.475220
1.160000 9.080000 3.200000 37.450657 16.004631 1658.699951
1.160000 9.120000 2.800000 -9.624250 10.767881 208.573471
1.160000 9.120000 2.840000 -13.165903 -2.326049 178.751511
1.160000 9.120000 2.880000 -3.350986 -17.120461 304.339294
1.160000 9.120000 2.920000 16.216129 -20.175610 670.018066
1.160000 9.120000 2.960000 31.359327 -8.279100 1051.950928
1.160000 9.120000 3.000000 32.733597 7.610442 1129.407227
1.160000 9.120000 3.040000 25.893318 15.003032 895.554871
1.160000 9.120000 3.080000 23.673601 14.423016 768.462769
1.160000 9.120000 3.120000 29.461723 18.149940 1197.413574
1.160000 9.120000 3.160000 31.582357 33.784245 2138.820312
1.160000 9.120000 3.200000 16.790821 51.943008 2980.007812
1.160000 9.160000 2.800000 -12.405115 2.102729 158.308350
1.160000 9.160000 2.840000 -1.786027 -9.501869 93.475410
1.160000 9.160000 2.880000 18.575054 -9.006487 426.149414
1.160000 9.160000 2.920000 33.449226 8.474667 1190.670654
1.160000 9.160000 2.960000 30.415756 31.088936 1891.640137
1.160000 9.160000 3.000000 14.054328 41.920124 1954.820923
1.160000 9.160000 3.040000 1.270671 37.441586 1403.486938
1.160000 9.160000 3.080000 1.974802 31.274645 982.003235
1.160000 9.160000 3.120000 7.157889 37.751030 1476.375610
1.160000 9.160000 3.160000 -0.890103 53.525227 2865.742188
1.160000 9.160000 3.200000 -26.651447 59.065338 4199.013672
1.160000 9.200000 2.800000 -11.042827 -5.136685 148.329559
1.160000 9.200000 2.840000 6.496955 -6.365294 82.727386
1.160000 9.200000 2.880000 21.949652 9.630351 574.530884
1.160000 9.200000 2.920000 19.890472 34.461319 1583.213379
1.160000 9.200000 2.960000 0.025786 49.397808 2440.144287
1.160000 9.200000 3.000000 -21.118914 44.854385 2457.924316
1.160000 9.200000 3.040000 -27.602322 30.823910 1712.001587
1.160000 9.200000 3.080000 -21.529373 25.498302 1113.677368
1.160000 9.200000 3.120000 -20.345215 34.092827 1576.248535
1.160000 9.200000 3.160000 -36.041698 41.927490 3056.918457
1.160000 9.200000 3.200000 -59.424858 30.639229 4470.076172
1.200000 8.800000 2.800000 13.889420 -19.087654 557.254517
1.200000 8.800000 2.840000 19.183950 -5.130182 394.342712
1.200000 8.800000 2.880000 12.805046 7.480338 219.924667
1.200000 8.800000 2.920000 1.058409 10.336212 107.957512
1.200000 8.800000 2.960000 -5.695170 4.543577 53.079063
1.200000 8.800000 3.000000 -3.647354 -0.383856 13.450538
1.200000 8.800000 3.040000 0.150913 3.130813 9.824764
1.200000 8.800000 3.080000 -4.726090 11.597569 156.839539
1.200000 8.800000 3.120000 -19.881592 12.891092 561.457947
1.200000 8.800000 3.160000 -34.191422 -1.203728 1170.502319
1.200000 8.800000 3.200000 -33.306423 -24.940830 1731.362793
1.200000 8.840000 2.800000 23.753286 -13.859972 756.317444
1.200000 8.840000 2.840000 26.632917 1.343702 711.117859
1.200000 8.840000 2.880000 18.829411 13.240936 529.869080
1.200000 8.840000 2.920000 7.558963 15.788247 306.406677
1.200000 8.840000 2.960000 1.063058 11.835460 141.208206
1.200000 8.840000 3.000000 0.388099 9.208131 84.940292
1.200000 8.840000 3.040000 -0.913315 11.511807 133.355850
1.200000 8.840000 3.080000 -8.544924 13.680803 260.180115
1.200000 8.840000 3.120000 -19.579685 7.557693 440.482788
1.200000 8.840000 3.160000 -23.942835 -8.133980 639.420959
1.200000 8.840000 3.200000 -14.427771 -24.219017 794.721375
1.200000 8.880000 2.800000 29.406347 -3.722012 878.586670
1.200000 8.880000 2.840000 28.704323 13.370240 1002.701477
1.200000 8.880000 2.880000 17.735533 25.150042 947.073730
1.200000 8.880000 2.920000 4.235042 26.940403 743.720947
1.200000 8.880000 2.960000 -4.430770 22.079391 507.131256
1.200000 8.880000 3.000000 -7.534538 17.345383 357.631561
1.200000 8.880000 3.040000 -9.927117 15.502913 338.887970
1.200000 8.880000 3.080000 -15.108453 13.019115 397.762695
1.200000 8.880000 3.120000 -20.274426 5.286948 439.004150
1.200000 8.880000 3.160000 -18.988354 -6.581502 403.873749
1.200000 8.880000 3.200000 -8.720887 -15.182464 306.561066
1.200000 8.920000 2.800000 28.942940 8.129246 903.778442
1.200000 8.920000 2.840000 21.805862 25.636929 1132.747803
1.200000 8.920000 2.880000 5.484498 34.401497 1213.542725
1.200000 8.920000 2.920000 -10.716322 31.298233 1094.418945
1.200000 8.920000 2.960000 -19.296661 21.523577 835.625488
1.200000 8.920000 3.000000 -20.327927 13.036758 583.181702
1.200000 8.920000 3.040000 -19.553816 9.052872 464.306213
1.200000 8.920000 3.080000 -21.206341 6.242901 488.682709
1.200000 8.920000 3.120000 -23.369169 0.089816 546.126099
1.200000 8.920000 3.160000 -20.776947 -8.760638 508.430298
1.200000 8.920000 3.200000 -11.696690 -14.329452 342.145721
1.200000 8.960000 2.800000 22.453505 18.131632 832.915955
1.200000 8.960000 2.840000 7.715665 31.043526 1023.231995
1.200000 8.960000 2.880000 -12.092311 31.406149 1132.570190
1.200000 8.960000 2.920000 -26.076040 19.891941 1075.649170
1.200000 8.960000 2.960000 -28.566956 5.471199 846.004944
1.200000 8.960000 3.000000 -23.523525 -2.953913 562.081848
1.200000 8.960000 3.040000 -19.452206 -4.430788 398.020203
1.200000 8.960000 3.080000 -20.276255 -5.274317 438.944916
1.200000 8.960000 3.120000 -21.835571 -10.868196 594.909851
1.200000 8.960000 3.160000 -17.589626 -19.029587 671.520142
1.200000 8.960000 3.200000 -6.997363 -22.258036 544.383240
1.200000 9.000000 2.800000 11.938544 23.331741 686.899048
1.200000 9.000000 2.840000 -6.417506 26.025274 718.499268
1.200000 9.000000 2.880000 -22.462139 15.465781 743.738098
1.200000 9.000000 2.920000 -26.706532 -1.827068 716.577026
1.200000 9.000000 2.960000 -19.326559 -14.316453 578.476746
1.200000 9.000000 3.000000 -9.721108 -16.352034 361.888947
1.200000 9.000000 3.040000 -6.608775 -12.973475 211.986938
1.200000 9.000000 3.080000 -9.190273 -13.343258 262.503662
1.200000 9.000000 3.120000 -9.078662 -19.982988 481.741943
1.200000 9.000000 3.160000 -0.782116 -25.833023 667.956787
1.200000 9.000000 3.200000 11.085182 -22.463667 627.497620
1.200000 9.040000 2.800000 0.789348 22.459665 505.059631
1.200000 9.040000 2.840000 -12.992449 13.992665 364.598389
1.200000 9.040000 2.880000 -17.298756 -2.676763 306.412018
1.200000 9.040000 2.920000 -8.771072 -16.593857 352.287781
1.200000 9.040000 2.960000 4.730916 -18.917610 380.257538
1.200000 9.040000 3.000000 11.826827 -12.007610 284.056549
1.200000 9.040000 3.040000 9.497684 -6.512468 132.618256
1.200000 9.040000 3.080000 5.779782 -9.261343 119.178352
1.200000 9.040000 3.120000 9.894892 -15.421292 335.725128
1.200000 9.040000 3.160000 20.754168 -14.209824 632.654541
1.200000 9.040000 3.200000 27.206749 -2.008965 744.243164
1.200000 9.080000 2.800000 -7.586617 16.625828 333.974915
1.200000 9.080000 2.840000 -10.042070 3.044340 110.111183
1.200000 9.080000 2.880000 -0.991017 -9.437326 90.045250
1.200000 9.080000 2.920000 14.375873 -10.870222 324.827454
1.200000 9.080000 2.960000 24.063177 -0.806826 579.687439
1.200000 9.080000 3.000000 21.767590 10.289091 579.693359
1.200000 9.080000 3.040000 13.881585 12.187370 341.230408
1.200000 9.080000 3.080000 12.169311 6.439544 189.559845
1.200000 9.080000 3.120000 19.748978 4.665534 411.789337
1.200000 9.080000 3.160000 26.490589 14.611713 915.253540
1.200000 9.080000 3.200000 20.136171 29.635719 1283.741211
1.200000 9.120000 2.800000 -11.522142 8.698468 208.423126
1.200000 9.120000 2.840000 -2.817655 -0.724257 8.463730
1.200000 9.120000 2.880000 12.394421 -0.839919 154.327118
1.200000 9.120000 2.920000 23.147545 11.315334 663.845642
1.200000 9.120000 2.960000 20.677992 26.818146 1146.792236
1.200000 9.120000 3.000000 8.718344 33.158424 1175.490601
1.200000 9.120000 3.040000 0.226111 27.906416 778.819214
1.200000 9.120000 3.080000 2.878693 21.828709 484.779388
1.200000 9.120000 3.120000 9.591143 26.529097 795.782959
1.200000 9.120000 3.160000 5.961501 39.872719 1625.373291
1.200000 9.120000 3.200000 -12.498834 46.449028 2313.733154
1.200000 9.160000 2.800000 -11.741234 1.379905 139.760712
1.200000 9.160000 2.840000 1.191730 1.625797 4.063435
1.200000 9.160000 2.880000 11.867802 13.393643 320.234375
1.200000 9.160000 2.920000 10.086870 30.790726 1049.813721
1.200000 9.160000 2.960000 -4.054982 40.739967 1676.187866
1.200000 9.160000 3.000000 -18.488813 36.632050 1683.743286
1.200000 9.160000 3.040000 -21.592770 26.255871 1155.618408
1.200000 9.160000 3.080000 -15.490561 23.570747 795.537598
1.200000 9.160000 3.120000 -14.286840 32.318932 1248.627075
1.200000 9.160000 3.160000 -27.708477 40.198292 2383.662354
1.200000 9.160000 3.200000 -48.037334 31.710690 3313.153320
1.200000 9.200000 2.800000 -10.078139 -4.514607 121.950577
1.200000 9.200000 2.840000 -0.601885 3.448239 12.252617
1.200000 9.200000 2.880000 -0.060798 18.913189 357.712402
1.200000 9.200000 2.920000 -12.500033 30.799786 1104.877563
1.200000 9.200000 2.960000 -29.455708 29.287043 1725.369629
1.200000 9.200000 3.000000 -37.664955 17.192171 1714.219482
1.200000 9.200000 3.040000 -33.516365 7.786482 1183.975952
1.200000 9.200000 3.080000 -27.606466 10.065157 863.424377
1.200000 9.200000 3.120000 -32.866074 17.714050 1393.966431
1.200000 9.200000 3.160000 -48.707684 15.282226 2605.984863
1.200000 9.200000 3.200000 -59.517345 -3.971263 3558.085449
