#kx 	ky 	kz 	real 	imag 	intensity
7.800000 -2.200000 1.800000 -34.570122 29.524750 2066.804199
7.800000 -2.200000 1.840000 -38.205643 14.450697 1668.493774
7.800000 -2.200000 1.880000 -37.672405 3.784748 1433.534424
7.800000 -2.200000 1.920000 -37.308861 -6.551198 1434.869263
7.800000 -2.200000 1.960000 -32.618740 -20.165356 1470.623779
7.800000 -2.200000 2.000000 -17.569275 -31.290535 1287.776978
7.800000 -2.200000 2.040000 3.933018 -28.995052 856.181702
7.800000 -2.200000 2.080000 17.658943 -10.596020 424.113922
7.800000 -2.200000 2.120000 12.224684 11.820047 289.156403
7.800000 -2.200000 2.160000 -8.194241 20.938541 505.568085
7.800000 -2.200000 2.200000 -26.509800 10.756751 818.477173
7.800000 -2.160000 1.800000 -43.928177 1.190931 1931.103027
7.800000 -2.160000 1.840000 -37.147110 -10.273907 1485.460938
7.800000 -2.160000 1.880000 -30.972557 -16.355556 1226.803589
7.800000 -2.160000 1.920000 -25.740953 -22.132683 1152.452393
7.800000 -2.160000 1.960000 -17.261890 -27.621609 1060.926147
7.800000 -2.160000 2.000000 -5.346052 -27.417944 780.323914
7.800000 -2.160000 2.040000 3.198016 -18.861849 365.996643
7.800000 -2.160000 2.080000 1.678138 -7.946394 65.961319
7.800000 -2.160000 2.120000 -7.641239 -4.584063 79.402161
7.800000 -2.160000 2.160000 -14.331333 -11.824373 345.202911
7.800000 -2.160000 2.200000 -10.503071 -21.680706 580.367493
7.800000 -2.120000 1.800000 -30.108492 -25.070513 1535.052002
7.800000 -2.120000 1.840000 -18.103792 -26.600569 1035.337524
7.800000 -2.120000 1.880000 -10.994701 -24.205795 706.804016
7.800000 -2.120000 1.920000 -7.185476 -21.800213 526.880310
7.800000 -2.120000 1.960000 -4.955070 -19.396301 400.769226
7.800000 -2.120000 2.000000 -5.301506 -17.047665 318.728821
7.800000 -2.120000 2.040000 -8.501123 -17.916250 393.261139
7.800000 -2.120000 2.080000 -10.038006 -24.884514 720.000549
7.800000 -2.120000 2.120000 -3.266508 -34.472534 1199.025635
7.800000 -2.120000 2.160000 12.393217 -37.098606 1529.898315
7.800000 -2.120000 2.200000 27.498442 -26.010132 1432.691284
7.800000 -2.080000 1.800000 -3.724179 -31.959110 1035.254272
7.800000 -2.080000 1.840000 4.931145 -22.927532 549.987915
7.800000 -2.080000 1.880000 5.741045 -13.539204 216.269623
7.800000 -2.080000 1.920000 0.682745 -7.296282 53.701870
7.800000 -2.080000 1.960000 -8.275373 -7.037975 118.014900
7.800000 -2.080000 2.000000 -16.732212 -15.962244 534.760132
7.800000 -2.080000 2.040000 -16.281265 -33.332100 1376.108521
7.800000 -2.080000 2.080000 0.047878 -49.744694 2474.536865
7.800000 -2.080000 2.120000 28.530602 -50.720451 3386.559570
7.800000 -2.080000 2.160000 52.694069 -29.084543 3622.575439
7.800000 -2.080000 2.200000 54.584232 5.207079 3006.552246
7.800000 -2.040000 1.800000 15.204348 -18.251959 564.306152
7.800000 -2.040000 1.840000 14.053819 -4.731588 219.897751
7.800000 -2.040000 1.880000 4.827471 4.060525 39.792336
7.800000 -2.040000 1.920000 -9.277581 4.244835 104.092140
7.800000 -2.040000 1.960000 -22.354435 -7.838207 561.158264
7.800000 -2.040000 2.000000 -23.956390 -31.232277 1549.363770
7.800000 -2.040000 2.040000 -4.857090 -54.601490 3004.914062
7.800000 -2.040000 2.080000 31.706932 -59.381714 4531.517578
7.800000 -2.040000 2.120000 65.881058 -34.292549 5516.292969
7.800000 -2.040000 2.160000 73.240601 10.962046 5484.352051
7.800000 -2.040000 2.200000 45.550838 48.657349 4442.416504
7.800000 -2.000000 1.800000 14.821713 0.968740 220.621658
7.800000 -2.000000 1.840000 4.111077 9.984937 116.599915
7.800000 -2.000000 1.880000 -10.989428 9.828537 217.367645
7.800000 -2.000000 1.920000 -24.941181 -2.146694 626.670776
7.800000 -2.000000 1.960000 -28.561045 -25.611843 1471.699707
7.800000 -2.000000 2.000000 -12.019824 -51.345047 2780.790039
7.800000 -2.000000 2.040000 24.680178 -61.111580 4343.736328
7.800000 -2.000000 2.080000 64.144699 -39.921978 5708.306641
7.800000 -2.000000 2.120000 79.463737 7.670245 6373.317871
7.800000 -2.000000 2.160000 55.518703 54.756237 6080.572266
7.800000 -2.000000 2.200000 4.950498 70.432404 4985.230957
7.800000 -1.960000 1.800000 0.533800 8.697538 75.932114
7.800000 -1.960000 1.840000 -12.801601 7.483016 219.876526
7.800000 -1.960000 1.880000 -23.961853 -3.462378 586.158447
7.800000 -1.960000 1.920000 -26.727203 -22.937233 1240.459961
7.800000 -1.960000 1.960000 -13.978802 -44.890640 2210.576416
7.800000 -1.960000 2.000000 16.279552 -55.926182 3392.761719
7.800000 -1.960000 2.040000 52.819031 -41.670448 4526.276367
7.800000 -1.960000 2.080000 72.790802 -0.858410 5299.237793
7.800000 -1.960000 2.120000 57.659313 46.759556 5511.052734
7.800000 -1.960000 2.160000 11.438208 70.973343 5168.047852
7.800000 -1.960000 2.200000 -37.803963 54.865135 4439.322754
7.800000 -1.920000 1.800000 -12.089867 0.497854 146.412735
7.800000 -1.920000 1.840000 -19.340942 -9.478720 463.918182
7.800000 -1.920000 1.880000 -18.877920 -24.251575 944.514771
7.800000 -1.920000 1.920000 -7.932571 -38.898773 1576.040161
7.800000 -1.920000 1.960000 13.954128 -45.906448 2302.119873
7.800000 -1.920000 2.000000 40.793350 -36.272484 2979.790527
7.800000 -1.920000 2.040000 58.202816 -6.844769 3434.418701
7.800000 -1.920000 2.080000 50.829189 31.661186 3586.037109
7.800000 -1.920000 2.120000 16.290401 56.987514 3512.954102
7.800000 -1.920000 2.160000 -27.810022 50.883240 3362.501465
7.800000 -1.920000 2.200000 -54.223228 15.692577 3186.415527
7.800000 -1.880000 1.800000 -12.264217 -14.205736 352.213959
7.800000 -1.880000 1.840000 -9.049727 -25.698376 742.304077
7.800000 -1.880000 1.880000 2.172124 -33.958748 1157.914673
7.800000 -1.880000 1.920000 18.125685 -34.514320 1519.778687
7.800000 -1.880000 1.960000 33.903469 -24.934246 1771.161865
7.800000 -1.880000 2.000000 42.797043 -5.285750 1859.526123
7.800000 -1.880000 2.040000 37.465195 19.164650 1770.924683
7.800000 -1.880000 2.080000 15.383148 36.845444 1594.227905
7.800000 -1.880000 2.120000 -15.369705 35.608971 1504.226562
7.800000 -1.880000 2.160000 -38.033413 13.061460 1617.142212
7.800000 -1.880000 2.200000 -38.776566 -18.423803 1843.058594
7.800000 -1.840000 1.800000 -1.896562 -23.233124 543.374939
7.800000 -1.840000 1.840000 9.329818 -28.809402 917.027222
7.800000 -1.840000 1.880000 22.951927 -25.197609 1161.710449
7.800000 -1.840000 1.920000 31.747280 -13.304104 1184.888916
7.800000 -1.840000 1.960000 31.785934 1.716048 1013.290466
7.800000 -1.840000 2.000000 23.187347 14.275373 741.439331
7.800000 -1.840000 2.040000 8.582495 20.082539 476.967560
7.800000 -1.840000 2.080000 -7.511875 16.350178 323.756592
7.800000 -1.840000 2.120000 -18.767122 3.154918 362.158356
7.800000 -1.840000 2.160000 -19.424248 -14.535343 588.577576
7.800000 -1.840000 2.200000 -8.928948 -28.066370 867.447266
7.800000 -1.800000 1.800000 9.524931 -22.686058 605.381531
7.800000 -1.800000 1.840000 22.366287 -19.806522 892.549133
7.800000 -1.800000 1.880000 29.965702 -7.470846 953.756836
7.800000 -1.800000 1.920000 26.454741 6.920666 747.748901
7.800000 -1.800000 1.960000 14.193225 14.399927 408.805542
7.800000 -1.800000 2.000000 1.128127 11.480640 133.077774
7.800000 -1.800000 2.040000 -5.809055 1.589843 36.272728
7.800000 -1.800000 2.080000 -4.873146 -8.937108 103.619453
7.800000 -1.800000 2.120000 1.164843 -15.480698 241.008850
7.800000 -1.800000 2.160000 8.112185 -16.933559 352.552979
7.800000 -1.800000 2.200000 12.764359 -14.980937 387.357361
7.840000 -2.200000 1.800000 -53.799164 21.313232 3348.604004
7.840000 -2.200000 1.840000 -57.832504 0.202284 3344.639648
7.840000 -2.200000 1.880000 -52.397579 -20.176374 3152.592529
7.840000 -2.200000 1.920000 -38.268658 -36.515797 2797.893555
7.840000 -2.200000 1.960000 -16.829388 -44.085327 2226.744385
7.840000 -2.200000 2.000000 5.930149 -37.744499 1459.813843
7.840000 -2.200000 2.040000 19.208889 -18.173862 699.270691
7.840000 -2.200000 2.080000 14.879337 4.174969 238.825043
7.840000 -2.200000 2.120000 -3.693142 14.751097 231.234146
7.840000 -2.200000 2.160000 -22.043777 7.039319 535.480164
7.840000 -2.200000 2.200000 -26.287498 -10.865005 809.080933
7.840000 -2.160000 1.800000 -50.568844 -16.455284 2827.984375
7.840000 -2.160000 1.840000 -39.028019 -31.047623 2487.141113
7.840000 -2.160000 1.880000 -23.024452 -37.982693 1972.810303
7.840000 -2.160000 1.920000 -6.917503 -36.373501 1370.883423
7.840000 -2.160000 1.960000 4.735870 -27.189226 761.682495
7.840000 -2.160000 2.000000 7.799877 -14.301649 265.375244
7.840000 -2.160000 2.040000 1.463955 -4.616035 23.450949
7.840000 -2.160000 2.080000 -9.047577 -4.392229 101.150330
7.840000 -2.160000 2.120000 -14.615070 -13.581182 398.048798
7.840000 -2.160000 2.160000 -9.412298 -24.254436 676.869080
7.840000 -2.160000 2.200000 3.157968 -26.633839 719.334167
7.840000 -2.120000 1.800000 -20.576223 -38.532700 1908.149902
7.840000 -2.120000 1.840000 -2.458796 -35.425694 1261.025391
7.840000 -2.120000 1.880000 9.036591 -22.471874 586.645081
7.840000 -2.120000 1.920000 8.395424 -6.410499 111.577637
7.840000 -2.120000 1.960000 -3.774204 3.082970 23.749319
7.840000 -2.120000 2.000000 -19.377588 -1.158058 376.832031
7.840000 -2.120000 2.040000 -26.502356 -18.032021 1027.528687
7.840000 -2.120000 2.080000 -17.372416 -36.996986 1670.577759
7.840000 -2.120000 2.120000 4.801161 -44.270679 1982.944214
7.840000 -2.120000 2.160000 26.547112 -33.170616 1805.038940
7.840000 -2.120000 2.200000 33.627190 -10.278116 1236.427490
7.840000 -2.080000 1.800000 12.683254 -30.242910 1075.498535
7.840000 -2.080000 1.840000 21.491161 -9.137318 545.360596
7.840000 -2.080000 1.880000 12.269510 14.101969 349.406403
7.840000 -2.080000 1.920000 -13.689051 24.355659 780.588257
7.840000 -2.080000 1.960000 -42.227409 10.446571 1892.284912
7.840000 -2.080000 2.000000 -52.848114 -24.109245 3374.178711
7.840000 -2.080000 2.040000 -33.403694 -59.413197 4645.734863
7.840000 -2.080000 2.080000 8.208920 -71.328247 5155.104980
7.840000 -2.080000 2.120000 47.010815 -49.824593 4692.506836
7.840000 -2.080000 2.160000 58.617867 -8.207226 3503.412842
7.840000 -2.080000 2.200000 38.021996 26.078667 2125.769043
7.840000 -2.040000 1.800000 24.325968 -2.620033 598.617249
7.840000 -2.040000 1.840000 12.804937 23.592382 720.566956
7.840000 -2.040000 1.880000 -19.314732 36.514618 1706.376221
7.840000 -2.040000 1.920000 -57.514702 20.279436 3719.196533
7.840000 -2.040000 1.960000 -75.824913 -24.842140 6366.549316
7.840000 -2.040000 2.000000 -54.629498 -75.882683 8742.563477
7.840000 -2.040000 2.040000 0.826694 -99.362213 9873.533203
7.840000 -2.040000 2.080000 59.088680 -76.196625 9297.398438
7.840000 -2.040000 2.120000 83.609398 -18.985184 7350.968262
7.840000 -2.040000 2.160000 60.751537 35.318855 4938.170898
7.840000 -2.040000 2.200000 10.585833 53.342323 2957.463379
7.840000 -2.000000 1.800000 9.883941 18.672171 446.342255
7.840000 -2.000000 1.840000 -18.801434 32.806274 1429.745483
7.840000 -2.000000 1.880000 -57.780544 20.457285 3757.091797
7.840000 -2.000000 1.920000 -82.072853 -23.810621 7302.898926
7.840000 -2.000000 1.960000 -66.803528 -81.557571 11114.349609
7.840000 -2.000000 2.000000 -9.340466 -116.854462 13742.208984
7.840000 -2.000000 2.040000 61.527016 -101.345779 14056.541016
7.840000 -2.000000 2.080000 102.254639 -39.150345 11988.759766
7.840000 -2.000000 2.120000 87.096085 31.891907 8602.821289
7.840000 -2.000000 2.160000 29.301483 67.359413 5395.867188
7.840000 -2.000000 2.200000 -28.946159 50.236366 3361.572510
7.840000 -1.960000 1.800000 -12.901824 16.950424 453.773956
7.840000 -1.960000 1.840000 -43.370464 10.766356 1996.911621
7.840000 -1.960000 1.880000 -67.202194 -22.986313 5044.505371
7.840000 -1.960000 1.920000 -60.393162 -74.496857 9197.115234
7.840000 -1.960000 1.960000 -12.905715 -114.026802 13168.668945
7.840000 -1.960000 2.000000 56.579479 -110.149261 15334.096680
7.840000 -1.960000 2.040000 107.614037 -56.009331 14717.826172
7.840000 -1.960000 2.080000 106.342537 19.648165 11694.786133
7.840000 -1.960000 2.120000 53.307804 70.391403 7796.671875
7.840000 -1.960000 2.160000 -14.731567 66.993912 4705.203125
7.840000 -1.960000 2.200000 -52.990372 19.776947 3199.107178
7.840000 -1.920000 1.800000 -22.378178 -2.469338 506.880463
7.840000 -1.920000 1.840000 -39.190399 -22.190313 2028.297363
7.840000 -1.920000 1.880000 -37.935349 -57.800964 4780.041992
7.840000 -1.920000 1.920000 -6.470578 -90.687607 8266.110352
7.840000 -1.920000 1.960000 47.816051 -94.934692 11298.970703
7.840000 -1.920000 2.000000 96.330406 -57.291103 12561.817383
7.840000 -1.920000 2.040000 106.756020 7.465570 11452.582031
7.840000 -1.920000 2.080000 68.659981 62.133728 8574.792969
7.840000 -1.920000 2.120000 5.019157 73.287422 5396.238281
7.840000 -1.920000 2.160000 -43.172615 37.503349 3270.375977
7.840000 -1.920000 2.200000 -48.222008 -15.889786 2577.847412
7.840000 -1.880000 1.800000 -12.097651 -20.669998 573.601929
7.840000 -1.880000 1.840000 -11.505350 -38.608868 1623.017700
7.840000 -1.880000 1.880000 5.597826 -57.571140 3345.771973
7.840000 -1.880000 1.920000 38.360756 -62.297058 5352.470703
7.840000 -1.880000 1.960000 72.171982 -41.113678 6899.129395
7.840000 -1.880000 2.000000 85.195053 2.188377 7262.986328
7.840000 -1.880000 2.040000 64.251709 45.973076 6241.805664
7.840000 -1.880000 2.080000 17.914928 63.679462 4376.018555
7.840000 -1.880000 2.120000 -26.395405 44.037060 2635.979980
7.840000 -1.880000 2.160000 -41.892773 1.341717 1756.804565
7.840000 -1.880000 2.200000 -23.038843 -34.926949 1750.679932
7.840000 -1.840000 1.800000 6.975210 -24.050005 627.056274
7.840000 -1.840000 1.840000 15.881374 -29.265074 1108.662598
7.840000 -1.840000 1.880000 30.361279 -28.605206 1740.065063
7.840000 -1.840000 1.920000 45.155113 -17.376160 2340.915283
7.840000 -1.840000 1.960000 51.402367 4.047829 2658.588379
7.840000 -1.840000 2.000000 41.749565 27.562069 2502.693848
7.840000 -1.840000 2.040000 17.184166 40.161697 1908.257446
7.840000 -1.840000 2.080000 -10.530972 32.657352 1177.404053
7.840000 -1.840000 2.120000 -25.307287 8.100027 706.069214
7.840000 -1.840000 2.160000 -18.684042 -18.533178 692.572144
7.840000 -1.840000 2.200000 2.979611 -31.129555 977.927307
7.840000 -1.800000 1.800000 20.166248 -14.420380 614.624939
7.840000 -1.800000 1.840000 25.064516 -7.927934 691.082092
7.840000 -1.800000 1.880000 25.826902 0.570086 667.353882
7.840000 -1.800000 1.920000 22.127504 8.123550 555.618530
7.840000 -1.800000 1.960000 15.314219 12.653477 394.635803
7.840000 -1.800000 2.000000 7.137608 13.084572 222.151459
7.840000 -1.800000 2.040000 -0.273964 8.844402 78.298508
7.840000 -1.800000 2.080000 -4.024023 0.557365 16.503418
7.840000 -1.800000 2.120000 -1.695691 -8.757332 79.566231
7.840000 -1.800000 2.160000 6.130220 -14.511533 248.164185
7.840000 -1.800000 2.200000 15.202093 -14.004625 427.233154
7.880000 -2.200000 1.800000 -64.515381 -4.035894 4178.522949
7.880000 -2.200000 1.840000 -61.154137 -31.236509 4715.547852
7.880000 -2.200000 1.880000 -42.089626 -53.356461 4618.448242
7.880000 -2.200000 1.920000 -13.228086 -60.888336 3882.371582
7.880000 -2.200000 1.960000 13.950947 -50.035976 2698.227783
7.880000 -2.200000 2.000000 27.381762 -25.973232 1424.369629
7.880000 -2.200000 2.040000 21.564417 -1.727345 468.007812
7.880000 -2.200000 2.080000 2.424881 9.023209 87.298347
7.880000 -2.200000 2.120000 -15.431421 1.539256 240.498077
7.880000 -2.200000 2.160000 -19.031784 -15.796231 611.729736
7.880000 -2.200000 2.200000 -7.266061 -27.798630 825.559448
7.880000 -2.160000 1.800000 -40.840088 -38.732845 3168.145996
7.880000 -2.160000 1.840000 -21.046497 -50.048801 2947.837646
7.880000 -2.160000 1.880000 2.118645 -46.931015 2207.009033
7.880000 -2.160000 1.920000 17.259323 -30.479889 1226.907837
7.880000 -2.160000 1.960000 17.084236 -10.239357 396.715546
7.880000 -2.160000 2.000000 3.747950 1.582466 16.551325
7.880000 -2.160000 2.040000 -12.039073 -1.686680 147.784180
7.880000 -2.160000 2.080000 -18.102699 -16.316822 593.946411
7.880000 -2.160000 2.120000 -9.460190 -30.566877 1023.829163
7.880000 -2.160000 2.160000 7.909088 -33.193329 1164.350830
7.880000 -2.160000 2.200000 21.558578 -22.002489 948.881836
7.880000 -2.120000 1.800000 -0.379681 -41.985168 1762.898560
7.880000 -2.120000 1.840000 17.634140 -27.222134 1052.007446
7.880000 -2.120000 1.880000 19.682060 -1.977501 391.294006
7.880000 -2.120000 1.920000 0.863117 17.292740 299.783813
7.880000 -2.120000 1.960000 -27.831848 14.889587 996.311584
7.880000 -2.120000 2.000000 -45.712341 -10.550133 2200.923340
7.880000 -2.120000 2.040000 -37.961567 -43.004120 3290.435059
7.880000 -2.120000 2.080000 -7.764603 -60.296844 3695.998535
7.880000 -2.120000 2.120000 25.621613 -50.897358 3247.008057
7.880000 -2.120000 2.160000 41.566185 -22.350018 2227.270996
7.880000 -2.120000 2.200000 33.334030 5.441633 1140.768921
7.880000 -2.080000 1.800000 24.414848 -14.090527 794.627808
7.880000 -2.080000 1.840000 19.302689 17.802324 689.516541
7.880000 -2.080000 1.880000 -13.647614 39.870377 1775.904297
7.880000 -2.080000 1.920000 -59.427990 29.031109 4374.491211
7.880000 -2.080000 1.960000 -86.477219 -17.562428 7786.748535
7.880000 -2.080000 2.000000 -70.501099 -74.593948 10534.662109
7.880000 -2.080000 2.040000 -16.237633 -104.888847 11265.331055
7.880000 -2.080000 2.080000 43.394131 -88.107254 9645.938477
7.880000 -2.080000 2.120000 71.913559 -37.094875 6547.589844
7.880000 -2.080000 2.160000 57.006828 12.759277 3412.577637
7.880000 -2.080000 2.200000 17.692516 31.834360 1326.451660
7.880000 -2.040000 1.800000 16.333652 18.192003 597.737183
7.880000 -2.040000 1.840000 -18.461893 43.409668 2225.240723
7.880000 -2.040000 1.880000 -73.270332 33.689377 6503.515625
7.880000 -2.040000 1.920000 -111.923416 -22.212875 13020.263672
7.880000 -2.040000 1.960000 -98.276924 -99.409683 19540.638672
7.880000 -2.040000 2.000000 -28.810780 -149.231247 23100.025391
7.880000 -2.040000 2.040000 58.331551 -136.012177 21901.882812
7.880000 -2.040000 2.080000 109.765274 -67.235397 16569.013672
7.880000 -2.040000 2.120000 98.007263 10.914081 9724.541016
7.880000 -2.040000 2.160000 41.567047 50.039505 4231.771484
7.880000 -2.040000 2.200000 -13.243049 36.208073 1486.402832
7.880000 -2.000000 1.800000 -12.053491 27.062695 877.676086
7.880000 -2.000000 1.840000 -61.470493 25.217121 4414.524902
7.880000 -2.000000 1.880000 -105.924332 -23.428476 11768.857422
7.880000 -2.000000 1.920000 -103.108200 -104.847809 21624.363281
7.880000 -2.000000 1.960000 -35.566811 -170.416687 30306.845703
7.880000 -2.000000 2.000000 66.562386 -171.190887 33736.871094
7.880000 -2.000000 2.040000 142.253708 -99.362930 30109.109375
7.880000 -2.000000 2.080000 145.699005 1.104983 21229.419922
7.880000 -2.000000 2.120000 82.602913 67.244980 11345.128906
7.880000 -2.000000 2.160000 4.013731 65.925255 4362.249023
7.880000 -2.000000 2.200000 -36.655941 16.142096 1604.225220
7.880000 -1.960000 1.800000 -32.344067 8.427879 1117.167847
7.880000 -1.960000 1.840000 -71.341644 -21.158150 5537.297852
7.880000 -1.960000 1.880000 -80.069977 -87.353477 14041.831055
7.880000 -1.960000 1.920000 -30.483860 -154.485352 24794.990234
7.880000 -1.960000 1.960000 64.781021 -171.496033 33607.468750
7.880000 -1.960000 2.000000 152.503174 -113.952667 36242.429688
7.880000 -1.960000 2.040000 176.492462 -9.853997 31246.691406
7.880000 -1.960000 2.080000 122.870178 77.453430 21096.115234
7.880000 -1.960000 2.120000 32.343864 97.759964 10603.136719
7.880000 -1.960000 2.160000 -32.819679 52.077717 3789.219971
7.880000 -1.960000 2.200000 -38.163208 -12.879528 1622.312622
7.880000 -1.920000 1.800000 -27.351202 -17.525249 1055.222656
7.880000 -1.920000 1.840000 -40.921574 -56.366337 4851.739258
7.880000 -1.920000 1.880000 -15.498692 -108.224838 11952.824219
7.880000 -1.920000 1.920000 53.270706 -133.550537 20673.513672
7.880000 -1.920000 1.960000 132.169983 -100.249474 27518.861328
7.880000 -1.920000 2.000000 170.032959 -15.099457 29139.201172
7.880000 -1.920000 2.040000 138.062439 74.428467 24600.832031
7.880000 -1.920000 2.080000 55.875008 114.199188 16163.471680
7.880000 -1.920000 2.120000 -21.940365 85.758278 7835.861816
7.880000 -1.920000 2.160000 -48.780647 19.624325 2764.665527
7.880000 -1.920000 2.200000 -20.896393 -32.237766 1475.932861
7.880000 -1.880000 1.800000 -4.350648 -27.898886 797.276001
7.880000 -1.880000 1.840000 2.159514 -54.947659 3023.908691
7.880000 -1.880000 1.880000 37.360043 -76.093033 7185.922363
7.880000 -1.880000 1.920000 89.679260 -64.693420 12227.608398
7.880000 -1.880000 1.960000 126.146957 -12.586891 16071.484375
7.880000 -1.880000 2.000000 116.553955 56.717201 16801.664062
7.880000 -1.880000 2.040000 60.325516 101.662071 13974.344727
7.880000 -1.880000 2.080000 -9.018669 94.544670 9020.030273
7.880000 -1.880000 2.120000 -48.529564 44.366608 4323.514648
7.880000 -1.880000 2.160000 -39.265793 -10.536474 1652.819824
7.880000 -1.880000 2.200000 0.900232 -34.085239 1162.614014
7.880000 -1.840000 1.800000 16.033951 -17.529305 564.364136
7.880000 -1.840000 1.840000 24.873024 -25.967705 1292.989014
7.880000 -1.840000 1.880000 45.754646 -25.458447 2741.620117
7.880000 -1.840000 1.920000 66.904915 -5.270382 4504.044434
7.880000 -1.840000 1.960000 69.663483 30.824112 5803.126953
7.880000 -1.840000 2.000000 44.406971 63.075027 5950.437988
7.880000 -1.840000 2.040000 1.788383 69.533684 4838.131348
7.880000 -1.840000 2.080000 -32.752899 44.543068 3056.837402
7.880000 -1.840000 2.120000 -38.439354 5.002464 1502.608643
7.880000 -1.840000 2.160000 -15.806087 -22.598392 760.519775
7.880000 -1.840000 2.200000 14.732209 -23.399038 764.552979
7.880000 -1.800000 1.800000 20.851162 0.766662 435.358734
7.880000 -1.800000 1.840000 19.044067 1.513568 364.967407
7.880000 -1.800000 1.880000 20.856037 2.686596 442.192078
7.880000 -1.800000 1.920000 23.319027 8.552322 616.919250
7.880000 -1.800000 1.960000 20.275940 18.272673 745.004272
7.880000 -1.800000 2.000000 8.889309 24.944613 701.253540
7.880000 -1.800000 2.040000 -5.859749 21.367966 490.926636
7.880000 -1.800000 2.080000 -14.122211 7.531349 256.158081
7.880000 -1.800000 2.120000 -9.710388 -7.998669 158.270340
7.880000 -1.800000 2.160000 4.021147 -14.969707 240.261765
7.880000 -1.800000 2.200000 17.097744 -10.220976 396.801208
7.920000 -2.200000 1.800000 -52.570290 -33.985912 3918.677490
7.920000 -2.200000 1.840000 -36.882477 -58.963657 4837.030273
7.920000 -2.200000 1.880000 -6.653248 -69.782784 4913.902344
7.920000 -2.200000 1.920000 24.252426 -59.085831 4079.315674
7.920000 -2.200000 1.960000 40.281940 -32.133446 2655.193115
7.920000 -2.200000 2.000000 34.456108 -4.319717 1205.883301
7.920000 -2.200000 2.040000 13.589911 8.654186 259.580627
7.920000 -2.200000 2.080000 -6.045975 1.612814 39.154980
7.920000 -2.200000 2.120000 -10.277302 -16.343794 372.742523
7.920000 -2.200000 2.160000 2.474934 -28.826227 837.076660
7.920000 -2.200000 2.200000 20.360893 -25.050907 1042.114014
7.920000 -2.160000 1.800000 -14.840490 -48.841339 2605.716553
7.920000 -2.160000 1.840000 8.561916 -49.152508 2489.275391
7.920000 -2.160000 1.880000 26.790913 -32.392349 1767.017334
7.920000 -2.160000 1.920000 27.618835 -8.031849 827.310669
7.920000 -2.160000 1.960000 10.904818 7.743126 178.871048
7.920000 -2.160000 2.000000 -10.474699 4.436127 129.398544
7.920000 -2.160000 2.040000 -20.107460 -14.483669 614.086609
7.920000 -2.160000 2.080000 -10.407028 -34.133049 1273.371338
7.920000 -2.160000 2.120000 11.930347 -39.464157 1699.752930
7.920000 -2.160000 2.160000 31.377930 -26.328140 1677.745361
7.920000 -2.160000 2.200000 35.390572 -3.879865 1267.545898
7.920000 -2.120000 1.800000 17.885103 -28.220417 1116.268799
7.920000 -2.120000 1.840000 24.404125 -3.772015 609.789429
7.920000 -2.120000 1.880000 7.080379 20.918556 487.717773
7.920000 -2.120000 1.920000 -27.513472 23.866692 1326.610107
7.920000 -2.120000 1.960000 -55.356773 -3.451202 3076.283203
7.920000 -2.120000 2.000000 -53.518784 -46.027802 4982.818848
7.920000 -2.120000 2.040000 -19.616692 -75.417564 6072.623535
7.920000 -2.120000 2.080000 25.356377 -71.877251 5809.285156
7.920000 -2.120000 2.120000 53.473724 -39.355911 4408.327148
7.920000 -2.120000 2.160000 51.072960 -0.859835 2609.186523
7.920000 -2.120000 2.200000 26.853718 20.615723 1146.130127
7.920000 -2.080000 1.800000 19.058037 7.601164 420.986450
7.920000 -2.080000 1.840000 -7.858419 35.103321 1293.997925
7.920000 -2.080000 1.880000 -58.123619 32.974815 4465.693359
7.920000 -2.080000 1.920000 -98.327118 -13.516853 9850.926758
7.920000 -2.080000 1.960000 -92.411324 -83.903893 15579.715820
7.920000 -2.080000 2.000000 -34.063431 -133.398376 18955.443359
7.920000 -2.080000 2.040000 43.851830 -127.757004 18244.833984
7.920000 -2.080000 2.080000 93.577789 -71.531990 13873.628906
7.920000 -2.080000 2.120000 89.751236 -3.972464 8071.064453
7.920000 -2.080000 2.160000 46.790474 33.444771 3307.901123
7.920000 -2.080000 2.200000 2.533181 28.330893 809.056458
7.920000 -2.040000 1.800000 -8.451032 25.905724 742.526428
7.920000 -2.040000 1.840000 -61.215572 28.332466 4550.074707
7.920000 -2.040000 1.880000 -112.287498 -20.951778 13047.458984
7.920000 -2.040000 1.920000 -113.551941 -108.524307 24671.568359
7.920000 -2.040000 1.960000 -44.386002 -181.313980 34844.875000
7.920000 -2.040000 2.000000 63.094643 -185.990448 38573.378906
7.920000 -2.040000 2.040000 144.016266 -114.476646 33845.585938
7.920000 -2.040000 2.080000 151.400818 -13.178858 23095.888672
7.920000 -2.040000 2.120000 92.657745 54.090691 11511.260742
7.920000 -2.040000 2.160000 19.503063 56.440472 3565.896240
7.920000 -2.040000 2.200000 -17.700342 14.796508 532.238770
7.920000 -2.000000 1.800000 -36.370934 12.292297 1473.945435
7.920000 -2.000000 1.840000 -87.453064 -21.913830 8128.254395
7.920000 -2.000000 1.880000 -102.006317 -104.547737 21335.519531
7.920000 -2.000000 1.920000 -42.809158 -190.220276 38016.378906
7.920000 -2.000000 1.960000 74.109756 -213.956940 51269.828125
7.920000 -2.000000 2.000000 181.776764 -146.234741 54427.390625
7.920000 -2.000000 2.040000 212.397110 -23.319206 45656.316406
7.920000 -2.000000 2.080000 152.521729 78.284042 29391.267578
7.920000 -2.000000 2.120000 52.905315 102.593872 13324.475586
7.920000 -2.000000 2.160000 -15.804363 55.772820 3360.385254
7.920000 -2.000000 2.200000 -20.268721 -7.208512 462.783691
7.920000 -1.960000 1.800000 -38.916985 -17.547291 1822.439209
7.920000 -1.960000 1.840000 -62.756897 -74.008354 9415.664062
7.920000 -1.960000 1.880000 -28.855183 -152.022659 23943.509766
7.920000 -1.960000 1.920000 69.827606 -191.911209 41705.808594
7.920000 -1.960000 1.960000 183.472824 -146.685181 55178.820312
7.920000 -1.960000 2.000000 238.100525 -28.302261 57492.878906
7.920000 -1.960000 2.040000 195.793854 94.144775 47198.472656
7.920000 -1.960000 2.080000 88.032928 147.401917 29477.121094
7.920000 -1.960000 2.120000 -9.930683 112.093735 12663.623047
7.920000 -1.960000 2.160000 -40.928413 33.703766 2811.078857
7.920000 -1.960000 2.200000 -7.789919 -21.421299 519.554871
7.920000 -1.920000 1.800000 -16.041821 -35.335503 1505.937744
7.920000 -1.920000 1.840000 -8.748405 -86.817108 7613.745117
7.920000 -1.920000 1.880000 51.924610 -129.070084 19355.250000
7.920000 -1.920000 1.920000 144.374710 -113.086411 33632.593750
7.920000 -1.920000 1.960000 208.988358 -25.697117 44336.476562
7.920000 -1.920000 2.000000 194.721024 89.801476 45980.582031
7.920000 -1.920000 2.040000 104.736443 162.901184 37506.515625
7.920000 -1.920000 2.080000 -2.492393 152.255203 23187.859375
7.920000 -1.920000 2.120000 -60.071190 78.509727 9772.325195
7.920000 -1.920000 2.160000 -45.602207 3.805607 2094.043945
7.920000 -1.920000 2.200000 7.070960 -22.004902 534.214172
7.920000 -1.880000 1.800000 10.025997 -27.568922 860.566101
7.920000 -1.880000 1.840000 30.954922 -56.780319 4182.211914
7.920000 -1.880000 1.880000 84.064354 -61.931839 10902.368164
7.920000 -1.880000 1.920000 137.559036 -17.527908 19229.716797
7.920000 -1.880000 1.960000 146.650909 63.857468 25584.263672
7.920000 -1.880000 2.000000 92.958679 134.446716 26717.236328
7.920000 -1.880000 2.040000 4.890923 148.038757 21939.396484
7.920000 -1.880000 2.080000 -62.529018 98.853897 13681.970703
7.920000 -1.880000 2.120000 -71.936073 26.406050 5872.078125
7.920000 -1.880000 2.160000 -32.036385 -18.487207 1368.106812
7.920000 -1.880000 2.200000 14.794506 -14.902987 440.976440
7.920000 -1.840000 1.800000 18.622505 -5.172618 373.553680
7.920000 -1.840000 1.840000 32.609028 -15.959429 1318.052124
7.920000 -1.840000 1.880000 60.046852 -7.252357 3658.221191
7.920000 -1.840000 1.920000 76.880157 28.850609 6742.916016
7.920000 -1.840000 1.960000 60.317017 74.693192 9217.214844
7.920000 -1.840000 2.000000 11.620499 98.429001 9823.304688
7.920000 -1.840000 2.040000 -41.067657 80.958443 8240.822266
7.920000 -1.840000 2.080000 -64.660934 33.639477 5312.650879
7.920000 -1.840000 2.120000 -48.457726 -10.576706 2460.017822
7.920000 -1.840000 2.160000 -11.618826 -24.730648 746.602112
7.920000 -1.840000 2.200000 15.396727 -8.587282 310.800598
7.920000 -1.800000 1.800000 8.918522 11.449829 210.638611
7.920000 -1.800000 1.840000 9.818564 3.212191 106.722374
7.920000 -1.800000 1.880000 19.337576 3.168118 383.978790
7.920000 -1.800000 1.920000 25.204765 15.797438 884.839233
7.920000 -1.800000 1.960000 16.526505 32.224918 1311.570679
7.920000 -1.800000 2.000000 -4.833511 37.523445 1431.371704
7.920000 -1.800000 2.040000 -24.684040 24.700233 1219.403320
7.920000 -1.800000 2.080000 -28.897001 1.678631 837.854492
7.920000 -1.800000 2.120000 -15.839672 -15.583614 493.744263
7.920000 -1.800000 2.160000 2.986650 -17.017750 298.523895
7.920000 -1.800000 2.200000 14.019608 -5.919941 231.595093
7.960000 -2.200000 1.800000 -20.662066 -47.045776 2640.226074
7.960000 -2.200000 1.840000 2.330746 -59.634338 3561.686768
7.960000 -2.200000 1.880000 30.375374 -53.768181 3813.680664
7.960000 -2.200000 1.920000 48.067310 -30.563206 3244.575928
7.960000 -2.200000 1.960000 45.676964 -2.824677 2094.363770
7.960000 -2.200000 2.000000 26.549896 13.295322 881.662598
7.960000 -2.200000 2.040000 5.319733 9.791626 124.175491
7.960000 -2.200000 2.080000 -2.518223 -7.099861 56.749474
7.960000 -2.200000 2.120000 7.735178 -21.460070 520.367554
7.960000 -2.200000 2.160000 26.364130 -19.993294 1094.799072
7.960000 -2.200000 2.200000 37.043976 -2.578284 1378.903687
7.960000 -2.160000 1.800000 11.606419 -36.279991 1450.946777
7.960000 -2.160000 1.840000 28.049681 -25.119980 1417.797974
7.960000 -2.160000 1.880000 30.942909 -3.910755 972.757629
7.960000 -2.160000 1.920000 16.414631 12.409927 423.446411
7.960000 -2.160000 1.960000 -5.430806 11.225754 155.511200
7.960000 -2.160000 2.000000 -17.898956 -7.177551 371.889893
7.960000 -2.160000 2.040000 -10.639862 -29.286469 970.903931
7.960000 -2.160000 2.080000 12.359314 -38.434891 1629.993530
7.960000 -2.160000 2.120000 35.799877 -27.119280 2017.086548
7.960000 -2.160000 2.160000 44.395477 -2.090034 1975.326660
7.960000 -2.160000 2.200000 33.562286 21.174030 1574.766724
7.960000 -2.120000 1.800000 19.638645 -4.723770 407.990387
7.960000 -2.120000 1.840000 9.011467 17.263159 379.223206
7.960000 -2.120000 1.880000 -21.698366 24.119324 1052.560791
7.960000 -2.120000 1.920000 -52.308826 1.234566 2737.737549
7.960000 -2.120000 1.960000 -56.647701 -42.614147 5024.927734
7.960000 -2.120000 2.000000 -25.333252 -79.342232 6936.963867
7.960000 -2.120000 2.040000 24.691856 -83.369011 7560.080078
7.960000 -2.120000 2.080000 62.847076 -51.930519 6646.534180
7.960000 -2.120000 2.120000 68.450569 -6.276672 4724.876953
7.960000 -2.120000 2.160000 44.671059 26.162933 2680.002686
7.960000 -2.120000 2.200000 12.394245 32.112537 1184.832397
7.960000 -2.080000 1.800000 -2.500031 17.396568 308.890747
7.960000 -2.080000 1.840000 -42.260117 23.224003 2325.271729
7.960000 -2.080000 1.880000 -84.459320 -11.853142 7273.874023
7.960000 -2.080000 1.920000 -89.512039 -79.925034 14400.416016
7.960000 -2.080000 1.960000 -38.408859 -139.618958 20968.693359
7.960000 -2.080000 2.000000 45.601593 -147.452408 23821.718750
7.960000 -2.080000 2.040000 111.995186 -94.718445 21514.505859
7.960000 -2.080000 2.080000 122.713196 -15.724949 15305.802734
7.960000 -2.080000 2.120000 81.124771 40.443314 8216.890625
7.960000 -2.080000 2.160000 24.989159 48.575600 2984.046875
7.960000 -2.080000 2.200000 -7.723780 22.101784 548.145630
7.960000 -2.040000 1.800000 -32.185547 9.385910 1124.004761
7.960000 -2.040000 1.840000 -79.422485 -20.258629 6718.343262
7.960000 -2.040000 1.880000 -94.300911 -95.924988 18094.265625
7.960000 -2.040000 1.920000 -40.809727 -175.770752 32560.791016
7.960000 -2.040000 1.960000 66.771347 -198.940018 44035.542969
7.960000 -2.040000 2.000000 166.450867 -137.881866 46717.296875
7.960000 -2.040000 2.040000 196.046677 -26.114052 39116.246094
7.960000 -2.040000 2.080000 143.908768 66.723114 25161.708984
7.960000 -2.040000 2.120000 56.262894 90.993858 11445.394531
7.960000 -2.040000 2.160000 -4.563656 53.373268 2869.532715
7.960000 -2.040000 2.200000 -11.009129 2.424337 127.078323
7.960000 -2.000000 1.800000 -40.491974 -20.249695 2049.650146
7.960000 -2.000000 1.840000 -65.923416 -79.974823 10741.869141
7.960000 -2.000000 1.880000 -29.703350 -163.111389 27487.615234
7.960000 -2.000000 1.920000 75.631516 -205.186829 47821.757812
7.960000 -2.000000 1.960000 195.925537 -156.465942 62868.406250
7.960000 -2.000000 2.000000 252.630859 -31.427086 64810.011719
7.960000 -2.000000 2.040000 207.894897 95.806412 52399.156250
7.960000 -2.000000 2.080000 97.453781 149.998779 31996.875000
7.960000 -2.000000 2.120000 -0.231316 114.807358 13180.783203
7.960000 -2.000000 2.160000 -29.822811 39.786850 2472.393555
7.960000 -2.000000 2.200000 0.916169 -9.009384 82.008369
7.960000 -1.960000 1.800000 -20.046017 -43.148499 2263.635742
7.960000 -1.960000 1.840000 -10.175507 -107.145767 11583.756836
7.960000 -1.960000 1.880000 65.789803 -158.592407 29479.849609
7.960000 -1.960000 1.920000 179.412323 -137.074127 50978.097656
7.960000 -1.960000 1.960000 256.339111 -28.846947 66541.890625
7.960000 -1.960000 2.000000 236.266083 110.247932 67976.265625
7.960000 -1.960000 2.040000 127.511940 194.879562 54237.335938
7.960000 -1.960000 2.080000 3.162628 179.883804 32368.185547
7.960000 -1.960000 2.120000 -59.641075 95.459213 12669.518555
7.960000 -1.960000 2.160000 -41.334709 16.088907 1967.411133
7.960000 -1.960000 2.200000 13.174036 -5.522646 204.054840
7.960000 -1.920000 1.800000 9.456600 -39.319244 1635.430176
7.960000 -1.920000 1.840000 43.325344 -83.007515 8767.333008
7.960000 -1.920000 1.880000 123.169556 -88.282471 22964.533203
7.960000 -1.920000 1.920000 199.632904 -20.423185 40270.402344
7.960000 -1.920000 1.960000 208.465210 97.594139 52982.359375
7.960000 -1.920000 2.000000 128.414429 194.697083 54397.218750
7.960000 -1.920000 2.040000 5.512314 208.571686 43532.535156
7.960000 -1.920000 2.080000 -82.469521 138.488388 25980.253906
7.960000 -1.920000 2.120000 -90.111252 44.315109 10083.866211
7.960000 -1.920000 2.160000 -37.813778 -6.954765 1478.250610
7.960000 -1.920000 2.200000 14.257210 3.925741 218.679474
7.960000 -1.880000 1.800000 22.371012 -15.113223 728.871704
7.960000 -1.880000 1.840000 57.025455 -33.566940 4378.642090
7.960000 -1.880000 1.880000 110.872009 -10.231449 12397.285156
7.960000 -1.880000 1.920000 137.019302 61.910866 22607.244141
7.960000 -1.880000 1.960000 99.127769 143.765533 30494.843750
7.960000 -1.880000 2.000000 8.681999 178.529312 31948.091797
7.960000 -1.880000 2.040000 -79.401520 140.671066 26092.951172
7.960000 -1.880000 2.080000 -111.631561 59.230499 15969.857422
7.960000 -1.880000 2.120000 -79.981461 -7.450577 6452.545410
7.960000 -1.880000 2.160000 -24.335052 -21.558517 1056.964478
7.960000 -1.880000 2.200000 6.775377 6.583188 89.244102
7.960000 -1.840000 1.800000 11.873220 6.100416 178.188431
7.960000 -1.840000 1.840000 33.087692 -0.570004 1095.120361
7.960000 -1.840000 1.880000 58.054558 22.334942 3869.181396
7.960000 -1.840000 1.920000 55.733200 68.253296 7764.702148
7.960000 -1.840000 1.960000 13.508186 104.388901 11079.513672
7.960000 -1.840000 2.000000 -47.183792 99.592422 12144.960938
7.960000 -1.840000 2.040000 -87.016273 53.298302 10412.541016
7.960000 -1.840000 2.080000 -82.470421 -2.849091 6809.487305
7.960000 -1.840000 2.120000 -45.065853 -32.585220 3092.727783
7.960000 -1.840000 2.160000 -8.524651 -25.194668 707.440979
7.960000 -1.840000 2.200000 2.154206 -0.266895 4.711838
7.960000 -1.800000 1.800000 -6.711296 8.659928 120.035851
7.960000 -1.800000 1.840000 4.391596 -1.065065 20.420479
7.960000 -1.800000 1.880000 18.348873 6.957075 385.082031
7.960000 -1.800000 1.920000 17.401672 27.107529 1037.636353
7.960000 -1.800000 1.960000 -3.148621 40.652187 1662.514160
7.960000 -1.800000 2.000000 -29.739985 33.199944 1986.702881
7.960000 -1.800000 2.040000 -42.868454 8.088417 1903.126831
7.960000 -1.800000 2.080000 -34.491749 -17.184959 1485.003662
7.960000 -1.800000 2.120000 -13.807434 -27.064623 923.139038
7.960000 -1.800000 2.160000 2.932949 -20.368261 423.468262
7.960000 -1.800000 2.200000 7.012918 -8.091822 114.658600
8.000000 -2.200000 1.800000 10.179007 -32.141182 1136.667725
8.000000 -2.200000 1.840000 27.983101 -30.623121 1720.829590
8.000000 -2.200000 1.880000 41.511711 -16.774483 2004.605469
8.000000 -2.200000 1.920000 42.690079 2.937698 1831.072998
8.000000 -2.200000 1.960000 30.738697 17.685448 1257.642578
8.000000 -2.200000 2.000000 13.535820 19.262981 554.280884
8.000000 -2.200000 2.040000 2.984928 8.282055 77.502228
8.000000 -2.200000 2.080000 6.526703 -5.253551 70.197647
8.000000 -2.200000 2.120000 20.786983 -8.739536 508.478180
8.000000 -2.200000 2.160000 33.159679 3.019611 1108.682373
8.000000 -2.200000 2.200000 31.435207 22.786484 1507.395996
8.000000 -2.160000 1.800000 19.420258 -8.700274 452.841156
8.000000 -2.160000 1.840000 21.729715 4.607609 493.410614
8.000000 -2.160000 1.880000 11.459124 15.574986 373.891663
8.000000 -2.160000 1.920000 -4.815825 14.120186 222.571823
8.000000 -2.160000 1.960000 -14.626450 -0.593319 214.285049
8.000000 -2.160000 2.000000 -9.275215 -19.070276 449.705078
8.000000 -2.160000 2.040000 9.579948 -28.250298 889.854675
8.000000 -2.160000 2.080000 30.921476 -20.597137 1380.379761
8.000000 -2.160000 2.120000 41.666874 0.890659 1736.921753
8.000000 -2.160000 2.160000 35.022213 24.684273 1835.868652
8.000000 -2.160000 2.200000 14.555020 38.086655 1662.441895
8.000000 -2.120000 1.800000 2.906842 10.919897 127.693886
8.000000 -2.120000 1.840000 -17.797760 17.649548 628.266785
8.000000 -2.120000 1.880000 -42.914314 1.325264 1843.394775
8.000000 -2.120000 1.920000 -49.093307 -35.655781 3681.487549
8.000000 -2.120000 1.960000 -23.532394 -70.830688 5570.759766
8.000000 -2.120000 2.000000 23.016785 -78.854126 6747.745605
8.000000 -2.120000 2.040000 63.312092 -52.148739 6727.912109
8.000000 -2.120000 2.080000 74.488724 -6.769608 5594.397461
8.000000 -2.120000 2.120000 54.303955 30.830900 3899.463867
8.000000 -2.120000 2.160000 19.874994 43.529114 2289.799072
8.000000 -2.120000 2.200000 -7.751910 33.117496 1156.860718
8.000000 -2.080000 1.800000 -23.681454 5.663500 592.886536
8.000000 -2.080000 1.840000 -55.667274 -13.369804 3277.597168
8.000000 -2.080000 1.880000 -66.351929 -64.940842 8619.891602
8.000000 -2.080000 1.920000 -29.771656 -120.281441 15353.976562
8.000000 -2.080000 1.960000 44.801956 -136.862885 20738.664062
8.000000 -2.080000 2.000000 114.741028 -95.044662 22198.992188
8.000000 -2.080000 2.040000 136.953415 -17.183498 19051.511719
8.000000 -2.080000 2.080000 102.456696 49.420284 12939.738281
8.000000 -2.080000 2.120000 41.393711 70.297043 6655.113770
8.000000 -2.080000 2.160000 -4.583388 48.091225 2333.773438
8.000000 -2.080000 2.200000 -15.715964 13.440586 427.640869
8.000000 -2.040000 1.800000 -33.580902 -21.657104 1596.707153
8.000000 -2.040000 1.840000 -52.611622 -68.981850 7526.478516
8.000000 -2.040000 1.880000 -22.163498 -135.080444 18737.947266
8.000000 -2.040000 1.920000 63.766769 -167.505112 32124.164062
8.000000 -2.040000 1.960000 160.863678 -126.275124 41822.531250
8.000000 -2.040000 2.000000 205.651398 -23.930527 42865.167969
8.000000 -2.040000 2.040000 168.448242 79.236740 34653.273438
8.000000 -2.040000 2.080000 78.884186 123.215492 21404.773438
8.000000 -2.040000 2.120000 -0.230724 95.919853 9200.671875
8.000000 -2.040000 2.160000 -25.765011 37.241386 2050.756592
8.000000 -2.040000 2.200000 -4.796854 -1.309019 24.723339
8.000000 -2.000000 1.800000 -15.325373 -46.238831 2372.896484
8.000000 -2.000000 1.840000 -3.907406 -103.809311 10791.640625
8.000000 -2.000000 1.880000 67.857864 -148.617188 26691.757812
8.000000 -2.000000 1.920000 172.598541 -125.126938 45447.007812
8.000000 -2.000000 1.960000 240.992340 -22.329159 58575.898438
8.000000 -2.000000 2.000000 218.681366 106.266518 59114.113281
8.000000 -2.000000 2.040000 116.100281 181.941849 46582.109375
8.000000 -2.000000 2.080000 2.290213 165.650955 27445.482422
8.000000 -2.000000 2.120000 -53.173397 88.230682 10612.063477
8.000000 -2.000000 2.160000 -35.957008 18.535990 1636.489380
8.000000 -2.000000 2.200000 10.244944 1.753185 108.032532
8.000000 -1.960000 1.800000 15.687511 -45.408634 2308.041992
8.000000 -1.960000 1.840000 54.363235 -88.876205 10854.341797
8.000000 -1.960000 1.880000 139.497345 -89.765457 27517.347656
8.000000 -1.960000 1.920000 217.324097 -13.441965 47410.449219
8.000000 -1.960000 1.960000 220.828201 112.496437 61420.542969
8.000000 -1.960000 2.000000 131.421890 211.474518 61993.187500
8.000000 -1.960000 2.040000 1.644430 220.350677 48557.125000
8.000000 -1.960000 2.080000 -86.438171 143.633804 28102.226562
8.000000 -1.960000 2.120000 -89.752304 47.617020 10322.856445
8.000000 -1.960000 2.160000 -35.523018 0.400570 1262.045166
8.000000 -1.960000 2.200000 11.719391 15.644058 382.080688
8.000000 -1.920000 1.800000 32.430557 -20.654186 1478.336426
8.000000 -1.920000 1.840000 78.951103 -38.480415 7714.019043
8.000000 -1.920000 1.880000 144.135284 -2.660774 20782.060547
8.000000 -1.920000 1.920000 169.551865 90.483261 36935.054688
8.000000 -1.920000 1.960000 114.675522 188.730347 48769.621094
8.000000 -1.920000 2.000000 0.129501 223.362137 49890.660156
8.000000 -1.920000 2.040000 -103.569626 169.563019 39478.285156
8.000000 -1.920000 2.080000 -134.743073 69.637558 23005.085938
8.000000 -1.920000 2.120000 -91.784302 -4.439997 8444.072266
8.000000 -1.920000 2.160000 -28.755713 -13.303272 1003.868042
8.000000 -1.920000 2.200000 -2.111990 21.838003 481.358887
8.000000 -1.880000 1.800000 22.711113 4.797981 538.815308
8.000000 -1.880000 1.840000 59.111374 5.309132 3522.341309
8.000000 -1.880000 1.880000 91.022911 50.585838 10844.096680
8.000000 -1.880000 1.920000 74.945984 122.106560 20526.912109
8.000000 -1.880000 1.960000 1.471672 167.882706 28186.769531
8.000000 -1.880000 2.000000 -89.065689 147.673676 29740.210938
8.000000 -1.880000 2.040000 -138.405014 71.394005 24253.050781
8.000000 -1.880000 2.080000 -120.791100 -7.955177 14653.774414
8.000000 -1.880000 2.120000 -63.541737 -40.864891 5707.491699
8.000000 -1.880000 2.160000 -18.793091 -22.407499 855.276306
8.000000 -1.880000 2.200000 -15.710888 10.473270 356.521393
8.000000 -1.840000 1.800000 -0.276523 9.793945 95.997826
8.000000 -1.840000 1.840000 22.628664 13.642414 698.171936
8.000000 -1.840000 1.880000 32.713886 45.991756 3185.439941
8.000000 -1.840000 1.920000 6.526505 83.216118 6967.517578
8.000000 -1.840000 1.960000 -47.723614 90.080261 10391.997070
8.000000 -1.840000 2.000000 -94.176849 53.265022 11706.441406
8.000000 -1.840000 2.040000 -100.947586 -4.667694 10212.202148
8.000000 -1.840000 2.080000 -68.448097 -45.301758 6737.391602
8.000000 -1.840000 2.120000 -26.894268 -48.428589 3068.629883
8.000000 -1.840000 2.160000 -6.870893 -26.829226 767.016541
8.000000 -1.840000 2.200000 -13.168807 -9.360117 261.029266
8.000000 -1.800000 1.800000 -13.262391 -4.639204 197.413239
8.000000 -1.800000 1.840000 4.362637 -4.975241 43.785622
8.000000 -1.800000 1.880000 11.666683 12.130291 283.255463
8.000000 -1.800000 1.920000 -2.179920 29.253185 860.500916
8.000000 -1.800000 1.960000 -27.916161 27.867882 1555.930908
8.000000 -1.800000 2.000000 -45.138500 5.873795 2071.985596
8.000000 -1.800000 2.040000 -41.428596 -21.387939 2173.772461
8.000000 -1.800000 2.080000 -22.271885 -36.449875 1824.630249
8.000000 -1.800000 2.120000 -3.300903 -34.834362 1224.328735
8.000000 -1.800000 2.160000 5.201908 -25.606705 682.763184
8.000000 -1.800000 2.200000 5.248810 -19.499462 407.779053
8.040000 -2.200000 1.800000 17.631271 -0.746389 311.418823
8.040000 -2.200000 1.840000 21.262463 4.907434 476.175232
8.040000 -2.200000 1.880000 21.031012 11.348774 571.098145
8.040000 -2.200000 1.920000 17.524567 16.633858 583.795654
8.040000 -2.200000 1.960000 11.605350 19.145235 501.224182
8.040000 -2.200000 2.000000 5.445507 17.236801 326.760834
8.040000 -2.200000 2.040000 3.043633 11.388208 138.954987
8.040000 -2.200000 2.080000 7.279659 6.255129 92.120071
8.040000 -2.200000 2.120000 15.473420 8.271816 307.849670
8.040000 -2.200000 2.160000 19.313671 19.223045 742.543335
8.040000 -2.200000 2.200000 11.521026 32.274265 1174.362183
8.040000 -2.160000 1.800000 3.837976 13.029804 184.505859
8.040000 -2.160000 1.840000 -4.377518 16.564959 293.560516
8.040000 -2.160000 1.880000 -13.860168 10.710613 306.821503
8.040000 -2.160000 1.920000 -15.910233 -2.060112 257.379547
8.040000 -2.160000 1.960000 -7.476120 -13.453726 236.895096
8.040000 -2.160000 2.000000 7.233276 -16.223410 315.519318
8.040000 -2.160000 2.040000 20.731934 -8.567745 503.219330
8.040000 -2.160000 2.080000 26.896185 6.276558 762.799988
8.040000 -2.160000 2.120000 22.926466 22.605906 1036.649902
8.040000 -2.160000 2.160000 9.505545 34.182053 1258.768066
8.040000 -2.160000 2.200000 -9.054737 35.787518 1362.734741
8.040000 -2.120000 1.800000 -18.222546 6.910527 379.816528
8.040000 -2.120000 1.840000 -34.075077 -3.607538 1174.125122
8.040000 -2.120000 1.880000 -37.721870 -30.435659 2349.268799
8.040000 -2.120000 1.920000 -17.118080 -57.275078 3573.463135
8.040000 -2.120000 1.960000 20.970978 -63.222603 4436.879395
8.040000 -2.120000 2.000000 54.895271 -40.562897 4658.839355
8.040000 -2.120000 2.040000 64.978867 -1.310448 4223.970215
8.040000 -2.120000 2.080000 47.898617 32.633278 3359.208496
8.040000 -2.120000 2.120000 16.880630 45.830902 2385.427246
8.040000 -2.120000 2.160000 -10.319251 38.075928 1556.263184
8.040000 -2.120000 2.200000 -23.856266 20.210262 977.576111
8.040000 -2.080000 1.800000 -26.288881 -18.418552 1030.348389
8.040000 -2.080000 1.840000 -35.567757 -47.381828 3510.103027
8.040000 -2.080000 1.880000 -14.102005 -86.428673 7668.782227
8.040000 -2.080000 1.920000 40.147766 -102.967377 12214.123047
8.040000 -2.080000 1.960000 98.671738 -74.039719 15217.991211
8.040000 -2.080000 2.000000 123.306580 -9.362167 15292.163086
8.040000 -2.080000 2.040000 97.877052 53.843338 12479.021484
8.040000 -2.080000 2.080000 41.411514 80.331184 8168.012695
8.040000 -2.080000 2.120000 -8.807470 63.757317 4142.566895
8.040000 -2.080000 2.160000 -27.781466 27.397230 1522.417969
8.040000 -2.080000 2.200000 -19.038895 0.527754 362.758057
8.040000 -2.040000 1.800000 -8.599136 -42.253399 1859.294922
8.040000 -2.040000 1.840000 2.256517 -80.276154 6449.352539
8.040000 -2.040000 1.880000 54.454453 -107.909363 14609.717773
8.040000 -2.040000 1.920000 127.534256 -86.679695 23778.355469
8.040000 -2.040000 1.960000 172.312103 -10.649731 29804.876953
8.040000 -2.040000 2.000000 151.827118 80.842422 29586.972656
8.040000 -2.040000 2.040000 75.603058 132.311264 23222.093750
8.040000 -2.040000 2.080000 -6.462355 117.821472 13923.661133
8.040000 -2.040000 2.120000 -45.838726 60.753250 5792.146484
8.040000 -2.040000 2.160000 -33.774529 9.916344 1239.052612
8.040000 -2.040000 2.200000 -1.702967 -3.852530 17.742079
8.040000 -2.000000 1.800000 22.904240 -42.537811 2334.069580
8.040000 -2.000000 1.840000 55.210255 -72.459450 8298.543945
8.040000 -2.000000 1.880000 122.122475 -67.887543 19522.617188
8.040000 -2.000000 1.920000 180.326477 -2.599485 32524.396484
8.040000 -2.000000 1.960000 177.083649 99.472580 41253.414062
8.040000 -2.000000 2.000000 99.852943 176.122406 40989.710938
8.040000 -2.000000 2.040000 -6.697546 177.995911 31727.402344
8.040000 -2.000000 2.080000 -75.991989 111.644821 18239.347656
8.040000 -2.000000 2.120000 -75.329712 32.755318 6747.476562
8.040000 -2.000000 2.160000 -29.695858 -4.047314 898.224731
8.040000 -2.000000 2.200000 7.359163 9.536579 145.103622
8.040000 -1.960000 1.800000 42.346039 -17.519505 2100.120117
8.040000 -1.960000 1.840000 83.964775 -27.695885 7817.145508
8.040000 -1.960000 1.880000 138.953079 10.050814 19408.978516
8.040000 -1.960000 1.920000 154.984390 96.744583 33379.675781
8.040000 -1.960000 1.960000 97.780556 183.282684 43153.578125
8.040000 -1.960000 2.000000 -10.332148 207.901215 43329.667969
8.040000 -1.960000 2.040000 -103.042641 151.563339 33589.230469
8.040000 -1.960000 2.080000 -125.624184 57.118469 19043.955078
8.040000 -1.960000 2.120000 -81.198486 -8.203922 6660.498535
8.040000 -1.960000 2.160000 -23.332941 -11.360514 673.487427
8.040000 -1.960000 2.200000 -3.667044 22.896164 537.681519
8.040000 -1.920000 1.800000 34.207905 11.604693 1304.849731
8.040000 -1.920000 1.840000 69.974365 19.316238 5269.528809
8.040000 -1.920000 1.880000 96.076004 71.359802 14322.820312
8.040000 -1.920000 1.920000 69.712753 144.940659 25867.664062
8.040000 -1.920000 1.960000 -13.921917 185.149841 34474.285156
8.040000 -1.920000 2.000000 -108.372025 153.683228 35363.031250
8.040000 -1.920000 2.040000 -152.790039 67.150192 27853.945312
8.040000 -1.920000 2.080000 -125.467209 -14.866724 15963.040039
8.040000 -1.920000 2.120000 -61.792336 -42.253895 5603.684570
8.040000 -1.920000 2.160000 -19.134556 -16.593409 641.472412
8.040000 -1.920000 2.200000 -24.045242 16.987085 866.734741
8.040000 -1.880000 1.800000 8.152905 20.610498 491.262512
8.040000 -1.880000 1.840000 31.486771 35.347237 2240.843750
8.040000 -1.880000 1.880000 32.056248 79.415367 7334.403320
8.040000 -1.880000 1.920000 -12.664032 119.544128 14451.176758
8.040000 -1.880000 1.960000 -84.550644 114.636482 20290.335938
8.040000 -1.880000 2.000000 -135.854248 56.444584 21642.367188
8.040000 -1.880000 2.040000 -131.545929 -18.981895 17664.644531
8.040000 -1.880000 2.080000 -81.496918 -62.523331 10550.914062
8.040000 -1.880000 2.120000 -30.103085 -55.736816 4012.788574
8.040000 -1.880000 2.160000 -14.087418 -24.023304 775.574463
8.040000 -1.880000 2.200000 -30.936512 -7.831232 1018.395935
8.040000 -1.840000 1.800000 -10.753016 5.222786 142.904861
8.040000 -1.840000 1.840000 3.849113 18.332531 350.897369
8.040000 -1.840000 1.880000 -5.145821 45.285667 2077.271240
8.040000 -1.840000 1.920000 -41.935146 56.901344 4996.319336
8.040000 -1.840000 1.960000 -81.936752 33.103210 7809.454102
8.040000 -1.840000 2.000000 -93.623840 -15.649643 9010.334961
8.040000 -1.840000 2.040000 -68.435883 -56.909306 7922.139160
8.040000 -1.840000 2.080000 -28.210094 -66.439270 5209.986328
8.040000 -1.840000 2.120000 -3.047636 -49.270138 2436.834473
8.040000 -1.840000 2.160000 -3.156856 -31.087023 976.368774
8.040000 -1.840000 2.200000 -13.025658 -30.881058 1123.307495
8.040000 -1.800000 1.800000 -6.709581 -15.897223 297.740173
8.040000 -1.800000 1.840000 5.008211 -4.950975 49.594337
8.040000 -1.800000 1.880000 -1.210064 10.450499 110.677177
8.040000 -1.800000 1.920000 -20.625858 12.198364 574.226135
8.040000 -1.800000 1.960000 -35.402821 -4.759239 1276.010132
8.040000 -1.800000 2.000000 -32.493729 -28.200413 1851.105713
8.040000 -1.800000 2.040000 -15.346699 -41.849106 1986.868774
8.040000 -1.800000 2.080000 2.013828 -40.975536 1683.050171
8.040000 -1.800000 2.120000 10.359797 -34.077164 1268.578491
8.040000 -1.800000 2.160000 12.783808 -30.858875 1115.695923
8.040000 -1.800000 2.200000 17.544405 -31.525724 1301.677490
8.080000 -2.200000 1.800000 -1.711537 21.756912 476.292572
8.080000 -2.200000 1.840000 -8.863003 18.160545 408.358246
8.080000 -2.200000 1.880000 -9.306662 9.684120 180.396133
8.080000 -2.200000 1.920000 -2.368635 5.246426 33.135414
8.080000 -2.200000 1.960000 4.204020 9.092328 100.344215
8.080000 -2.200000 2.000000 3.529976 16.041462 269.789215
8.080000 -2.200000 2.040000 -2.429646 18.035315 331.175751
8.080000 -2.200000 2.080000 -5.738747 13.953728 227.639725
8.080000 -2.200000 2.120000 -2.661160 10.858196 124.982201
8.080000 -2.200000 2.160000 1.151833 14.935596 224.398727
8.080000 -2.200000 2.200000 -2.929962 22.917599 533.800964
8.080000 -2.160000 1.800000 -20.591269 13.107170 595.798218
8.080000 -2.160000 1.840000 -27.353798 2.804375 756.094788
8.080000 -2.160000 1.880000 -22.649094 -11.892378 654.410095
8.080000 -2.160000 1.920000 -7.202549 -18.863848 407.721466
8.080000 -2.160000 1.960000 8.354580 -12.517307 226.481995
8.080000 -2.160000 2.000000 14.230993 1.532555 204.869888
8.080000 -2.160000 2.040000 9.929049 13.396400 278.049561
8.080000 -2.160000 2.080000 1.993907 18.603558 350.068024
8.080000 -2.160000 2.120000 -4.688693 19.850918 416.042786
8.080000 -2.160000 2.160000 -11.186313 20.433527 542.662598
8.080000 -2.160000 2.200000 -20.123352 18.586578 750.410217
8.080000 -2.120000 1.800000 -26.104464 -11.398585 811.370728
8.080000 -2.120000 1.840000 -26.916950 -28.528095 1538.374512
8.080000 -2.120000 1.880000 -10.098763 -45.877892 2206.766113
8.080000 -2.120000 1.920000 19.192581 -46.676186 2547.021484
8.080000 -2.120000 1.960000 43.139641 -25.356865 2503.999023
8.080000 -2.120000 2.000000 46.397137 6.822247 2199.237305
8.080000 -2.120000 2.040000 28.502863 31.394650 1798.037231
8.080000 -2.120000 2.080000 2.458372 37.456676 1409.046143
8.080000 -2.120000 2.120000 -17.341341 27.835484 1075.536255
8.080000 -2.120000 2.160000 -25.431850 12.944853 814.348206
8.080000 -2.120000 2.200000 -25.344997 0.559377 642.681824
8.080000 -2.080000 1.800000 -8.117009 -33.896412 1214.852661
8.080000 -2.080000 1.840000 1.912901 -52.779678 2789.353516
8.080000 -2.080000 1.880000 33.267746 -62.395615 4999.955566
8.080000 -2.080000 1.920000 71.210747 -43.714546 6981.931641
8.080000 -2.080000 1.960000 88.746338 1.743080 7878.950684
8.080000 -2.080000 2.000000 69.919281 49.570709 7345.960938
8.080000 -2.080000 2.040000 24.722553 71.410553 5710.671875
8.080000 -2.080000 2.080000 -18.727066 57.896389 3702.694824
8.080000 -2.080000 2.120000 -37.259583 24.597387 1993.307861
8.080000 -2.080000 2.160000 -29.580196 -3.387982 886.466431
8.080000 -2.080000 2.200000 -12.687778 -12.675212 321.640717
8.080000 -2.040000 1.800000 23.288872 -34.261570 1716.226807
8.080000 -2.040000 1.840000 43.707542 -46.818989 4102.367188
8.080000 -2.040000 1.880000 82.043030 -38.050446 8178.895020
8.080000 -2.040000 1.920000 111.643341 5.770758 12497.537109
8.080000 -2.040000 1.960000 102.143013 67.837746 15035.155273
8.080000 -2.040000 2.000000 49.085693 109.924126 14492.718750
8.080000 -2.040000 2.040000 -17.799042 104.129570 11159.773438
8.080000 -2.040000 2.080000 -57.808945 57.656700 6666.168945
8.080000 -2.040000 2.120000 -53.117706 6.495352 2863.680420
8.080000 -2.040000 2.160000 -21.481920 -16.292837 726.929443
8.080000 -2.040000 2.200000 3.316860 -7.445468 66.436562
8.080000 -2.000000 1.800000 44.248947 -9.277401 2044.039551
8.080000 -2.000000 1.840000 68.483643 -10.095316 4791.924805
8.080000 -2.000000 1.880000 99.247414 18.794117 10203.267578
8.080000 -2.000000 1.920000 102.726700 77.281372 16525.185547
8.080000 -2.000000 1.960000 57.490295 131.974243 20722.335938
8.080000 -2.000000 2.000000 -19.389576 141.731995 20463.914062
8.080000 -2.000000 2.040000 -81.419220 95.676941 15783.166016
8.080000 -2.000000 2.080000 -91.596458 25.919481 9061.730469
8.080000 -2.000000 2.120000 -54.565811 -19.518173 3358.386719
8.080000 -2.000000 2.160000 -10.482780 -18.516693 452.756592
8.080000 -2.000000 2.200000 3.355017 8.763065 88.047447
8.080000 -1.960000 1.800000 37.910839 22.393280 1938.690674
8.080000 -1.960000 1.840000 57.845695 32.149864 4379.738281
8.080000 -1.960000 1.880000 69.491623 71.217102 9900.960938
8.080000 -1.960000 1.920000 42.566593 122.703751 16868.125000
8.080000 -1.960000 1.960000 -24.954275 145.912384 21913.140625
8.080000 -1.960000 2.000000 -96.370232 113.362625 22138.306641
8.080000 -1.960000 2.040000 -124.863197 40.504272 17231.414062
8.080000 -1.960000 2.080000 -95.744537 -24.087904 9747.244141
8.080000 -1.960000 2.120000 -40.331970 -41.176517 3322.173340
8.080000 -1.960000 2.160000 -6.475483 -15.037923 268.071014
8.080000 -1.960000 2.200000 -14.433446 14.232239 410.880981
8.080000 -1.920000 1.800000 10.383477 35.809479 1390.135376
8.080000 -1.920000 1.840000 22.068489 50.210464 3008.109131
8.080000 -1.920000 1.880000 14.140623 84.763832 7384.864258
8.080000 -1.920000 1.920000 -29.945644 111.589630 13348.986328
8.080000 -1.920000 1.960000 -92.404053 97.410774 18027.367188
8.080000 -1.920000 2.000000 -131.229584 38.530506 18705.802734
8.080000 -1.920000 2.040000 -117.950500 -30.075792 14816.874023
8.080000 -1.920000 2.080000 -65.759842 -64.106323 8433.977539
8.080000 -1.920000 2.120000 -18.247189 -50.128670 2845.843506
8.080000 -1.920000 2.160000 -8.685198 -16.389717 344.055481
8.080000 -1.920000 2.200000 -30.402092 -3.334846 935.408386
8.080000 -1.880000 1.800000 -14.166023 22.211182 694.012817
8.080000 -1.880000 1.840000 -9.273905 36.084534 1388.098877
8.080000 -1.880000 1.880000 -27.407717 57.019676 4002.426270
8.080000 -1.880000 1.920000 -68.139656 57.363110 7933.539062
8.080000 -1.880000 1.960000 -104.133224 21.615232 11310.947266
8.080000 -1.880000 2.000000 -105.013016 -33.955318 12180.697266
8.080000 -1.880000 2.040000 -67.631424 -73.218010 9934.886719
8.080000 -1.880000 2.080000 -20.786648 -73.506943 5835.355469
8.080000 -1.880000 2.120000 1.797782 -46.614052 2176.101807
8.080000 -1.880000 2.160000 -6.891685 -25.715374 708.775757
8.080000 -1.880000 2.200000 -23.028881 -31.861460 1545.481934
8.080000 -1.840000 1.800000 -15.537785 -3.119772 251.155716
8.080000 -1.840000 1.840000 -14.524345 9.091522 293.612366
8.080000 -1.840000 1.880000 -32.365715 17.075203 1339.102051
8.080000 -1.840000 1.920000 -56.747887 3.164837 3230.338867
8.080000 -1.840000 1.960000 -64.380348 -30.531971 5077.030273
8.080000 -1.840000 2.000000 -44.502228 -61.843197 5805.029297
8.080000 -1.840000 2.040000 -10.570354 -69.643005 4961.880859
8.080000 -1.840000 2.080000 12.906570 -54.427071 3128.885498
8.080000 -1.840000 2.120000 14.645923 -36.532387 1549.118286
8.080000 -1.840000 2.160000 6.324759 -34.226265 1211.439819
8.080000 -1.840000 2.200000 8.112276 -45.356464 2123.017822
8.080000 -1.800000 1.800000 4.147041 -15.581786 259.989990
8.080000 -1.800000 1.840000 1.583339 -4.311550 21.096428
8.080000 -1.800000 1.880000 -11.414212 -3.503990 142.562195
8.080000 -1.800000 1.920000 -19.960962 -17.517590 705.305908
8.080000 -1.800000 1.960000 -13.120171 -35.284203 1417.113892
8.080000 -1.800000 2.000000 4.670162 -42.246620 1806.587280
8.080000 -1.800000 2.040000 19.197371 -35.721817 1644.587280
8.080000 -1.800000 2.080000 22.474552 -26.511742 1207.977905
8.080000 -1.800000 2.120000 20.796227 -25.371996 1076.221191
8.080000 -1.800000 2.160000 25.984177 -30.327599 1594.940674
8.080000 -1.800000 2.200000 40.417580 -29.425642 2499.449219
8.120000 -2.200000 1.800000 -29.046989 18.378609 1181.500854
8.120000 -2.200000 1.840000 -33.842785 0.996494 1146.327148
8.120000 -2.200000 1.880000 -21.055309 -14.754229 661.013306
8.120000 -2.200000 1.920000 -0.323332 -13.554612 183.832047
8.120000 -2.200000 1.960000 9.802583 3.502512 108.358223
8.120000 -2.200000 2.000000 1.204949 19.598118 385.538116
8.120000 -2.200000 2.040000 -15.481531 19.726696 628.820374
8.120000 -2.200000 2.080000 -22.579826 6.085803 546.885559
8.120000 -2.200000 2.120000 -14.174724 -5.281132 228.813141
8.120000 -2.200000 2.160000 -1.545969 -2.424995 8.270621
8.120000 -2.200000 2.200000 0.105502 9.850712 97.047653
8.120000 -2.160000 1.800000 -33.240440 -5.359685 1133.653076
8.120000 -2.160000 1.840000 -28.536520 -22.221981 1308.149414
8.120000 -2.160000 1.880000 -8.755283 -30.452824 1004.029419
8.120000 -2.160000 1.920000 11.809131 -19.602524 523.714478
8.120000 -2.160000 1.960000 16.374193 2.952625 276.832184
8.120000 -2.160000 2.000000 2.661164 18.993273 367.826202
8.120000 -2.160000 2.040000 -15.360434 17.630890 546.791199
8.120000 -2.160000 2.080000 -22.413132 5.084413 528.199707
8.120000 -2.160000 2.120000 -16.933826 -3.771839 300.981262
8.120000 -2.160000 2.160000 -10.383924 -1.909531 111.472198
8.120000 -2.160000 2.200000 -12.781288 3.508883 175.673584
8.120000 -2.120000 1.800000 -15.944682 -26.715168 967.933105
8.120000 -2.120000 1.840000 -4.344576 -37.001717 1388.002441
8.120000 -2.120000 1.880000 17.059273 -34.782265 1500.824707
8.120000 -2.120000 1.920000 32.805447 -14.707702 1292.513916
8.120000 -2.120000 1.960000 29.213154 12.222715 1002.803162
8.120000 -2.120000 2.000000 7.876085 28.023067 847.325012
8.120000 -2.120000 2.040000 -15.788280 23.988583 824.721924
8.120000 -2.120000 2.080000 -26.926016 7.379635 779.469299
8.120000 -2.120000 2.120000 -23.637726 -7.263070 611.494263
8.120000 -2.120000 2.160000 -15.560383 -12.154854 389.865997
8.120000 -2.120000 2.200000 -11.964241 -11.290857 270.626526
8.120000 -2.080000 1.800000 14.137134 -27.586662 960.882446
8.120000 -2.080000 1.840000 26.462332 -28.776966 1528.368774
8.120000 -2.080000 1.880000 43.259281 -16.881004 2156.333740
8.120000 -2.080000 1.920000 49.335129 9.753898 2529.093262
8.120000 -2.080000 1.960000 33.616673 37.454765 2532.940186
8.120000 -2.080000 2.000000 1.381365 47.595345 2267.225098
8.120000 -2.080000 2.040000 -28.352175 32.999664 1892.823730
8.120000 -2.080000 2.080000 -38.404518 4.583638 1495.916748
8.120000 -2.080000 2.120000 -27.325386 -18.223370 1078.767822
8.120000 -2.080000 2.160000 -8.811018 -23.924534 650.017334
8.120000 -2.080000 2.200000 1.922757 -16.871269 288.336731
8.120000 -2.040000 1.800000 35.458191 -3.993124 1273.228394
8.120000 -2.040000 1.840000 42.657654 1.349020 1821.495239
8.120000 -2.040000 1.880000 50.235126 18.588593 2869.103516
8.120000 -2.040000 1.920000 43.115829 45.920162 3967.636230
8.120000 -2.040000 1.960000 13.725412 66.282181 4581.714355
8.120000 -2.040000 2.000000 -26.324226 61.143341 4431.473145
8.120000 -2.040000 2.040000 -52.754318 29.019766 3625.164795
8.120000 -2.040000 2.080000 -49.130821 -10.263072 2519.168213
8.120000 -2.040000 2.120000 -21.954086 -31.434782 1470.127441
8.120000 -2.040000 2.160000 4.993585 -25.535294 676.987122
8.120000 -2.040000 2.200000 12.189297 -6.606736 192.227905
8.120000 -2.000000 1.800000 31.081709 28.125193 1757.099121
8.120000 -2.000000 1.840000 31.315855 34.538853 2173.615234
8.120000 -2.000000 1.880000 28.593002 51.019314 3420.530273
8.120000 -2.000000 1.920000 8.922044 70.910973 5107.969238
8.120000 -2.000000 1.960000 -28.538422 74.580254 6376.655762
8.120000 -2.000000 2.000000 -64.200058 48.583649 6482.018555
8.120000 -2.000000 2.040000 -72.782532 2.869302 5305.529785
8.120000 -2.000000 2.080000 -47.476143 -33.845226 3399.483398
8.120000 -2.000000 2.120000 -8.779205 -38.798569 1582.403442
8.120000 -2.000000 2.160000 12.986760 -16.329556 435.310333
8.120000 -2.000000 2.200000 5.503811 6.386199 71.075470
8.120000 -1.960000 1.800000 4.021423 44.865551 2029.089600
8.120000 -1.960000 1.840000 -0.142169 48.257664 2328.822266
8.120000 -1.960000 1.880000 -10.523588 58.802361 3568.463379
8.120000 -1.960000 1.920000 -36.476639 64.547813 5496.965820
8.120000 -1.960000 1.960000 -69.531090 48.038818 7142.300293
8.120000 -1.960000 2.000000 -86.065613 7.306628 7460.676270
8.120000 -1.960000 2.040000 -69.362198 -36.009109 6107.770508
8.120000 -1.960000 2.080000 -28.926016 -53.531792 3702.367188
8.120000 -1.960000 2.120000 5.014346 -37.093918 1401.102417
8.120000 -1.960000 2.160000 8.969400 -7.889341 142.691849
8.120000 -1.960000 2.200000 -11.362523 3.335304 140.231186
8.120000 -1.920000 1.800000 -24.254240 34.567356 1783.170288
8.120000 -1.920000 1.840000 -29.117144 34.867950 2063.582031
8.120000 -1.920000 1.880000 -42.543106 37.208023 3194.353027
8.120000 -1.920000 1.920000 -65.159004 27.667402 5011.181152
8.120000 -1.920000 1.960000 -81.346992 -2.227542 6622.294922
8.120000 -1.920000 2.000000 -72.626160 -41.302628 6980.466309
8.120000 -1.920000 2.040000 -38.445221 -64.792404 5676.090820
8.120000 -1.920000 2.080000 -1.053912 -57.452961 3301.953613
8.120000 -1.920000 2.120000 13.610253 -30.176250 1095.845093
8.120000 -1.920000 2.160000 1.052344 -11.064449 123.529465
8.120000 -1.920000 2.200000 -16.927382 -18.222803 618.606812
8.120000 -1.880000 1.800000 -31.935707 8.058777 1084.833252
8.120000 -1.880000 1.840000 -36.540340 7.803726 1396.094727
8.120000 -1.880000 1.880000 -48.875244 2.551690 2395.300781
8.120000 -1.880000 1.920000 -60.204609 -16.900688 3910.228271
8.120000 -1.880000 1.960000 -55.328648 -46.291927 5204.202148
8.120000 -1.880000 2.000000 -29.322968 -67.671577 5439.278809
8.120000 -1.880000 2.040000 3.821367 -65.637909 4322.937988
8.120000 -1.880000 2.080000 22.254915 -43.945690 2426.504883
8.120000 -1.880000 2.120000 17.425621 -23.694323 865.073181
8.120000 -1.880000 2.160000 3.184776 -23.090755 543.325806
8.120000 -1.880000 2.200000 2.204542 -39.062691 1530.753784
8.120000 -1.840000 1.800000 -15.687604 -10.949535 365.993256
8.120000 -1.840000 1.840000 -22.444771 -10.726807 618.832092
8.120000 -1.840000 1.880000 -31.204063 -21.722782 1445.572876
8.120000 -1.840000 1.920000 -28.889610 -42.482162 2639.343750
8.120000 -1.840000 1.960000 -9.473322 -59.075222 3579.625732
8.120000 -1.840000 2.000000 17.304462 -57.836819 3644.541992
8.120000 -1.840000 2.040000 33.671314 -40.015995 2735.037354
8.120000 -1.840000 2.080000 31.377499 -21.930304 1465.485596
8.120000 -1.840000 2.120000 20.531727 -18.910187 779.146973
8.120000 -1.840000 2.160000 19.450893 -29.432552 1244.612427
8.120000 -1.840000 2.200000 35.496513 -36.475182 2590.441406
8.120000 -1.800000 1.800000 7.052147 -6.956699 98.128448
8.120000 -1.800000 1.840000 -4.073589 -9.225779 101.709122
8.120000 -1.800000 1.880000 -7.745854 -24.221323 646.670776
8.120000 -1.800000 1.920000 5.008419 -39.201061 1561.807373
8.120000 -1.800000 1.960000 27.002401 -39.250874 2269.760742
8.120000 -1.800000 2.000000 41.104549 -23.337753 2234.234863
8.120000 -1.800000 2.040000 38.052567 -6.215851 1486.634644
8.120000 -1.800000 2.080000 26.624775 -3.012855 717.955933
8.120000 -1.800000 2.120000 24.385839 -12.725745 756.613770
8.120000 -1.800000 2.160000 38.421013 -18.912325 1833.850220
8.120000 -1.800000 2.200000 57.031799 -7.365796 3306.881104
8.160000 -2.200000 1.800000 -40.708786 -4.966641 1681.872681
8.160000 -2.200000 1.840000 -32.320644 -27.666508 1810.059692
8.160000 -2.200000 1.880000 -5.783930 -35.351120 1283.155518
8.160000 -2.200000 1.920000 17.143169 -17.904728 614.467529
8.160000 -2.200000 1.960000 15.938008 10.183189 357.717468
8.160000 -2.200000 2.000000 -7.151968 23.224188 590.513550
8.160000 -2.200000 2.040000 -28.634136 10.156935 923.077087
8.160000 -2.200000 2.080000 -27.361988 -14.331781 954.078369
8.160000 -2.200000 2.120000 -5.612765 -25.110817 662.056213
8.160000 -2.200000 2.160000 14.240791 -12.169783 350.903748
8.160000 -2.200000 2.200000 13.262153 10.286891 281.704834
8.160000 -2.160000 1.800000 -25.907768 -24.551285 1273.978027
8.160000 -2.160000 1.840000 -9.976428 -36.277760 1415.604980
8.160000 -2.160000 1.880000 13.258446 -29.130161 1024.352661
8.160000 -2.160000 1.920000 22.654497 -3.940232 528.751709
8.160000 -2.160000 1.960000 7.729752 19.257542 430.601959
8.160000 -2.160000 2.000000 -19.166239 20.420612 784.346069
8.160000 -2.160000 2.040000 -34.175232 -0.223248 1167.996338
8.160000 -2.160000 2.080000 -25.387615 -22.310860 1142.305420
8.160000 -2.160000 2.120000 -3.974400 -25.953041 689.356201
8.160000 -2.160000 2.160000 8.329419 -11.050612 191.495270
8.160000 -2.160000 2.200000 1.591352 4.427206 22.132549
8.160000 -2.120000 1.800000 0.633062 -26.647623 710.496582
8.160000 -2.120000 1.840000 13.376327 -25.428684 825.544067
8.160000 -2.120000 1.880000 23.816256 -10.330809 673.939636
8.160000 -2.120000 1.920000 18.329170 11.399844 465.914948
8.160000 -2.120000 1.960000 -3.786017 22.526905 521.795410
8.160000 -2.120000 2.000000 -27.193592 12.525299 896.374573
8.160000 -2.120000 2.040000 -34.077980 -11.210903 1286.993042
8.160000 -2.120000 2.080000 -20.888559 -29.756987 1321.810181
8.160000 -2.120000 2.120000 -1.116444 -30.359869 922.968079
8.160000 -2.120000 2.160000 8.427135 -17.452782 375.616180
8.160000 -2.120000 2.200000 3.414216 -6.397091 52.579639
8.160000 -2.080000 1.800000 20.701418 -6.702008 473.465607
8.160000 -2.080000 1.840000 21.683479 0.366087 470.307312
8.160000 -2.080000 1.880000 18.095968 11.891800 468.878967
8.160000 -2.080000 1.920000 4.437880 21.749226 492.723572
8.160000 -2.080000 1.960000 -16.089550 19.906116 655.127075
8.160000 -2.080000 2.000000 -31.429005 2.798814 995.615723
8.160000 -2.080000 2.040000 -30.397964 -20.960533 1363.380249
8.160000 -2.080000 2.080000 -13.277902 -36.364574 1498.685059
8.160000 -2.080000 2.120000 7.510220 -34.587254 1252.681519
8.160000 -2.080000 2.160000 17.885118 -20.420551 736.876343
8.160000 -2.080000 2.200000 13.980204 -7.396725 250.157639
8.160000 -2.040000 1.800000 18.437416 22.726665 856.439697
8.160000 -2.040000 1.840000 7.777931 24.732578 672.196655
8.160000 -2.040000 1.880000 -2.490041 24.634542 613.060974
8.160000 -2.040000 1.920000 -14.699553 21.550014 680.479980
8.160000 -2.040000 1.960000 -27.390705 10.923801 869.580200
8.160000 -2.040000 2.000000 -32.976479 -8.708308 1163.282715
8.160000 -2.040000 2.040000 -23.918903 -29.984577 1471.188843
8.160000 -2.040000 2.080000 -1.982113 -40.121235 1613.642212
8.160000 -2.040000 2.120000 19.986546 -32.038334 1425.916870
8.160000 -2.040000 2.160000 27.685577 -12.419416 920.733093
8.160000 -2.040000 2.200000 18.264210 2.686586 340.799103
8.160000 -2.000000 1.800000 -5.822368 40.416782 1667.416260
8.160000 -2.000000 1.840000 -19.927229 31.167759 1368.523682
8.160000 -2.000000 1.880000 -27.202328 19.710510 1128.470825
8.160000 -2.000000 1.920000 -31.595329 8.663088 1073.313965
8.160000 -2.000000 1.960000 -34.316643 -5.174768 1204.410156
8.160000 -2.000000 2.000000 -29.949375 -23.132538 1432.079346
8.160000 -2.000000 2.040000 -13.167267 -37.955612 1614.005493
8.160000 -2.000000 2.080000 11.313022 -38.267181 1592.361694
8.160000 -2.000000 2.120000 28.664448 -21.190348 1270.681396
8.160000 -2.000000 2.160000 26.751356 1.063389 716.765869
8.160000 -2.000000 2.200000 9.438753 10.203452 193.200500
8.160000 -1.960000 1.800000 -34.535393 33.534599 2317.262695
8.160000 -1.960000 1.840000 -43.226585 15.735836 2116.154297
8.160000 -1.960000 1.880000 -42.594414 -0.774243 1814.883545
8.160000 -1.960000 1.920000 -38.212421 -13.787151 1650.274780
8.160000 -1.960000 1.960000 -31.415277 -26.368876 1682.237305
8.160000 -1.960000 2.000000 -18.051636 -38.139229 1780.462402
8.160000 -1.960000 2.040000 2.974935 -41.588024 1738.413940
8.160000 -1.960000 2.080000 22.780792 -29.986378 1418.147339
8.160000 -1.960000 2.120000 28.065863 -8.385183 858.003906
8.160000 -1.960000 2.160000 15.381411 6.897777 284.167114
8.160000 -1.960000 2.200000 -1.944462 2.911245 12.256278
8.160000 -1.920000 1.800000 -46.852367 8.511171 2267.584229
8.160000 -1.920000 1.840000 -47.931396 -10.111975 2399.670654
8.160000 -1.920000 1.880000 -41.013153 -25.918777 2353.861816
8.160000 -1.920000 1.920000 -29.751650 -37.616257 2300.143555
8.160000 -1.920000 1.960000 -14.672076 -45.424046 2278.613770
8.160000 -1.920000 2.000000 4.257408 -46.314499 2163.158203
8.160000 -1.920000 2.040000 21.948627 -36.188477 1791.348145
8.160000 -1.920000 2.080000 29.014982 -17.462818 1146.819214
8.160000 -1.920000 2.120000 21.010351 -1.688397 444.285522
8.160000 -1.920000 2.160000 6.242817 -0.819504 39.644348
8.160000 -1.920000 2.200000 1.061232 -14.349663 207.039032
8.160000 -1.880000 1.800000 -35.787834 -14.274358 1484.526367
8.160000 -1.880000 1.840000 -34.201847 -28.994238 2010.432129
8.160000 -1.880000 1.880000 -24.822838 -43.296078 2490.723633
8.160000 -1.880000 1.920000 -7.868537 -52.653442 2834.298828
8.160000 -1.880000 1.960000 13.301657 -52.102844 2891.640381
8.160000 -1.880000 2.000000 31.098484 -39.506081 2527.846191
8.160000 -1.880000 2.040000 37.041080 -19.776520 1763.152344
8.160000 -1.880000 2.080000 29.051037 -4.219469 861.766663
8.160000 -1.880000 2.120000 15.717333 -2.460447 253.088348
8.160000 -1.880000 2.160000 11.055210 -13.048848 292.490112
8.160000 -1.880000 2.200000 22.292023 -22.653343 1010.108215
8.160000 -1.840000 1.800000 -13.577902 -17.777609 500.402771
8.160000 -1.840000 1.840000 -14.935242 -31.127377 1191.974976
8.160000 -1.840000 1.880000 -3.768820 -46.462288 2172.948242
8.160000 -1.840000 1.920000 19.007151 -51.851158 3049.814209
8.160000 -1.840000 1.960000 41.798203 -39.918774 3340.598145
8.160000 -1.840000 2.000000 50.435829 -16.137468 2804.190918
8.160000 -1.840000 2.040000 40.810417 3.801409 1679.940796
8.160000 -1.840000 2.080000 23.895102 7.067327 620.922974
8.160000 -1.840000 2.120000 16.844055 -4.276507 302.010712
8.160000 -1.840000 2.160000 27.341892 -14.445846 956.261536
8.160000 -1.840000 2.200000 46.059837 -8.258543 2189.712158
8.160000 -1.800000 1.800000 -0.475777 -2.308905 5.557406
8.160000 -1.800000 1.840000 -4.314919 -20.610947 443.429657
8.160000 -1.800000 1.880000 11.921945 -37.663391 1560.663818
8.160000 -1.800000 1.920000 39.460850 -35.645878 2827.787354
8.160000 -1.800000 1.960000 57.244473 -12.284683 3427.843018
8.160000 -1.800000 2.000000 51.598328 15.165049 2892.366211
8.160000 -1.800000 2.040000 30.140173 25.633228 1565.492432
8.160000 -1.800000 2.080000 14.889447 14.808575 440.989502
8.160000 -1.800000 2.120000 20.585155 -0.537612 424.037659
8.160000 -1.800000 2.160000 40.006065 0.588451 1600.831543
8.160000 -1.800000 2.200000 51.448799 22.329475 3145.584473
8.200000 -2.200000 1.800000 -29.230221 -26.706520 1567.644043
8.200000 -2.200000 1.840000 -8.827576 -41.411057 1792.801758
8.200000 -2.200000 1.880000 18.991226 -32.577110 1421.934814
8.200000 -2.200000 1.920000 29.099018 -3.238871 857.243164
8.200000 -2.200000 1.960000 10.809958 21.765335 590.585022
8.200000 -2.200000 2.000000 -19.189301 19.541546 750.101257
8.200000 -2.200000 2.040000 -31.835958 -7.211073 1065.527832
8.200000 -2.200000 2.080000 -14.396412 -31.753635 1215.550049
8.200000 -2.200000 2.120000 16.628984 -29.436720 1143.043701
8.200000 -2.200000 2.160000 31.916538 -1.848014 1022.080566
8.200000 -2.200000 2.200000 18.187431 25.567909 984.500610
8.200000 -2.160000 1.800000 -8.322716 -29.490189 938.938782
8.200000 -2.160000 1.840000 9.893535 -30.264893 1013.845764
8.200000 -2.160000 1.880000 23.768040 -12.015207 709.284912
8.200000 -2.160000 1.920000 16.189610 13.088476 433.411682
8.200000 -2.160000 1.960000 -10.511236 22.056196 596.961914
8.200000 -2.160000 2.000000 -33.763721 4.417713 1159.505127
8.200000 -2.160000 2.040000 -31.847183 -25.274532 1653.045166
8.200000 -2.160000 2.080000 -5.806805 -40.190231 1648.973633
8.200000 -2.160000 2.120000 20.835747 -27.091894 1168.099121
8.200000 -2.160000 2.160000 24.880913 1.046125 620.154175
8.200000 -2.160000 2.200000 5.491506 18.527605 373.428802
8.200000 -2.120000 1.800000 8.301699 -14.825788 288.722168
8.200000 -2.120000 1.840000 13.830546 -8.307661 260.301239
8.200000 -2.120000 1.880000 10.973351 5.286797 148.364639
8.200000 -2.120000 1.920000 -5.550122 13.921591 224.614532
8.200000 -2.120000 1.960000 -26.322668 5.185815 719.775574
8.200000 -2.120000 2.000000 -33.610497 -19.149343 1496.362915
8.200000 -2.120000 2.040000 -18.468376 -41.640488 2075.011230
8.200000 -2.120000 2.080000 8.953893 -44.194004 2033.282227
8.200000 -2.120000 2.120000 27.502525 -25.153851 1389.105103
8.200000 -2.120000 2.160000 24.245108 -1.073954 588.978638
8.200000 -2.120000 2.200000 5.762645 8.934338 113.030464
8.200000 -2.080000 1.800000 7.703646 8.614141 133.549591
8.200000 -2.080000 1.840000 -0.965775 9.465755 90.533249
8.200000 -2.080000 1.880000 -11.219898 6.943008 174.091476
8.200000 -2.080000 1.920000 -21.481035 -2.197573 466.264191
8.200000 -2.080000 1.960000 -25.557537 -19.001740 1014.253784
8.200000 -2.080000 2.000000 -16.896257 -37.521667 1693.359009
8.200000 -2.080000 2.040000 3.824180 -46.668709 2192.592529
8.200000 -2.080000 2.080000 26.090492 -38.991283 2201.033936
8.200000 -2.080000 2.120000 36.391106 -18.417927 1663.532715
8.200000 -2.080000 2.160000 29.299290 1.459951 860.579834
8.200000 -2.080000 2.200000 12.353668 8.114207 218.453476
8.200000 -2.040000 1.800000 -11.581045 24.151560 717.418457
8.200000 -2.040000 1.840000 -25.087013 10.034874 730.056885
8.200000 -2.040000 1.880000 -28.138134 -8.616505 865.998718
8.200000 -2.040000 1.920000 -21.681486 -25.113506 1100.775024
8.200000 -2.040000 1.960000 -9.128822 -36.310352 1401.777100
8.200000 -2.040000 2.000000 7.090538 -41.043205 1734.820435
8.200000 -2.040000 2.040000 24.622538 -37.437832 2007.860596
8.200000 -2.040000 2.080000 38.333988 -24.152876 2052.855957
8.200000 -2.040000 2.120000 41.317196 -4.702809 1729.227173
8.200000 -2.040000 2.160000 30.883986 11.420439 1084.246948
8.200000 -2.040000 2.200000 13.489563 14.713317 398.450012
8.200000 -2.000000 1.800000 -36.824348 19.784863 1747.473389
8.200000 -2.000000 1.840000 -42.456478 -7.602880 1860.356323
8.200000 -2.000000 1.880000 -29.717518 -31.631636 1883.691162
8.200000 -2.000000 1.920000 -7.745444 -42.061577 1829.168213
8.200000 -2.000000 1.960000 12.326653 -39.684689 1726.820923
8.200000 -2.000000 2.000000 26.231321 -31.040401 1651.588745
8.200000 -2.000000 2.040000 35.464714 -19.781656 1649.059937
8.200000 -2.000000 2.080000 40.111736 -5.373300 1637.823730
8.200000 -2.000000 2.120000 36.386936 10.683917 1438.155273
8.200000 -2.000000 2.160000 22.748064 20.992638 958.165283
8.200000 -2.000000 2.200000 6.399340 17.924515 362.239777
8.200000 -1.960000 1.800000 -50.394791 -1.752768 2542.707275
8.200000 -1.960000 1.840000 -42.428093 -31.966328 2821.989258
8.200000 -1.960000 1.880000 -16.841370 -49.500153 2733.896973
8.200000 -1.960000 1.920000 11.128379 -47.500507 2380.138916
8.200000 -1.960000 1.960000 29.050884 -32.902267 1926.513062
8.200000 -1.960000 2.000000 35.578594 -16.455391 1536.616333
8.200000 -1.960000 2.040000 35.820259 -2.723548 1290.508667
8.200000 -1.960000 2.080000 32.254032 9.362306 1127.975342
8.200000 -1.960000 2.120000 23.209219 18.936821 897.270996
8.200000 -1.960000 2.160000 9.800656 20.585999 519.836182
8.200000 -1.960000 2.200000 0.333818 11.347281 128.872208
8.200000 -1.920000 1.800000 -43.801163 -24.798378 2533.501465
8.200000 -1.920000 1.840000 -27.035654 -48.475056 3080.757568
8.200000 -1.920000 1.880000 1.932946 -55.840210 3121.865479
8.200000 -1.920000 1.920000 27.607937 -44.410091 2734.454346
8.200000 -1.920000 1.960000 39.869354 -23.420948 2138.106201
8.200000 -1.920000 2.000000 39.170574 -3.810320 1548.852417
8.200000 -1.920000 2.040000 31.406080 9.418170 1075.043823
8.200000 -1.920000 2.080000 21.052156 16.164513 704.484741
8.200000 -1.920000 2.120000 10.517044 16.488426 382.476410
8.200000 -1.920000 2.160000 3.626756 10.306951 119.386589
8.200000 -1.920000 2.200000 5.399355 1.537180 31.515957
8.200000 -1.880000 1.800000 -24.387165 -33.514690 1717.968262
8.200000 -1.880000 1.840000 -7.749345 -50.204277 2580.521729
8.200000 -1.880000 1.880000 18.507847 -52.345512 3082.593262
8.200000 -1.880000 1.920000 40.916431 -37.321266 3067.031250
8.200000 -1.880000 1.960000 49.190182 -13.074766 2590.623535
8.200000 -1.880000 2.000000 42.177078 8.514038 1851.394775
8.200000 -1.880000 2.040000 26.667774 19.163445 1078.407715
8.200000 -1.880000 2.080000 12.159929 17.614246 458.125549
8.200000 -1.880000 2.120000 5.908455 8.821260 112.724472
8.200000 -1.880000 2.160000 9.915007 0.991819 99.291061
8.200000 -1.880000 2.200000 19.912966 1.580599 399.024506
8.200000 -1.840000 1.800000 -8.669765 -24.657877 683.175781
8.200000 -1.840000 1.840000 4.371402 -41.207108 1717.134888
8.200000 -1.840000 1.880000 29.952358 -43.786270 2814.381104
8.200000 -1.840000 1.920000 52.669415 -26.281559 3464.787598
8.200000 -1.840000 1.960000 57.690334 2.594615 3334.906494
8.200000 -1.840000 2.000000 42.661842 25.544289 2472.543457
8.200000 -1.840000 2.040000 19.711983 30.159576 1298.162354
8.200000 -1.840000 2.080000 5.642411 18.500923 374.120941
8.200000 -1.840000 2.120000 8.509209 4.780029 95.255310
8.200000 -1.840000 2.160000 21.761335 3.254808 484.149506
8.200000 -1.840000 2.200000 30.550129 16.710524 1212.552002
8.200000 -1.800000 1.800000 -8.278231 -9.281978 154.684204
8.200000 -1.800000 1.840000 6.218073 -30.993406 999.255676
8.200000 -1.800000 1.880000 36.700302 -33.031944 2438.021484
8.200000 -1.800000 1.920000 60.401302 -8.909448 3727.695557
8.200000 -1.800000 1.960000 58.355270 25.710047 4066.344238
8.200000 -1.800000 2.000000 32.839386 45.996334 3194.088135
8.200000 -1.800000 2.040000 5.557812 40.132725 1641.524902
8.200000 -1.800000 2.080000 -2.322198 19.557110 387.873138
8.200000 -1.800000 2.120000 10.687712 7.396859 168.940704
8.200000 -1.800000 2.160000 26.383427 16.381966 964.453979
8.200000 -1.800000 2.200000 25.322601 37.757576 2066.868652
