#kx 	ky 	kz 	real 	imag 	intensity
6.800000 4.800000 -5.200000 -11.671332 -21.904877 616.043579
6.800000 4.800000 -5.160000 1.510057 -27.964911 784.316467
6.800000 4.800000 -5.120000 13.508511 -21.416746 641.156860
6.800000 4.800000 -5.080000 14.195524 -10.006023 301.633423
6.800000 4.800000 -5.040000 5.954334 -6.289280 75.009140
6.800000 4.800000 -5.000000 1.141251 -13.646294 187.523788
6.800000 4.800000 -4.960000 8.269499 -22.306232 565.952637
6.800000 4.800000 -4.920000 22.220554 -20.068764 896.508301
6.800000 4.800000 -4.880000 29.534855 -5.914427 907.288147
6.800000 4.800000 -4.840000 22.951933 8.640232 601.444824
6.800000 4.800000 -4.800000 9.092947 11.918119 224.723251
6.800000 4.840000 -5.200000 4.580719 -28.974491 860.504089
6.800000 4.840000 -5.160000 18.588194 -30.952343 1303.568481
6.800000 4.840000 -5.120000 29.937208 -23.442123 1445.769531
6.800000 4.840000 -5.080000 33.298737 -12.527876 1265.753540
6.800000 4.840000 -5.040000 30.685047 -4.940966 965.985291
6.800000 4.840000 -5.000000 27.694477 -1.963320 770.838684
6.800000 4.840000 -4.960000 27.031006 -0.038129 730.676758
6.800000 4.840000 -4.920000 26.616219 3.680292 721.967651
6.800000 4.840000 -4.880000 23.581133 7.825093 617.301880
6.800000 4.840000 -4.840000 18.645500 9.160674 431.572632
6.800000 4.840000 -4.800000 15.384548 7.334311 290.476440
6.800000 4.880000 -5.200000 17.457909 -21.947134 786.455261
6.800000 4.880000 -5.160000 31.919884 -22.097752 1507.189575
6.800000 4.880000 -5.120000 44.865055 -12.500141 2169.126709
6.800000 4.880000 -5.080000 49.858940 3.540798 2498.451172
6.800000 4.880000 -5.040000 44.547237 19.109909 2349.645020
6.800000 4.880000 -5.000000 32.031948 27.557446 1785.458496
6.800000 4.880000 -4.960000 19.198486 26.332582 1061.986816
6.800000 4.880000 -4.920000 12.587347 18.581913 503.728760
6.800000 4.880000 -4.880000 14.265840 11.125652 327.294312
6.800000 4.880000 -4.840000 20.488098 9.808175 515.962463
6.800000 4.880000 -4.800000 24.581024 15.369312 840.442505
6.800000 4.920000 -5.200000 19.040522 -11.235069 488.768250
6.800000 4.920000 -5.160000 35.869911 -8.760216 1363.391846
6.800000 4.920000 -5.120000 48.971046 6.851039 2445.100098
6.800000 4.920000 -5.080000 48.419811 29.580734 3219.497803
6.800000 4.920000 -5.040000 32.156979 46.658249 3211.063477
6.800000 4.920000 -5.000000 9.423334 47.601212 2354.674561
6.800000 4.920000 -4.960000 -5.139273 33.145409 1125.030273
6.800000 4.920000 -4.920000 -3.015169 15.591594 252.189041
6.800000 4.920000 -4.880000 11.000135 9.052079 202.943115
6.800000 4.920000 -4.840000 22.985415 17.746815 843.278687
6.800000 4.920000 -4.800000 22.015490 33.023640 1575.242554
6.800000 4.960000 -5.200000 14.272238 -6.666379 248.137390
6.800000 4.960000 -5.160000 32.196621 2.449507 1042.622559
6.800000 4.960000 -5.120000 38.936203 24.807491 2131.439453
6.800000 4.960000 -5.080000 26.561810 47.116898 2925.531738
6.800000 4.960000 -5.040000 1.323068 53.663612 2881.533691
6.800000 4.960000 -5.000000 -19.452276 39.772499 1960.242676
6.800000 4.960000 -4.960000 -21.273689 17.061882 743.677673
6.800000 4.960000 -4.920000 -5.210406 4.287876 45.534218
6.800000 4.960000 -4.880000 12.888121 11.205908 291.676025
6.800000 4.960000 -4.840000 16.492582 30.428373 1197.891235
6.800000 4.960000 -4.800000 2.688181 44.944885 2027.269043
6.800000 5.000000 -5.200000 12.125847 -7.336362 200.858368
6.800000 5.000000 -5.160000 24.490931 9.786526 695.581726
6.800000 5.000000 -5.120000 19.029835 31.960918 1383.634888
6.800000 5.000000 -5.080000 -2.100327 42.520920 1812.439941
6.800000 5.000000 -5.040000 -23.302647 33.071877 1636.762451
6.800000 5.000000 -5.000000 -28.238787 11.816216 937.052002
6.800000 5.000000 -4.960000 -14.370860 -2.874660 214.785294
6.800000 5.000000 -4.920000 4.526992 1.391451 22.429790
6.800000 5.000000 -4.880000 10.769856 20.143049 521.732239
6.800000 5.000000 -4.840000 -1.531486 36.762474 1353.824951
6.800000 5.000000 -4.800000 -22.360868 37.922527 1938.126465
6.800000 5.040000 -5.200000 13.651183 -5.564634 217.319946
6.800000 5.040000 -5.160000 13.749108 13.185676 362.900024
6.800000 5.040000 -5.120000 -1.258821 24.071234 581.008972
6.800000 5.040000 -5.080000 -18.198372 17.980328 654.472900
6.800000 5.040000 -5.040000 -21.942390 1.113914 482.709320
6.800000 5.040000 -5.000000 -9.550207 -10.269184 196.662598
6.800000 5.040000 -4.960000 6.775496 -4.918924 70.103165
6.800000 5.040000 -4.920000 11.044751 12.950077 289.691040
6.800000 5.040000 -4.880000 -1.810153 27.907711 782.117004
6.800000 5.040000 -4.840000 -22.090990 27.756729 1258.447876
6.800000 5.040000 -4.800000 -35.367905 13.760416 1440.237671
6.800000 5.080000 -5.200000 11.369832 1.025306 130.324341
6.800000 5.080000 -5.160000 0.534503 10.080418 101.900513
6.800000 5.080000 -5.120000 -11.778969 4.160456 156.053497
6.800000 5.080000 -5.080000 -11.284697 -10.340335 234.266907
6.800000 5.080000 -5.040000 3.600536 -17.270903 311.247955
6.800000 5.080000 -5.000000 19.197750 -6.799309 414.784210
6.800000 5.080000 -4.960000 19.548771 14.210820 584.101868
6.800000 5.080000 -4.920000 1.981340 28.332230 806.640930
6.800000 5.080000 -4.880000 -20.451038 24.037071 996.025757
6.800000 5.080000 -4.840000 -31.759871 5.756660 1041.828491
6.800000 5.080000 -4.800000 -27.465691 -12.042959 899.396973
6.800000 5.120000 -5.200000 0.281176 4.683886 22.017843
6.800000 5.120000 -5.160000 -10.292593 -2.691442 113.181328
6.800000 5.120000 -5.120000 -6.636417 -18.575899 389.106049
6.800000 5.120000 -5.080000 13.201243 -24.769070 787.779663
6.800000 5.120000 -5.040000 33.033466 -9.583075 1183.045166
6.800000 5.120000 -5.000000 33.111919 18.537617 1440.042358
6.800000 5.120000 -4.960000 9.915089 37.298080 1489.455811
6.800000 5.120000 -4.920000 -19.421612 31.337524 1359.239502
6.800000 5.120000 -4.880000 -33.015244 6.483025 1132.036011
6.800000 5.120000 -4.840000 -24.220949 -16.892815 872.021545
6.800000 5.120000 -4.800000 -5.521324 -23.851740 599.390503
6.800000 5.160000 -5.200000 -13.331671 -3.784351 192.054764
6.800000 5.160000 -5.160000 -10.422409 -22.610477 619.860291
6.800000 5.160000 -5.120000 12.428390 -32.963539 1241.059814
6.800000 5.160000 -5.080000 39.430286 -18.399719 1893.297119
6.800000 5.160000 -5.040000 45.897236 15.836874 2357.362793
6.800000 5.160000 -5.000000 22.177570 44.351170 2458.870850
6.800000 5.160000 -4.960000 -15.170966 44.142731 2178.739014
6.800000 5.160000 -4.920000 -37.585567 16.226974 1675.989624
6.800000 5.160000 -4.880000 -30.484776 -15.701156 1175.847778
6.800000 5.160000 -4.840000 -5.028826 -28.040852 811.578430
6.800000 5.160000 -4.800000 15.356262 -18.035686 561.100769
6.800000 5.200000 -5.200000 -16.606060 -22.925400 801.335205
6.800000 5.200000 -5.160000 4.280253 -39.413166 1571.718262
6.800000 5.200000 -5.120000 36.268623 -31.781763 2325.493652
6.800000 5.200000 -5.080000 53.223682 2.111146 2837.217285
6.800000 5.200000 -5.040000 37.284500 39.770912 2971.859375
6.800000 5.200000 -5.000000 -2.472765 52.113422 2721.923340
6.800000 5.200000 -4.960000 -36.139454 29.942579 2202.618164
6.800000 5.200000 -4.920000 -39.390030 -7.374037 1605.950928
6.800000 5.200000 -4.880000 -14.556146 -30.047136 1114.711792
6.800000 5.200000 -4.840000 14.107790 -24.632330 805.781372
6.800000 5.200000 -4.800000 24.789274 -2.981337 623.396484
6.840000 4.800000 -5.200000 20.246162 -12.715550 571.592346
6.840000 4.800000 -5.160000 25.369762 -3.934784 659.107361
6.840000 4.800000 -5.120000 21.477106 5.578421 492.384857
6.840000 4.800000 -5.080000 12.063831 7.096123 195.890991
6.840000 4.800000 -5.040000 7.293855 -0.413979 53.371696
6.840000 4.800000 -5.000000 13.160900 -7.856672 234.936584
6.840000 4.800000 -4.960000 24.075823 -5.135258 606.016113
6.840000 4.800000 -4.920000 27.879568 7.530871 833.984375
6.840000 4.800000 -4.880000 18.703484 18.852890 705.251770
6.840000 4.800000 -4.840000 3.786373 17.878925 333.992584
6.840000 4.800000 -4.800000 -3.598053 5.550186 43.750549
6.840000 4.840000 -5.200000 25.957516 -2.398201 679.543945
6.840000 4.840000 -5.160000 30.521914 2.285126 936.809021
6.840000 4.840000 -5.120000 32.869984 9.490450 1170.504395
6.840000 4.840000 -5.080000 31.822870 17.565517 1321.242432
6.840000 4.840000 -5.040000 27.307409 24.853621 1363.396973
6.840000 4.840000 -5.000000 19.643566 29.797607 1273.767090
6.840000 4.840000 -4.960000 9.944159 30.492788 1028.696411
6.840000 4.840000 -4.920000 1.115592 25.566055 654.867737
6.840000 4.840000 -4.880000 -2.778131 16.315262 273.905792
6.840000 4.840000 -4.840000 0.439687 7.428885 55.381664
6.840000 4.840000 -4.800000 8.292216 4.173136 86.175911
6.840000 4.880000 -5.200000 19.819529 8.091030 458.278503
6.840000 4.880000 -5.160000 30.045164 10.854958 1020.541992
6.840000 4.880000 -5.120000 38.244591 24.942600 2084.781982
6.840000 4.880000 -5.080000 33.762745 45.851181 3242.253906
6.840000 4.880000 -5.040000 13.390936 60.623829 3854.565674
6.840000 4.880000 -5.000000 -13.644337 57.544426 3497.528809
6.840000 4.880000 -4.960000 -31.234472 36.560253 2312.244385
6.840000 4.880000 -4.920000 -28.894356 10.774100 950.965027
6.840000 4.880000 -4.880000 -10.455181 -3.358720 120.591812
6.840000 4.880000 -4.840000 9.118015 0.993265 84.124779
6.840000 4.880000 -4.800000 16.199553 16.369196 530.376099
6.840000 4.920000 -5.200000 8.079148 8.165900 131.954559
6.840000 4.920000 -5.160000 24.831274 17.108772 909.302246
6.840000 4.920000 -5.120000 29.095219 43.008152 2696.232910
6.840000 4.920000 -5.080000 8.246744 68.728203 4791.574707
6.840000 4.920000 -5.040000 -30.017351 71.540871 6019.137695
6.840000 4.920000 -5.000000 -60.543121 43.765671 5580.903320
6.840000 4.920000 -4.960000 -61.000931 2.163168 3725.792725
6.840000 4.920000 -4.920000 -31.676596 -24.547514 1605.987183
6.840000 4.920000 -4.880000 4.139261 -19.723141 406.135773
6.840000 4.920000 -4.840000 20.271879 7.751928 471.041504
6.840000 4.920000 -4.800000 9.470290 32.998749 1178.603882
6.840000 4.960000 -5.200000 2.882039 -1.096785 9.509086
6.840000 4.960000 -5.160000 17.998795 19.904552 720.147827
6.840000 4.960000 -5.120000 7.160840 50.911259 2643.233887
6.840000 4.960000 -5.080000 -30.387079 64.101776 5032.412109
6.840000 4.960000 -5.040000 -69.624359 41.377220 6559.625488
6.840000 4.960000 -5.000000 -79.046799 -6.289600 6287.955566
6.840000 4.960000 -4.960000 -48.920036 -45.192284 4435.512695
6.840000 4.960000 -4.920000 -1.525182 -47.256912 2235.541992
6.840000 4.960000 -4.880000 27.636482 -14.375058 970.417480
6.840000 4.960000 -4.840000 20.404116 24.426388 1012.976379
6.840000 4.960000 -4.800000 -10.483747 39.806137 1694.437500
6.840000 5.000000 -5.200000 8.268993 -8.394028 138.835953
6.840000 5.000000 -5.160000 10.543857 20.323439 524.215088
6.840000 5.000000 -5.120000 -16.451693 41.412834 1985.681030
6.840000 5.000000 -5.080000 -55.099369 30.578585 3970.990234
6.840000 5.000000 -5.040000 -72.625175 -11.080824 5397.200684
6.840000 5.000000 -5.000000 -50.169613 -54.018318 5434.968750
6.840000 5.000000 -4.960000 -1.810438 -64.497528 4163.208984
6.840000 5.000000 -4.920000 36.171898 -34.545834 2501.820801
6.840000 5.000000 -4.880000 36.713959 11.014917 1469.243164
6.840000 5.000000 -4.840000 4.468321 37.251259 1407.622192
6.840000 5.000000 -4.800000 -31.345404 29.323647 1842.410522
6.840000 5.040000 -5.200000 15.613731 -5.546876 274.556427
6.840000 5.040000 -5.160000 1.702486 17.546772 310.787689
6.840000 5.040000 -5.120000 -28.752800 17.759293 1142.115967
6.840000 5.040000 -5.080000 -48.454296 -11.137486 2471.862549
6.840000 5.040000 -5.040000 -35.499893 -48.335392 3596.552490
6.840000 5.040000 -5.000000 4.824769 -62.301132 3904.709473
6.840000 5.040000 -4.960000 42.460751 -39.057217 3328.381348
6.840000 5.040000 -4.920000 48.427643 4.504972 2365.531250
6.840000 5.040000 -4.880000 19.946028 35.461708 1655.376709
6.840000 5.040000 -4.840000 -18.818613 33.564888 1480.741943
6.840000 5.040000 -4.800000 -39.808338 6.393522 1625.580811
6.840000 5.080000 -5.200000 13.878229 2.679439 199.784637
6.840000 5.080000 -5.160000 -6.690391 8.532082 117.557755
6.840000 5.080000 -5.120000 -23.045628 -8.638888 605.731323
6.840000 5.080000 -5.080000 -15.773514 -35.388252 1501.132080
6.840000 5.080000 -5.040000 14.351503 -46.436829 2362.344727
6.840000 5.080000 -5.000000 44.646511 -27.741976 2762.928223
6.840000 5.080000 -4.960000 49.913044 9.449425 2580.603516
6.840000 5.080000 -4.920000 24.942266 37.793781 2050.486572
6.840000 5.080000 -4.880000 -11.384214 37.655590 1547.543823
6.840000 5.080000 -4.840000 -33.630489 12.721256 1292.840088
6.840000 5.080000 -4.800000 -31.138426 -16.361193 1237.290161
6.840000 5.120000 -5.200000 3.001859 3.786954 23.352180
6.840000 5.120000 -5.160000 -8.535412 -7.032867 122.314484
6.840000 5.120000 -5.120000 -2.382339 -25.306896 646.114563
6.840000 5.120000 -5.080000 21.196562 -31.016050 1411.289551
6.840000 5.120000 -5.040000 43.786301 -12.814030 2081.439453
6.840000 5.120000 -5.000000 44.562454 19.606422 2370.224121
6.840000 5.120000 -4.960000 19.639360 42.774422 2215.355469
6.840000 5.120000 -4.920000 -13.982664 39.915619 1788.771484
6.840000 5.120000 -4.880000 -33.561592 14.901057 1348.421997
6.840000 5.120000 -4.840000 -29.653324 -13.188286 1053.250488
6.840000 5.120000 -4.800000 -10.963196 -27.907124 898.999207
6.840000 5.160000 -5.200000 -5.066616 -7.895373 88.007515
6.840000 5.160000 -5.160000 1.550196 -22.605337 513.404419
6.840000 5.160000 -5.120000 22.934879 -25.546793 1178.647217
6.840000 5.160000 -5.080000 42.357864 -6.708600 1839.194092
6.840000 5.160000 -5.040000 40.571709 24.571316 2249.813232
6.840000 5.160000 -5.000000 14.248989 45.724949 2293.804688
6.840000 5.160000 -4.960000 -19.549324 40.546391 2026.185791
6.840000 5.160000 -4.920000 -37.883873 13.413211 1615.102051
6.840000 5.160000 -4.880000 -31.335163 -15.594066 1225.067383
6.840000 5.160000 -4.840000 -9.646255 -28.975132 932.608521
6.840000 5.160000 -4.800000 10.269699 -24.971409 729.038025
6.840000 5.200000 -5.200000 0.755670 -23.830078 568.443665
6.840000 5.200000 -5.160000 21.141304 -28.052101 1233.875122
6.840000 5.200000 -5.120000 41.453445 -11.336723 1846.909424
6.840000 5.200000 -5.080000 42.399017 19.548779 2179.831299
6.840000 5.200000 -5.040000 17.993486 43.061531 2178.061035
6.840000 5.200000 -5.000000 -16.901285 40.827698 1952.554321
6.840000 5.200000 -4.960000 -38.250259 14.117557 1662.387817
6.840000 5.200000 -4.920000 -33.171692 -17.344280 1401.185181
6.840000 5.200000 -4.880000 -9.470093 -32.909531 1172.719849
6.840000 5.200000 -4.840000 13.854763 -27.454926 945.727417
6.840000 5.200000 -4.800000 24.142622 -11.583807 717.050781
6.880000 4.800000 -5.200000 32.437832 24.204630 1638.077026
6.880000 4.800000 -5.160000 18.709572 35.343403 1599.204224
6.880000 4.800000 -5.120000 0.967881 32.927032 1085.126221
6.880000 4.800000 -5.080000 -7.935042 18.650734 410.814789
6.880000 4.800000 -5.040000 -2.017719 4.970531 28.777374
6.880000 4.800000 -5.000000 11.036049 3.969567 137.551834
6.880000 4.800000 -4.960000 16.621433 15.208158 507.560120
6.880000 4.800000 -4.920000 7.738490 25.604021 715.450134
6.880000 4.800000 -4.880000 -7.567598 22.409657 559.461243
6.880000 4.800000 -4.840000 -14.019447 6.297265 236.200455
6.880000 4.800000 -4.800000 -4.487464 -9.122150 103.350967
6.880000 4.840000 -5.200000 14.762613 35.228600 1458.989014
6.880000 4.840000 -5.160000 7.747790 35.670212 1332.392212
6.880000 4.840000 -5.120000 4.015910 35.182388 1253.927979
6.880000 4.840000 -5.080000 1.030228 37.107674 1378.040894
6.880000 4.840000 -5.040000 -5.669075 40.349163 1660.193359
6.880000 4.840000 -5.000000 -17.293144 39.451775 1855.495361
6.880000 4.840000 -4.960000 -28.836119 29.585743 1706.837891
6.880000 4.840000 -4.920000 -32.079418 12.341560 1181.403198
6.880000 4.840000 -4.880000 -22.819096 -3.670526 534.183899
6.880000 4.840000 -4.840000 -5.670600 -9.122711 115.379562
6.880000 4.840000 -4.800000 8.835676 -1.940939 81.836418
6.880000 4.880000 -5.200000 -6.991038 29.197380 901.361633
6.880000 4.880000 -5.160000 -0.700953 30.721476 944.300415
6.880000 4.880000 -5.120000 -0.106148 44.846008 2011.175659
6.880000 4.880000 -5.080000 -17.127216 60.246071 3922.930664
6.880000 4.880000 -5.040000 -47.849266 58.514534 5713.502930
6.880000 4.880000 -5.000000 -72.617607 31.733788 6280.350098
6.880000 4.880000 -4.960000 -71.876366 -7.668926 5225.024414
6.880000 4.880000 -4.920000 -43.858555 -35.321709 3171.195801
6.880000 4.880000 -4.880000 -7.254356 -34.925880 1272.442871
6.880000 4.880000 -4.840000 14.251274 -11.559530 336.721558
6.880000 4.880000 -4.800000 11.376574 13.948835 323.996429
6.880000 4.920000 -5.200000 -16.820045 8.788541 360.152405
6.880000 4.920000 -5.160000 -4.338640 24.020866 595.825806
6.880000 4.920000 -5.120000 -16.487543 50.812115 2853.710205
6.880000 4.920000 -5.080000 -56.124302 59.608719 6703.136719
6.880000 4.920000 -5.040000 -96.959106 29.862003 10292.807617
6.880000 4.920000 -5.000000 -104.113235 -27.124832 11575.322266
6.880000 4.920000 -4.960000 -66.043701 -73.971214 9833.511719
6.880000 4.920000 -4.920000 -7.102901 -78.471069 6208.159668
6.880000 4.920000 -4.880000 32.455444 -41.455688 2771.929932
6.880000 4.920000 -4.840000 30.699318 5.124800 968.711670
6.880000 4.920000 -4.800000 0.292187 27.514492 757.132690
6.880000 4.960000 -5.200000 -7.944820 -10.459169 172.514404
6.880000 4.960000 -5.160000 -4.839993 19.290421 395.545868
6.880000 4.960000 -5.120000 -37.915825 42.012978 3202.700195
6.880000 4.960000 -5.080000 -86.960938 24.438269 8159.433594
6.880000 4.960000 -5.040000 -108.661415 -34.624386 13006.150391
6.880000 4.960000 -5.000000 -75.588104 -96.875214 15098.368164
6.880000 4.960000 -4.960000 -4.381054 -115.377167 13331.083984
6.880000 4.960000 -4.920000 55.903351 -76.206009 8932.541016
6.880000 4.960000 -4.880000 65.784447 -10.919084 4446.819824
6.880000 4.960000 -4.840000 28.111507 32.141571 1823.337402
6.880000 4.960000 -4.800000 -18.771912 29.690365 1233.902466
6.880000 5.000000 -5.200000 10.155217 -14.389164 310.176453
6.880000 5.000000 -5.160000 -6.059216 16.572212 311.352295
6.880000 5.000000 -5.120000 -50.265854 17.815365 2844.043213
6.880000 5.000000 -5.080000 -83.302216 -26.830982 7659.161133
6.880000 5.000000 -5.040000 -66.533035 -90.816154 12674.218750
6.880000 5.000000 -5.000000 -0.364261 -123.463257 15243.308594
6.880000 5.000000 -4.960000 71.170296 -94.728073 14038.619141
6.880000 5.000000 -4.920000 97.094559 -23.622082 9985.356445
6.880000 5.000000 -4.880000 63.526413 37.887596 5471.075195
6.880000 5.000000 -4.840000 3.371162 50.301323 2541.587891
6.880000 5.000000 -4.800000 -36.083824 17.789936 1618.524170
6.880000 5.040000 -5.200000 20.905304 -3.658455 450.416016
6.880000 5.040000 -5.160000 -9.262753 12.081963 231.772400
6.880000 5.040000 -5.120000 -43.907722 -10.682815 2042.010620
6.880000 5.040000 -5.080000 -44.493423 -61.858112 5806.090820
6.880000 5.040000 -5.040000 2.961550 -99.780807 9964.980469
6.880000 5.040000 -5.000000 69.696884 -86.819366 12395.257812
6.880000 5.040000 -4.960000 106.023552 -25.230000 11877.545898
6.880000 5.040000 -4.920000 84.538879 42.293873 8935.593750
6.880000 5.040000 -4.880000 23.821926 69.196297 5355.611816
6.880000 5.040000 -4.840000 -29.652065 44.067322 2821.173828
6.880000 5.040000 -4.800000 -42.659756 -4.203287 1837.522339
6.880000 5.080000 -5.200000 16.917406 7.772477 346.610046
6.880000 5.080000 -5.160000 -10.640682 2.867823 121.448532
6.880000 5.080000 -5.120000 -21.045301 -28.961264 1281.659546
6.880000 5.080000 -5.080000 4.916274 -61.199757 3769.579834
6.880000 5.080000 -5.040000 54.472588 -60.066856 6575.290039
6.880000 5.080000 -5.000000 89.744186 -16.476536 8325.495117
6.880000 5.080000 -4.960000 80.050659 42.397850 8205.685547
6.880000 5.080000 -4.920000 29.725637 74.903511 6494.149414
6.880000 5.080000 -4.880000 -25.398544 60.269276 4277.471680
6.880000 5.080000 -4.840000 -49.133125 14.362883 2620.356445
6.880000 5.080000 -4.800000 -33.667229 -27.496334 1889.530762
6.880000 5.120000 -5.200000 6.444524 7.446089 96.976120
6.880000 5.120000 -5.160000 -4.679297 -8.367011 91.902695
6.880000 5.120000 -5.120000 6.575129 -29.260941 899.434937
6.880000 5.120000 -5.080000 36.757366 -31.788673 2361.623779
6.880000 5.120000 -5.040000 62.087570 -4.715561 3877.103027
6.880000 5.120000 -5.000000 57.866932 37.641052 4765.430664
6.880000 5.120000 -4.960000 21.218927 65.213562 4703.051270
6.880000 5.120000 -4.920000 -24.788698 57.334305 3901.701904
6.880000 5.120000 -4.880000 -50.051052 19.886189 2900.568359
6.880000 5.120000 -4.840000 -41.547016 -21.013926 2167.739502
6.880000 5.120000 -4.800000 -10.750951 -41.464233 1834.865479
6.880000 5.160000 -5.200000 3.603026 -3.077902 22.455282
6.880000 5.160000 -5.160000 9.337960 -14.084004 285.556671
6.880000 5.160000 -5.120000 26.351351 -14.547799 906.032104
6.880000 5.160000 -5.080000 40.550293 3.060121 1653.690674
6.880000 5.160000 -5.040000 35.942108 30.538986 2224.464844
6.880000 5.160000 -5.000000 9.527849 48.417015 2434.987305
6.880000 5.160000 -4.960000 -24.107986 41.687572 2319.048828
6.880000 5.160000 -4.920000 -43.641560 12.625070 2063.978027
6.880000 5.160000 -4.880000 -37.602665 -21.050198 1857.071289
6.880000 5.160000 -4.840000 -11.872146 -40.371811 1770.830933
6.880000 5.160000 -4.800000 17.303715 -38.272011 1764.165405
6.880000 5.200000 -5.200000 13.119381 -10.988873 292.873474
6.880000 5.200000 -5.160000 24.643723 -8.636239 681.897705
6.880000 5.200000 -5.120000 32.352993 5.398185 1075.856567
6.880000 5.200000 -5.080000 26.273161 24.511438 1291.089600
6.880000 5.200000 -5.040000 5.533909 35.255829 1273.597656
6.880000 5.200000 -5.000000 -18.980457 27.808254 1133.556763
6.880000 5.200000 -4.960000 -32.099190 4.465744 1050.300903
6.880000 5.200000 -4.920000 -25.702702 -21.688162 1131.005249
6.880000 5.200000 -4.880000 -4.035819 -36.478508 1346.969360
6.880000 5.200000 -4.840000 20.765348 -33.950226 1583.817505
6.880000 5.200000 -4.800000 37.652184 -17.945639 1739.732910
6.920000 4.800000 -5.200000 8.257235 60.547745 3734.211182
6.920000 4.800000 -5.160000 -20.664291 57.037102 3680.243896
6.920000 4.800000 -5.120000 -38.659393 34.305340 2671.405029
6.920000 4.800000 -5.080000 -34.806309 8.102776 1277.134033
6.920000 4.800000 -5.040000 -15.978199 -3.334008 266.418457
6.920000 4.800000 -5.000000 -0.975231 4.116570 17.897221
6.920000 4.800000 -4.960000 -2.693124 16.916176 293.409943
6.920000 4.800000 -4.920000 -15.912064 17.691368 566.178284
6.920000 4.800000 -4.880000 -23.245514 2.734153 547.829529
6.920000 4.800000 -4.840000 -13.168705 -14.607377 386.790253
6.920000 4.800000 -4.800000 8.391298 -17.875788 389.957672
6.920000 4.840000 -5.200000 -25.908518 51.172768 3289.903320
6.920000 4.840000 -5.160000 -36.982620 38.759010 2869.975098
6.920000 4.840000 -5.120000 -38.797585 27.452911 2258.915039
6.920000 4.840000 -5.080000 -38.129410 22.066887 1940.799438
6.920000 4.840000 -5.040000 -41.645874 18.814579 2088.367188
6.920000 4.840000 -5.000000 -48.263557 9.893730 2427.257080
6.920000 4.840000 -4.960000 -49.332397 -7.196701 2485.478027
6.920000 4.840000 -4.920000 -37.319817 -25.021091 2018.823730
6.920000 4.840000 -4.880000 -14.634706 -31.713739 1219.935913
6.920000 4.840000 -4.840000 6.664423 -21.975639 527.343262
6.920000 4.840000 -4.800000 14.856360 -2.677170 227.878677
6.920000 4.880000 -5.200000 -43.676048 19.593002 2291.482910
6.920000 4.880000 -5.160000 -38.274681 17.539545 1772.586792
6.920000 4.880000 -5.120000 -43.256134 25.471525 2519.891602
6.920000 4.880000 -5.080000 -64.415291 25.543592 4801.804688
6.920000 4.880000 -5.040000 -87.102844 2.430347 7592.812012
6.920000 4.880000 -5.000000 -87.836197 -38.765812 9217.985352
6.920000 4.880000 -4.960000 -56.801208 -73.341240 8605.314453
6.920000 4.880000 -4.920000 -9.353626 -77.452301 6086.349121
6.920000 4.880000 -4.880000 25.512390 -49.305191 3081.884033
6.920000 4.880000 -4.840000 29.459129 -10.794771 984.367371
6.920000 4.880000 -4.800000 9.122675 11.930161 225.551941
6.920000 4.920000 -5.200000 -33.600700 -13.820457 1320.012085
6.920000 4.920000 -5.160000 -28.852911 3.855738 847.357178
6.920000 4.920000 -5.120000 -54.079693 18.116156 3252.808350
6.920000 4.920000 -5.080000 -93.076843 -1.634157 8665.969727
6.920000 4.920000 -5.040000 -107.061424 -57.472588 14765.247070
6.920000 4.920000 -5.000000 -70.843582 -114.744247 18185.054688
6.920000 4.920000 -4.960000 0.216969 -130.185806 16948.390625
6.920000 4.920000 -4.920000 60.363792 -90.841316 11895.931641
6.920000 4.920000 -4.880000 72.446495 -26.260445 5938.105469
6.920000 4.920000 -4.840000 38.821873 17.948853 1829.299072
6.920000 4.920000 -4.800000 -4.508934 19.409809 397.071167
6.920000 4.960000 -5.200000 -5.121482 -27.734451 795.429321
6.920000 4.960000 -5.160000 -18.339907 0.345020 336.471222
6.920000 4.960000 -5.120000 -61.863323 -1.132715 3828.353760
6.920000 4.960000 -5.080000 -93.688675 -51.625923 11442.802734
6.920000 4.960000 -5.040000 -70.646645 -122.818039 20075.218750
6.920000 4.960000 -5.000000 7.413242 -158.377686 25138.449219
6.920000 4.960000 -4.960000 91.400574 -124.332840 23812.718750
6.920000 4.960000 -4.920000 123.828575 -41.711395 17073.355469
6.920000 4.960000 -4.880000 88.648422 31.042126 8822.156250
6.920000 4.960000 -4.840000 22.639355 49.198067 2932.990234
6.920000 4.960000 -4.800000 -20.991598 17.308439 740.229248
6.920000 5.000000 -5.200000 19.900288 -17.365772 697.591492
6.920000 5.000000 -5.160000 -13.154110 1.589382 175.556747
6.920000 5.000000 -5.120000 -55.007778 -26.579531 3732.327148
6.920000 5.000000 -5.080000 -55.292881 -92.830070 11674.724609
6.920000 5.000000 -5.040000 7.523748 -144.444885 20920.931641
6.920000 5.000000 -5.000000 98.738007 -130.202515 26701.890625
6.920000 5.000000 -4.960000 153.033966 -49.522091 25871.832031
6.920000 5.000000 -4.920000 131.434601 43.408569 19159.359375
6.920000 5.000000 -4.880000 55.227783 86.181938 10477.434570
6.920000 5.000000 -4.840000 -15.300484 61.055981 3961.937500
6.920000 5.000000 -4.800000 -35.217567 4.332182 1259.044922
6.920000 5.040000 -5.200000 26.212778 3.327278 698.180542
6.920000 5.040000 -5.160000 -12.030273 0.755869 145.298813
6.920000 5.040000 -5.120000 -31.652107 -44.161919 2952.130859
6.920000 5.040000 -5.080000 2.185153 -97.315353 9475.052734
6.920000 5.040000 -5.040000 78.495934 -105.507141 17293.369141
6.920000 5.040000 -5.000000 142.620789 -46.440170 22497.378906
6.920000 5.040000 -4.960000 142.294510 45.879944 22352.697266
6.920000 5.040000 -4.920000 74.969200 107.706596 17221.091797
6.920000 5.040000 -4.880000 -9.581364 100.274872 10146.852539
6.920000 5.040000 -4.840000 -53.664688 40.712009 4537.366211
6.920000 5.040000 -4.800000 -39.662495 -18.584797 1918.508179
6.920000 5.080000 -5.200000 16.635477 16.083591 535.421021
6.920000 5.080000 -5.160000 -9.155367 -3.544035 96.380920
6.920000 5.080000 -5.120000 -2.375534 -43.583138 1905.133057
6.920000 5.080000 -5.080000 45.099396 -64.523003 6197.173340
6.920000 5.080000 -5.040000 101.100327 -34.641594 11421.316406
6.920000 5.080000 -5.000000 117.236748 36.350853 15065.839844
6.920000 5.080000 -4.960000 72.521431 100.420685 15343.671875
6.920000 5.080000 -4.920000 -5.445778 111.218201 12399.144531
6.920000 5.080000 -4.880000 -63.228699 63.824638 8071.453125
6.920000 5.080000 -4.840000 -66.794090 -3.192158 4471.640625
6.920000 5.080000 -4.800000 -26.453930 -43.601814 2600.928711
6.920000 5.120000 -5.200000 5.987667 14.687039 251.561279
6.920000 5.120000 -5.160000 -1.249748 -6.606874 45.212662
6.920000 5.120000 -5.120000 18.439320 -26.691509 1052.445190
6.920000 5.120000 -5.080000 54.156281 -19.238247 3303.012939
6.920000 5.120000 -5.040000 74.119843 21.723679 5965.668945
6.920000 5.120000 -5.000000 53.059189 70.849724 7834.960938
6.920000 5.120000 -4.960000 -2.468918 90.169983 8136.721680
6.920000 5.120000 -4.920000 -56.443855 61.851013 7011.456543
6.920000 5.120000 -4.880000 -72.718697 4.204693 5305.687988
6.920000 5.120000 -4.840000 -44.233429 -44.078445 3899.505371
6.920000 5.120000 -4.800000 4.438456 -55.890957 3143.499023
6.920000 5.160000 -5.200000 5.078361 7.702192 85.113510
6.920000 5.160000 -5.160000 8.576018 -3.242657 84.062912
6.920000 5.160000 -5.120000 23.671286 -4.839361 583.749207
6.920000 5.160000 -5.080000 36.668831 11.740067 1482.432373
6.920000 5.160000 -5.040000 30.122459 38.703381 2405.314209
6.920000 5.160000 -5.000000 0.036537 54.590931 2980.170898
6.920000 5.160000 -4.960000 -36.898540 41.839287 3112.028320
6.920000 5.160000 -4.920000 -54.807896 3.364128 3015.222900
6.920000 5.160000 -4.880000 -39.513451 -37.837807 2993.012207
6.920000 5.160000 -4.840000 0.008833 -56.332687 3173.371582
6.920000 5.160000 -4.800000 39.543095 -43.208000 3430.587646
6.920000 5.200000 -5.200000 11.324762 6.763310 173.992615
6.920000 5.200000 -5.160000 13.801209 6.318658 230.398834
6.920000 5.200000 -5.120000 16.927494 10.927453 405.949310
6.920000 5.200000 -5.080000 14.291030 20.193684 612.018372
6.920000 5.200000 -5.040000 1.783951 26.811222 722.024109
6.920000 5.200000 -5.000000 -16.122314 21.293596 713.346252
6.920000 5.200000 -4.960000 -27.121323 0.995438 736.557068
6.920000 5.200000 -4.920000 -19.945969 -24.988817 1022.282654
6.920000 5.200000 -4.880000 5.780127 -40.664059 1686.975586
6.920000 5.200000 -4.840000 37.556747 -34.519676 2602.117188
6.920000 5.200000 -4.800000 58.109558 -8.112187 3442.528320
6.960000 4.800000 -5.200000 -37.530762 66.191299 5789.846191
6.960000 4.800000 -5.160000 -65.605263 40.209702 5920.870117
6.960000 4.800000 -5.120000 -68.201340 2.170886 4656.135742
6.960000 4.800000 -5.080000 -45.607357 -24.174955 2664.459473
6.960000 4.800000 -5.040000 -17.239347 -25.442669 944.524536
6.960000 4.800000 -5.000000 -4.091996 -10.004154 116.827530
6.960000 4.800000 -4.960000 -9.773449 1.282978 97.166336
6.960000 4.800000 -4.920000 -18.967224 -4.032442 376.016174
6.960000 4.800000 -4.880000 -14.516211 -18.543028 554.564209
6.960000 4.800000 -4.840000 4.756046 -24.148117 605.751526
6.960000 4.800000 -4.800000 23.598301 -11.495437 689.024902
6.960000 4.840000 -5.200000 -66.523293 29.503857 5295.826172
6.960000 4.840000 -5.160000 -70.120728 4.697531 4938.983398
6.960000 4.840000 -5.120000 -61.759743 -13.506886 3996.701904
6.960000 4.840000 -5.080000 -51.329632 -22.108400 3123.512695
6.960000 4.840000 -5.040000 -44.992554 -27.106495 2759.091797
6.960000 4.840000 -5.000000 -39.714466 -35.326035 2825.167480
6.960000 4.840000 -4.960000 -27.855026 -45.710541 2865.355957
6.960000 4.840000 -4.920000 -7.209152 -49.364376 2488.813477
6.960000 4.840000 -4.880000 14.197272 -38.807808 1707.608398
6.960000 4.840000 -4.840000 24.271950 -17.005848 878.326416
6.960000 4.840000 -4.800000 18.241413 3.664501 346.177704
6.960000 4.880000 -5.200000 -60.895023 -16.745178 3988.604980
6.960000 4.880000 -5.160000 -52.858696 -21.703535 3265.085205
6.960000 4.880000 -5.120000 -56.314796 -22.564228 3680.500488
6.960000 4.880000 -5.080000 -67.121025 -36.304241 5823.229980
6.960000 4.880000 -5.040000 -65.995728 -66.785744 8815.771484
6.960000 4.880000 -5.000000 -38.239994 -96.797928 10832.135742
6.960000 4.880000 -4.960000 8.767090 -101.883987 10457.208984
6.960000 4.880000 -4.920000 48.674408 -73.406425 7757.701172
6.960000 4.880000 -4.880000 58.115067 -28.209375 4173.129883
6.960000 4.880000 -4.840000 36.854179 5.104627 1384.287842
6.960000 4.880000 -4.800000 6.863860 10.434343 155.988098
6.960000 4.920000 -5.200000 -26.147768 -43.505962 2576.474609
6.960000 4.920000 -5.160000 -28.578621 -29.174711 1667.901367
6.960000 4.920000 -5.120000 -53.207275 -33.446739 3949.698486
6.960000 4.920000 -5.080000 -69.092560 -72.321831 10004.228516
6.960000 4.920000 -5.040000 -43.379738 -124.463013 17372.843750
6.960000 4.920000 -5.000000 23.236523 -146.401321 21973.283203
6.960000 4.920000 -4.960000 91.428406 -112.606323 21039.335938
6.960000 4.920000 -4.920000 115.936462 -41.330460 15149.470703
6.960000 4.920000 -4.880000 85.323967 19.888016 7675.712402
6.960000 4.920000 -4.840000 30.594807 35.549564 2199.813721
6.960000 4.920000 -4.800000 -4.717548 10.617866 134.994324
6.960000 4.960000 -5.200000 12.503605 -37.940170 1595.796631
6.960000 4.960000 -5.160000 -11.587994 -22.505098 640.761047
6.960000 4.960000 -5.120000 -44.419296 -48.991737 4373.264160
6.960000 4.960000 -5.080000 -38.467079 -109.466927 13462.723633
6.960000 4.960000 -5.040000 26.104816 -153.840714 24348.425781
6.960000 4.960000 -5.000000 115.045929 -134.077881 31212.445312
6.960000 4.960000 -4.960000 165.650543 -51.576134 30100.199219
6.960000 4.960000 -4.920000 142.147873 40.079941 21812.419922
6.960000 4.960000 -4.880000 67.419250 81.318146 11157.996094
6.960000 4.960000 -4.840000 0.582890 57.387192 3293.629639
6.960000 4.960000 -4.800000 -16.439964 5.660944 302.318726
6.960000 5.000000 -5.200000 31.595898 -11.286621 1125.688477
6.960000 5.000000 -5.160000 -5.548098 -13.204449 205.138855
6.960000 5.000000 -5.120000 -23.757927 -61.100159 4297.668457
6.960000 5.000000 -5.080000 16.590176 -117.870743 14168.746094
6.960000 5.000000 -5.040000 103.574005 -124.045990 26114.980469
6.960000 5.000000 -5.000000 175.849213 -54.876705 33934.398438
6.960000 5.000000 -4.960000 175.114822 50.865875 33252.539062
6.960000 5.000000 -4.920000 99.560936 121.558327 24688.806641
6.960000 5.000000 -4.880000 5.891215 114.902176 13237.215820
6.960000 5.000000 -4.840000 -41.930199 51.947109 4456.643555
6.960000 5.000000 -4.800000 -26.710085 -7.919724 776.150696
6.960000 5.040000 -5.200000 26.710571 13.984026 909.007568
6.960000 5.040000 -5.160000 -4.711256 -8.257544 90.382965
6.960000 5.040000 -5.120000 3.587976 -58.677464 3455.918213
6.960000 5.040000 -5.080000 65.146820 -86.622040 11747.486328
6.960000 5.040000 -5.040000 139.989807 -49.004005 21998.539062
6.960000 5.040000 -5.000000 164.750153 43.790657 29060.234375
6.960000 5.040000 -4.960000 110.373657 130.191711 29132.224609
6.960000 5.040000 -4.920000 11.263365 149.470306 22468.236328
6.960000 5.040000 -4.880000 -63.882431 94.464455 13004.498047
6.960000 5.040000 -4.840000 -71.600533 14.655182 5341.410645
6.960000 5.040000 -4.800000 -26.389555 -31.284426 1675.123901
6.960000 5.080000 -5.200000 11.086626 23.863565 692.382996
6.960000 5.080000 -5.160000 -2.838390 -6.258497 47.225250
6.960000 5.080000 -5.120000 23.988895 -39.846638 2163.221680
6.960000 5.080000 -5.080000 80.033920 -34.495876 7595.393555
6.960000 5.080000 -5.040000 117.842247 24.404938 14482.395508
6.960000 5.080000 -5.000000 95.085472 102.286163 19503.707031
6.960000 5.080000 -4.960000 16.402618 140.943970 20134.250000
6.960000 5.080000 -4.920000 -66.385887 109.435295 16383.169922
6.960000 5.080000 -4.880000 -97.997429 31.624264 10603.589844
6.960000 5.080000 -4.840000 -65.859566 -36.016052 5634.638672
6.960000 5.080000 -4.800000 -5.583939 -53.689777 2913.772705
6.960000 5.120000 -5.200000 -0.054440 21.031265 442.317078
6.960000 5.120000 -5.160000 0.382020 -2.600508 6.908579
6.960000 5.120000 -5.120000 27.650719 -15.057526 991.291321
6.960000 5.120000 -5.080000 60.332489 6.997910 3688.979980
6.960000 5.120000 -5.040000 62.734898 56.950886 7179.070801
6.960000 5.120000 -5.000000 19.037369 97.438721 9856.726562
6.960000 5.120000 -4.960000 -47.124405 91.268753 10550.695312
6.960000 5.120000 -4.920000 -89.467110 35.923340 9294.849609
6.960000 5.120000 -4.880000 -78.151222 -32.154968 7141.555664
6.960000 5.120000 -4.840000 -24.381485 -68.291283 5258.156250
6.960000 5.120000 -4.800000 31.956207 -55.812027 4136.181641
6.960000 5.160000 -5.200000 -2.684597 16.627247 283.672394
6.960000 5.160000 -5.160000 1.014513 3.654410 14.383946
6.960000 5.160000 -5.120000 17.172825 2.070274 299.191956
6.960000 5.160000 -5.080000 28.586012 20.484318 1236.767334
6.960000 5.160000 -5.040000 16.338089 46.668053 2444.840332
6.960000 5.160000 -5.000000 -19.301682 54.760910 3371.312256
6.960000 5.160000 -4.960000 -54.112183 28.869450 3761.573486
6.960000 5.160000 -4.920000 -58.757347 -19.462631 3831.219727
6.960000 5.160000 -4.880000 -24.738117 -58.170670 3995.801270
6.960000 5.160000 -4.840000 27.273323 -60.719917 4430.742676
6.960000 5.160000 -4.800000 64.538658 -27.133265 4901.452148
6.960000 5.200000 -5.200000 -3.168382 16.809456 292.596436
6.960000 5.200000 -5.160000 -3.033937 8.744065 85.663452
6.960000 5.200000 -5.120000 3.919284 6.263380 54.590717
6.960000 5.200000 -5.080000 7.930864 13.295357 239.665115
6.960000 5.200000 -5.040000 -0.001827 21.637371 468.175812
6.960000 5.200000 -5.000000 -16.340464 17.450760 571.539795
6.960000 5.200000 -4.960000 -25.028702 -3.922089 641.818665
6.960000 5.200000 -4.920000 -11.516356 -29.923717 1028.055298
6.960000 5.200000 -4.880000 22.067879 -39.195595 2023.285889
6.960000 5.200000 -4.840000 55.914597 -19.781734 3517.759277
6.960000 5.200000 -4.800000 67.629776 19.802710 4965.934082
7.000000 4.800000 -5.200000 -71.931793 36.492725 6505.902344
7.000000 4.800000 -5.160000 -83.138000 -4.492386 6932.108887
7.000000 4.800000 -5.120000 -63.757458 -42.913383 5906.571777
7.000000 4.800000 -5.080000 -26.409412 -56.837440 3927.951660
7.000000 4.800000 -5.040000 4.101727 -43.500931 1909.155151
7.000000 4.800000 -5.000000 12.234531 -20.650768 576.138000
7.000000 4.800000 -4.960000 3.978966 -8.975941 96.399681
7.000000 4.800000 -4.920000 -1.897125 -13.067337 174.354385
7.000000 4.800000 -4.880000 6.037548 -19.667162 423.249268
7.000000 4.800000 -4.840000 21.109394 -13.774245 635.336304
7.000000 4.800000 -4.800000 27.320538 5.019887 771.611023
7.000000 4.840000 -5.200000 -77.512894 -14.509204 6218.765625
7.000000 4.840000 -5.160000 -66.731392 -42.679836 6274.646973
7.000000 4.840000 -5.120000 -45.216976 -58.737617 5494.682617
7.000000 4.840000 -5.080000 -23.650490 -61.797920 4378.328613
7.000000 4.840000 -5.040000 -7.752769 -58.169601 3443.808105
7.000000 4.840000 -5.000000 4.316780 -53.622169 2893.971680
7.000000 4.840000 -4.960000 16.722321 -47.745964 2559.312988
7.000000 4.840000 -4.920000 28.893845 -36.160316 2142.422852
7.000000 4.840000 -4.880000 34.648914 -17.840120 1518.817139
7.000000 4.840000 -4.840000 28.785587 0.880021 829.384460
7.000000 4.840000 -4.800000 13.978360 10.776470 311.526855
7.000000 4.880000 -5.200000 -45.537914 -53.609337 4947.662598
7.000000 4.880000 -5.160000 -33.058685 -58.565006 4522.736328
7.000000 4.880000 -5.120000 -27.987091 -63.771111 4850.031738
7.000000 4.880000 -5.080000 -20.793373 -77.647766 6461.540039
7.000000 4.880000 -5.040000 1.327477 -93.286102 8704.058594
7.000000 4.880000 -5.000000 37.868092 -93.160797 10112.926758
7.000000 4.880000 -4.960000 71.056396 -66.885742 9522.714844
7.000000 4.880000 -4.920000 79.988251 -24.081539 6978.040527
7.000000 4.880000 -4.880000 59.753967 11.365786 3699.717773
7.000000 4.880000 -4.840000 26.726299 21.108967 1159.883545
7.000000 4.880000 -4.800000 4.524132 7.472136 76.300591
7.000000 4.920000 -5.200000 1.225344 -58.172249 3385.511963
7.000000 4.920000 -5.160000 -3.397310 -50.676125 2579.611328
7.000000 4.920000 -5.120000 -14.008307 -66.119293 4567.993164
7.000000 4.920000 -5.080000 -0.759920 -99.862381 9973.072266
7.000000 4.920000 -5.040000 47.816265 -119.586998 16587.445312
7.000000 4.920000 -5.000000 107.402191 -95.429474 20642.015625
7.000000 4.920000 -4.960000 136.223541 -31.529409 19550.957031
7.000000 4.920000 -4.920000 112.818207 33.618958 13858.182617
7.000000 4.920000 -4.880000 56.352905 59.919662 6766.015625
7.000000 4.920000 -4.840000 9.315445 40.158993 1699.522217
7.000000 4.920000 -4.800000 -0.241801 3.312525 11.031288
7.000000 4.960000 -5.200000 33.220669 -32.023560 2129.121094
7.000000 4.960000 -5.160000 10.470549 -32.282921 1151.819336
7.000000 4.960000 -5.120000 2.402889 -67.523689 4565.222656
7.000000 4.960000 -5.080000 40.555027 -107.134010 13122.406250
7.000000 4.960000 -5.040000 113.124893 -103.096970 23426.226562
7.000000 4.960000 -5.000000 168.464935 -38.042004 29827.626953
7.000000 4.960000 -4.960000 160.390411 52.550720 28486.662109
7.000000 4.960000 -4.920000 91.837570 108.690308 20247.722656
7.000000 4.960000 -4.880000 13.306822 98.562241 9891.586914
7.000000 4.960000 -4.840000 -22.607258 44.574673 2497.989502
7.000000 4.960000 -4.800000 -5.967816 -1.285202 37.266579
7.000000 5.000000 -5.200000 37.051888 2.032426 1376.973145
7.000000 5.000000 -5.160000 11.295630 -16.751091 408.190308
7.000000 5.000000 -5.120000 22.920013 -61.269058 4279.224609
7.000000 5.000000 -5.080000 84.091736 -82.327850 13849.294922
7.000000 5.000000 -5.040000 154.597229 -39.611610 25469.382812
7.000000 5.000000 -5.000000 173.362778 53.860306 32955.585938
7.000000 5.000000 -4.960000 115.442474 136.579651 31980.966797
7.000000 5.000000 -4.920000 18.059334 151.489960 23275.345703
7.000000 5.000000 -4.880000 -51.418282 96.377640 11932.489258
7.000000 5.000000 -4.840000 -54.670162 22.865971 3511.679199
7.000000 5.000000 -4.800000 -11.458956 -13.236780 306.520020
7.000000 5.040000 -5.200000 21.108772 23.350100 990.807434
7.000000 5.040000 -5.160000 7.757095 -7.760427 120.396759
7.000000 5.040000 -5.120000 39.300720 -42.223621 3327.380859
7.000000 5.040000 -5.080000 102.124802 -32.356071 11476.390625
7.000000 5.040000 -5.040000 142.321671 36.903992 21617.361328
7.000000 5.040000 -5.000000 113.648590 124.960487 28531.125000
7.000000 5.040000 -4.960000 24.128494 166.768036 28393.761719
7.000000 5.040000 -4.920000 -66.653275 130.762451 21541.476562
7.000000 5.040000 -4.880000 -99.060234 47.227520 12043.368164
7.000000 5.040000 -4.840000 -64.134254 -20.583273 4536.873535
7.000000 5.040000 -4.800000 -5.300987 -33.048035 1120.273071
7.000000 5.080000 -5.200000 2.458829 27.502884 762.454468
7.000000 5.080000 -5.160000 4.128397 -1.877773 20.569695
7.000000 5.080000 -5.120000 40.786930 -16.311670 1929.644165
7.000000 5.080000 -5.080000 83.679779 14.859943 7223.123535
7.000000 5.080000 -5.040000 85.935921 81.949783 14100.750000
7.000000 5.080000 -5.000000 28.214634 135.526886 19163.603516
7.000000 5.080000 -4.960000 -57.244022 128.509369 19791.537109
7.000000 5.080000 -4.920000 -111.175613 60.264248 15991.795898
7.000000 5.080000 -4.880000 -98.658798 -21.222326 10183.945312
7.000000 5.080000 -4.840000 -37.844357 -61.719402 5241.479980
7.000000 5.080000 -4.800000 20.537308 -46.137741 2550.472168
7.000000 5.120000 -5.200000 -9.117155 22.863659 605.869385
7.000000 5.120000 -5.160000 -1.084991 2.981357 10.065691
7.000000 5.120000 -5.120000 26.316532 2.559244 699.109619
7.000000 5.120000 -5.080000 44.805481 34.295746 3183.729492
7.000000 5.120000 -5.040000 25.187981 77.627899 6660.525391
7.000000 5.120000 -5.000000 -30.592926 92.423889 9478.101562
7.000000 5.120000 -4.960000 -84.879814 56.040207 10345.087891
7.000000 5.120000 -4.920000 -95.227684 -12.492264 9224.368164
7.000000 5.120000 -4.880000 -52.230522 -66.606712 7164.481445
7.000000 5.120000 -4.840000 12.492473 -71.944565 5332.082520
7.000000 5.120000 -4.800000 55.243484 -33.571587 4178.894043
7.000000 5.160000 -5.200000 -15.038888 17.696568 539.336670
7.000000 5.160000 -5.160000 -8.912706 4.282346 97.774818
7.000000 5.160000 -5.120000 7.249382 5.343291 81.104301
7.000000 5.160000 -5.080000 13.330109 24.600311 782.867065
7.000000 5.160000 -5.040000 -5.467922 43.721088 1941.431763
7.000000 5.160000 -5.000000 -39.616356 37.599987 2983.214844
7.000000 5.160000 -4.960000 -59.652767 0.305779 3558.546143
7.000000 5.160000 -4.920000 -42.348896 -45.024887 3820.669434
7.000000 5.160000 -4.880000 6.371861 -64.266228 4170.748535
7.000000 5.160000 -4.840000 54.859348 -41.857178 4761.571289
7.000000 5.160000 -4.800000 72.449287 6.497944 5291.122559
7.000000 5.200000 -5.200000 -19.943954 12.773237 560.916931
7.000000 5.200000 -5.160000 -15.714122 -0.499508 247.183136
7.000000 5.200000 -5.120000 -2.987634 -3.658831 22.312996
7.000000 5.200000 -5.080000 4.149193 5.566344 48.199989
7.000000 5.200000 -5.040000 -3.186308 14.573387 222.536163
7.000000 5.200000 -5.000000 -16.947714 8.406967 357.902100
7.000000 5.200000 -4.960000 -18.154930 -12.890022 495.754181
7.000000 5.200000 -4.920000 3.905266 -30.966648 974.184387
7.000000 5.200000 -4.880000 38.572292 -24.961617 2110.904053
7.000000 5.200000 -4.840000 60.984482 8.442028 3790.374756
7.000000 5.200000 -4.800000 53.232834 50.590523 5393.135742
7.040000 4.800000 -5.200000 -73.302010 -4.881845 5397.017090
7.040000 4.800000 -5.160000 -63.428902 -44.586861 6011.213867
7.040000 4.800000 -5.120000 -28.395077 -69.226112 5598.534668
7.040000 4.800000 -5.080000 12.578594 -64.599998 4331.380859
7.040000 4.800000 -5.040000 36.461102 -37.310215 2721.463867
7.040000 4.800000 -5.000000 35.222008 -8.748447 1317.125122
7.040000 4.800000 -4.960000 20.682762 3.921123 443.151855
7.040000 4.800000 -4.920000 11.154665 1.427652 126.464745
7.040000 4.800000 -4.880000 13.727077 -2.042152 192.603043
7.040000 4.800000 -4.840000 19.740658 4.490806 409.860901
7.040000 4.800000 -4.800000 16.638126 17.604198 586.735046
7.040000 4.840000 -5.200000 -54.839684 -49.126606 5420.814453
7.040000 4.840000 -5.160000 -31.958908 -70.092255 5934.295898
7.040000 4.840000 -5.120000 -1.839039 -75.474953 5699.850098
7.040000 4.840000 -5.080000 24.492723 -65.152313 4844.717285
7.040000 4.840000 -5.040000 39.805126 -46.058769 3705.858398
7.040000 4.840000 -5.000000 43.933228 -26.536917 2634.336426
7.040000 4.840000 -4.960000 41.184639 -10.982281 1816.784912
7.040000 4.840000 -4.920000 35.226852 0.663204 1241.370972
7.040000 4.840000 -4.880000 26.786840 9.244028 802.986938
7.040000 4.840000 -4.840000 15.926428 13.511036 436.199219
7.040000 4.840000 -4.800000 5.258528 11.487100 159.605576
7.040000 4.880000 -5.200000 -11.181854 -66.409546 4535.261719
7.040000 4.880000 -5.160000 4.893015 -68.144287 4667.585449
7.040000 4.880000 -5.120000 19.168968 -68.980278 5125.728027
7.040000 4.880000 -5.080000 37.396767 -68.439438 6082.474609
7.040000 4.880000 -5.040000 60.296917 -58.745239 7086.721680
7.040000 4.880000 -5.000000 78.604553 -34.136017 7343.943359
7.040000 4.880000 -4.960000 79.651970 -0.247513 6344.497559
7.040000 4.880000 -4.920000 59.737354 27.200468 4308.416992
7.040000 4.880000 -4.880000 29.781118 34.485558 2076.168701
7.040000 4.880000 -4.840000 7.778187 21.687950 530.867371
7.040000 4.880000 -4.800000 4.435832 2.813223 27.590828
7.040000 4.920000 -5.200000 28.746361 -49.343300 3261.114502
7.040000 4.920000 -5.160000 27.717424 -46.966953 2974.150391
7.040000 4.920000 -5.120000 33.244476 -58.732533 4554.705566
7.040000 4.920000 -5.080000 60.022438 -68.502487 8295.284180
7.040000 4.920000 -5.040000 99.051224 -52.496407 12567.017578
7.040000 4.920000 -5.000000 121.511208 -5.640614 14796.790039
7.040000 4.920000 -4.960000 105.093170 48.401325 13387.262695
7.040000 4.920000 -4.920000 56.945023 75.723587 8976.796875
7.040000 4.920000 -4.880000 9.540510 62.267174 3968.222168
7.040000 4.920000 -4.840000 -7.479287 26.128807 738.654297
7.040000 4.920000 -4.800000 7.629671 0.220649 58.260567
7.040000 4.960000 -5.200000 43.693623 -14.469898 2118.510742
7.040000 4.960000 -5.160000 32.169754 -23.034674 1565.489258
7.040000 4.960000 -5.120000 44.884598 -46.575611 4183.914551
7.040000 4.960000 -5.080000 88.256042 -51.344162 10425.351562
7.040000 4.960000 -5.040000 132.390076 -12.021222 17671.642578
7.040000 4.960000 -5.000000 135.665176 57.994663 21768.421875
7.040000 4.960000 -4.960000 85.295914 113.222260 20094.673828
7.040000 4.960000 -4.920000 12.803572 115.898361 13596.361328
7.040000 4.960000 -4.880000 -32.705517 70.454758 6033.523926
7.040000 4.960000 -4.840000 -27.958630 18.519518 1124.657471
7.040000 4.960000 -4.800000 6.537407 -0.195930 42.776077
7.040000 5.000000 -5.200000 33.560585 15.149565 1355.822144
7.040000 5.000000 -5.160000 25.828222 -6.208948 705.648071
7.040000 5.000000 -5.120000 53.477650 -28.484512 3671.226562
7.040000 5.000000 -5.080000 103.397598 -13.055065 10861.498047
7.040000 5.000000 -5.040000 130.165436 49.441784 19387.531250
7.040000 5.000000 -5.000000 98.051323 122.043777 24508.746094
7.040000 5.000000 -4.960000 18.770273 150.854553 23109.417969
7.040000 5.000000 -4.920000 -54.844730 114.352295 16084.391602
7.040000 5.000000 -4.880000 -75.236740 43.713959 7571.477051
7.040000 5.000000 -4.840000 -41.484596 -6.382934 1761.713501
7.040000 5.000000 -4.800000 4.341431 -7.288945 71.976746
7.040000 5.040000 -5.200000 12.786195 27.999590 947.463806
7.040000 5.040000 -5.160000 16.297348 3.583149 278.442505
7.040000 5.040000 -5.120000 51.541859 -5.046803 2682.033447
7.040000 5.040000 -5.080000 89.288673 30.019062 8873.611328
7.040000 5.040000 -5.040000 85.078270 96.257820 16503.880859
7.040000 5.040000 -5.000000 24.128988 144.499176 21462.220703
7.040000 5.040000 -4.960000 -58.422371 132.128448 20871.101562
7.040000 5.040000 -4.920000 -105.508392 64.192596 15252.709961
7.040000 5.040000 -4.880000 -88.831818 -9.577608 7982.822266
7.040000 5.040000 -4.840000 -32.504051 -39.664520 2629.787598
7.040000 5.040000 -4.800000 12.790123 -19.305202 536.278076
7.040000 5.080000 -5.200000 -5.475544 27.124020 765.694031
7.040000 5.080000 -5.160000 5.165164 8.800735 104.131859
7.040000 5.080000 -5.120000 34.703491 13.542608 1387.734497
7.040000 5.080000 -5.080000 50.598557 52.656422 5332.912598
7.040000 5.080000 -5.040000 22.757759 100.235161 10565.003906
7.040000 5.080000 -5.000000 -42.121407 112.203026 14363.731445
7.040000 5.080000 -4.960000 -100.070724 68.185257 14663.378906
7.040000 5.080000 -4.920000 -107.418396 -5.839664 11572.813477
7.040000 5.080000 -4.880000 -60.519417 -58.718605 7110.474609
7.040000 5.080000 -4.840000 1.853687 -59.232262 3511.896973
7.040000 5.080000 -4.800000 35.320255 -20.903500 1684.476685
7.040000 5.120000 -5.200000 -17.599247 20.220734 718.611572
7.040000 5.120000 -5.160000 -7.650567 8.081829 123.847137
7.040000 5.120000 -5.120000 10.661955 15.796343 363.201721
7.040000 5.120000 -5.080000 11.653299 43.551899 2032.567383
7.040000 5.120000 -5.040000 -19.085285 65.314636 4630.249512
7.040000 5.120000 -5.000000 -64.486259 51.859505 6847.885742
7.040000 5.120000 -4.960000 -87.155296 1.702240 7598.943359
7.040000 5.120000 -4.920000 -63.470261 -52.818314 6818.248047
7.040000 5.120000 -4.880000 -6.966768 -72.712471 5335.639160
7.040000 5.120000 -4.840000 43.083923 -46.733559 4040.250000
7.040000 5.120000 -4.800000 56.595680 0.801524 3203.713379
7.040000 5.160000 -5.200000 -25.315514 10.679553 754.928101
7.040000 5.160000 -5.160000 -17.915955 -0.926100 321.839081
7.040000 5.160000 -5.120000 -5.093307 1.669588 28.729307
7.040000 5.160000 -5.080000 -4.601353 15.929813 274.931396
7.040000 5.160000 -5.040000 -22.528522 22.658932 1020.961548
7.040000 5.160000 -5.000000 -42.862499 5.651131 1869.129150
7.040000 5.160000 -4.960000 -40.861465 -28.612946 2488.359863
7.040000 5.160000 -4.920000 -8.135834 -53.300957 2907.183838
7.040000 5.160000 -4.880000 36.489670 -45.105316 3365.985352
7.040000 5.160000 -4.840000 62.388649 -6.168227 3930.390625
7.040000 5.160000 -4.800000 53.753738 37.918701 4327.291992
7.040000 5.200000 -5.200000 -28.344254 -1.603827 805.968994
7.040000 5.200000 -5.160000 -18.936020 -14.886488 580.180359
7.040000 5.200000 -5.120000 -3.631016 -15.502310 253.505890
7.040000 5.200000 -5.080000 3.636467 -5.421640 42.618076
7.040000 5.200000 -5.040000 -1.485251 1.688862 5.058225
7.040000 5.200000 -5.000000 -7.970329 -4.272388 81.779449
7.040000 5.200000 -4.960000 -0.874279 -17.226152 297.504700
7.040000 5.200000 -4.920000 21.487503 -19.441944 839.702026
7.040000 5.200000 -4.880000 43.201225 0.598343 1866.703857
7.040000 5.200000 -4.840000 44.532413 35.302040 3229.369873
7.040000 5.200000 -4.800000 20.145639 63.484451 4436.122559
7.080000 4.800000 -5.200000 -48.445847 -28.864079 3180.135010
7.080000 4.800000 -5.160000 -26.528351 -54.895634 3717.283936
7.080000 4.800000 -5.120000 10.784719 -61.301620 3874.198730
7.080000 4.800000 -5.080000 43.908665 -40.991680 3608.288574
7.080000 4.800000 -5.040000 54.219170 -5.568210 2970.723145
7.080000 4.800000 -5.000000 39.485641 23.128080 2094.023926
7.080000 4.800000 -4.960000 15.088175 30.953205 1185.753906
7.080000 4.800000 -4.920000 -0.391838 21.953705 482.118683
7.080000 4.800000 -4.880000 -1.171068 11.751623 139.472046
7.080000 4.800000 -4.840000 3.446121 11.178690 136.838867
7.080000 4.800000 -4.800000 1.517187 16.876022 287.101990
7.080000 4.840000 -5.200000 -20.713058 -54.550003 3404.733643
7.080000 4.840000 -5.160000 5.518930 -63.607666 4076.393555
7.080000 4.840000 -5.120000 35.096630 -55.796555 4345.029297
7.080000 4.840000 -5.080000 55.280788 -31.665569 4058.673828
7.080000 4.840000 -5.040000 57.194572 -1.625609 3273.861816
7.080000 4.840000 -5.000000 42.564003 20.704781 2240.382324
7.080000 4.840000 -4.960000 22.049730 28.011290 1270.822998
7.080000 4.840000 -4.920000 6.662474 23.225365 583.806091
7.080000 4.840000 -4.880000 0.200776 14.813762 219.487854
7.080000 4.840000 -4.840000 -0.681875 8.766855 77.322701
7.080000 4.840000 -4.800000 -0.396397 5.197934 27.175646
7.080000 4.880000 -5.200000 16.233238 -52.668362 3037.474365
7.080000 4.880000 -5.160000 33.069511 -49.616924 3555.431641
7.080000 4.880000 -5.120000 49.819538 -40.303802 4106.382812
7.080000 4.880000 -5.080000 63.304337 -22.767267 4525.787598
7.080000 4.880000 -5.040000 67.355179 1.713263 4539.655273
7.080000 4.880000 -5.000000 57.314007 25.975313 3959.612305
7.080000 4.880000 -4.960000 35.493088 40.011925 2860.713379
7.080000 4.880000 -4.920000 11.713522 38.047363 1584.808350
7.080000 4.880000 -4.880000 -2.630249 23.492504 558.815979
7.080000 4.880000 -4.840000 -2.428379 7.035161 55.390514
7.080000 4.880000 -4.800000 7.895936 -0.891900 63.141300
7.080000 4.920000 -5.200000 39.734116 -27.737415 2348.164062
7.080000 4.920000 -5.160000 44.233871 -25.063684 2584.823730
7.080000 4.920000 -5.120000 55.744881 -23.376196 3653.938232
7.080000 4.920000 -5.080000 73.202087 -10.782301 5474.803223
7.080000 4.920000 -5.040000 82.570961 18.089457 7145.191895
7.080000 4.920000 -5.000000 69.408218 52.076111 7529.422363
7.080000 4.920000 -4.960000 34.987625 70.185196 6150.095703
7.080000 4.920000 -4.920000 -1.212444 60.171120 3622.033691
7.080000 4.920000 -4.880000 -16.890123 30.962809 1243.971802
7.080000 4.920000 -4.840000 -6.217247 5.965029 74.235733
7.080000 4.920000 -4.800000 15.475394 2.907944 247.943954
7.080000 4.960000 -5.200000 40.637310 2.351502 1656.920532
7.080000 4.960000 -5.160000 40.478104 -2.894886 1646.857300
7.080000 4.960000 -5.120000 56.593559 -6.239917 3241.767578
7.080000 4.960000 -5.080000 79.889618 11.588429 6516.642578
7.080000 4.960000 -5.040000 85.213158 51.970551 9962.220703
7.080000 4.960000 -5.000000 56.119064 91.031586 11436.099609
7.080000 4.960000 -4.960000 4.707040 99.020569 9827.229492
7.080000 4.960000 -4.920000 -35.616447 68.760437 5996.528809
7.080000 4.960000 -4.880000 -39.432438 24.299204 2145.368408
7.080000 4.960000 -4.840000 -12.361977 -0.205050 152.860519
7.080000 4.960000 -4.800000 15.140886 8.759341 305.972504
7.080000 5.000000 -5.200000 25.429871 22.580189 1156.543213
7.080000 5.000000 -5.160000 28.821224 11.938790 973.197693
7.080000 5.000000 -5.120000 50.596390 12.474812 2715.615479
7.080000 5.000000 -5.080000 70.461090 41.160164 6658.924316
7.080000 5.000000 -5.040000 59.474136 86.869888 11083.550781
7.080000 5.000000 -5.000000 11.196144 114.911339 13329.969727
7.080000 5.000000 -4.960000 -46.355515 98.567947 11864.474609
7.080000 5.000000 -4.920000 -73.300659 46.663418 7550.461426
7.080000 5.000000 -4.880000 -54.399956 -2.183265 2964.121826
7.080000 5.000000 -4.840000 -13.001509 -14.539169 380.426697
7.080000 5.000000 -4.800000 12.000140 8.010418 208.170166
7.080000 5.040000 -5.200000 5.653764 29.172750 883.014404
7.080000 5.040000 -5.160000 13.334183 19.661999 564.394653
7.080000 5.040000 -5.120000 33.313072 27.869522 1886.470947
7.080000 5.040000 -5.080000 39.983276 60.964222 5315.298828
7.080000 5.040000 -5.040000 11.500258 96.564316 9456.922852
7.080000 5.040000 -5.000000 -43.198421 100.077217 11881.552734
7.080000 5.040000 -4.960000 -86.774010 59.131577 11026.272461
7.080000 5.040000 -4.920000 -86.411377 -0.628218 7467.320801
7.080000 5.040000 -4.880000 -45.178329 -36.903336 3402.937500
7.080000 5.040000 -4.840000 0.634648 -29.300390 858.915649
7.080000 5.040000 -4.800000 16.137297 3.533584 272.898560
7.080000 5.080000 -5.200000 -11.684658 25.577747 790.752380
7.080000 5.080000 -5.160000 -4.360376 19.087534 383.346832
7.080000 5.080000 -5.120000 7.768833 29.521151 931.853149
7.080000 5.080000 -5.080000 2.236944 54.785034 3006.403809
7.080000 5.080000 -5.040000 -30.854668 70.095016 5865.322266
7.080000 5.080000 -5.000000 -72.441101 51.216328 7870.825195
7.080000 5.080000 -4.960000 -88.313255 1.844437 7802.632812
7.080000 5.080000 -4.920000 -61.684357 -45.155472 5843.976562
7.080000 5.080000 -4.880000 -11.096506 -56.601555 3326.868652
7.080000 5.080000 -4.840000 25.968729 -29.577660 1549.212891
7.080000 5.080000 -4.800000 27.806116 7.492807 829.322266
7.080000 5.120000 -5.200000 -24.282539 15.034129 815.666748
7.080000 5.120000 -5.160000 -19.435141 7.777517 438.214478
7.080000 5.120000 -5.120000 -12.455145 12.894026 321.386536
7.080000 5.120000 -5.080000 -19.167164 24.995998 992.180054
7.080000 5.120000 -5.040000 -41.239605 24.720699 2311.817871
7.080000 5.120000 -5.000000 -59.490524 0.041203 3539.124268
7.080000 5.120000 -4.960000 -51.142708 -36.990467 3983.871338
7.080000 5.120000 -4.920000 -14.142538 -58.119469 3577.884033
7.080000 5.120000 -4.880000 27.788628 -45.188576 2814.215088
7.080000 5.120000 -4.840000 46.126163 -7.887834 2189.841064
7.080000 5.120000 -4.800000 33.425735 25.765224 1781.126587
7.080000 5.160000 -5.200000 -29.706390 -0.623594 882.858459
7.080000 5.160000 -5.160000 -23.574390 -11.438633 686.594238
7.080000 5.160000 -5.120000 -13.893415 -12.054255 338.332062
7.080000 5.160000 -5.080000 -12.170387 -6.642113 192.235992
7.080000 5.160000 -5.040000 -18.513561 -8.000504 406.760010
7.080000 5.160000 -5.000000 -19.817366 -21.468132 853.608643
7.080000 5.160000 -4.960000 -4.230412 -36.055420 1317.889648
7.080000 5.160000 -4.920000 23.739594 -33.984943 1718.544678
7.080000 5.160000 -4.880000 44.841579 -9.280066 2096.886719
7.080000 5.160000 -4.840000 42.739090 24.655193 2434.508301
7.080000 5.160000 -4.800000 19.243740 46.924240 2572.205811
7.080000 5.200000 -5.200000 -24.747152 -16.964386 900.211975
7.080000 5.200000 -5.160000 -12.860067 -27.901718 943.887207
7.080000 5.200000 -5.120000 2.853296 -27.231936 749.719604
7.080000 5.200000 -5.080000 12.053140 -18.032396 470.445496
7.080000 5.200000 -5.040000 13.054200 -9.949156 269.397827
7.080000 5.200000 -5.000000 13.377153 -7.651211 237.489258
7.080000 5.200000 -4.960000 19.609512 -5.575857 415.623138
7.080000 5.200000 -4.920000 28.356724 5.080053 829.910706
7.080000 5.200000 -4.880000 28.781527 25.029041 1454.829102
7.080000 5.200000 -4.840000 13.989157 44.146019 2144.567383
7.080000 5.200000 -4.800000 -11.220675 50.309078 2656.906982
7.120000 4.800000 -5.200000 -22.493731 -25.911846 1177.391724
7.120000 4.800000 -5.160000 -1.943333 -37.668526 1422.694336
7.120000 4.800000 -5.120000 26.995653 -31.823093 1741.474609
7.120000 4.800000 -5.080000 46.410492 -4.673920 2175.779297
7.120000 4.800000 -5.040000 41.099739 29.791084 2576.697266
7.120000 4.800000 -5.000000 13.534653 49.599453 2643.292480
7.120000 4.800000 -4.960000 -16.705475 43.653847 2184.731201
7.120000 4.800000 -4.920000 -29.835472 21.295031 1343.633789
7.120000 4.800000 -4.880000 -22.854069 2.692304 529.556946
7.120000 4.800000 -4.840000 -9.834512 -0.350800 96.840683
7.120000 4.800000 -4.800000 -5.854627 6.190427 72.598038
7.120000 4.840000 -5.200000 -1.082253 -37.401306 1400.028931
7.120000 4.840000 -5.160000 20.309937 -37.843323 1844.610596
7.120000 4.840000 -5.120000 41.726624 -21.617718 2208.436768
7.120000 4.840000 -5.080000 48.170799 8.087343 2385.830811
7.120000 4.840000 -5.040000 32.396984 35.443581 2305.812012
7.120000 4.840000 -5.000000 3.218867 44.044796 1950.305176
7.120000 4.840000 -4.960000 -20.752611 30.965096 1389.508057
7.120000 4.840000 -4.920000 -26.583990 8.869442 785.375549
7.120000 4.840000 -4.880000 -16.809847 -5.921238 317.632019
7.120000 4.840000 -4.840000 -4.405423 -7.394287 74.083237
7.120000 4.840000 -4.800000 0.945056 -2.209363 5.774416
7.120000 4.880000 -5.200000 21.941605 -30.471596 1409.952148
7.120000 4.880000 -5.160000 36.551800 -23.646826 1895.206421
7.120000 4.880000 -5.120000 47.377785 -6.299290 2284.335693
7.120000 4.880000 -5.080000 45.653370 17.136122 2377.876953
7.120000 4.880000 -5.040000 28.923576 35.455002 2093.630371
7.120000 4.880000 -5.000000 4.853756 38.710049 1522.026855
7.120000 4.880000 -4.960000 -13.589769 26.288967 875.791626
7.120000 4.880000 -4.920000 -17.700804 7.497646 369.533142
7.120000 4.880000 -4.880000 -8.831755 -5.840608 112.112595
7.120000 4.880000 -4.840000 4.234483 -7.834278 79.306755
7.120000 4.880000 -4.800000 12.933984 -0.875648 168.054688
7.120000 4.920000 -5.200000 33.984547 -10.930590 1274.427246
7.120000 4.920000 -5.160000 40.858044 -3.690166 1682.997070
7.120000 4.920000 -5.120000 45.868378 8.831395 2181.901611
7.120000 4.920000 -5.080000 43.671906 25.978662 2582.126221
7.120000 4.920000 -5.040000 30.242392 41.341965 2623.760254
7.120000 4.920000 -5.000000 8.531616 45.807384 2171.104980
7.120000 4.920000 -4.960000 -11.030210 35.117126 1354.878052
7.120000 4.920000 -4.920000 -17.337582 15.125749 529.380005
7.120000 4.920000 -4.880000 -7.679119 -1.037920 60.046143
7.120000 4.920000 -4.840000 9.174685 -2.685960 91.389214
7.120000 4.920000 -4.800000 19.333977 9.936598 472.538635
7.120000 4.960000 -5.200000 31.534174 10.328884 1101.089966
7.120000 4.960000 -5.160000 34.150875 14.669390 1381.473267
7.120000 4.960000 -5.120000 38.479866 23.275660 2022.456421
7.120000 4.960000 -5.080000 37.629158 39.188484 2951.690918
7.120000 4.960000 -5.040000 23.491013 55.816917 3667.355957
7.120000 4.960000 -5.000000 -2.258925 59.876461 3590.293457
7.120000 4.960000 -4.960000 -25.337740 44.123352 2588.871338
7.120000 4.960000 -4.920000 -29.773329 17.154444 1180.726074
7.120000 4.960000 -4.880000 -13.332300 -1.517020 180.051575
7.120000 4.960000 -4.840000 8.460409 1.585499 74.092331
7.120000 4.960000 -4.800000 15.347849 20.938602 673.981567
7.120000 5.000000 -5.200000 18.243126 25.245449 970.144348
7.120000 5.000000 -5.160000 18.991879 27.277802 1104.769897
7.120000 5.000000 -5.120000 22.820774 34.910465 1739.528320
7.120000 5.000000 -5.080000 19.465919 51.112724 2991.432617
7.120000 5.000000 -5.040000 -0.052222 65.213203 4252.764648
7.120000 5.000000 -5.000000 -29.583317 60.972137 4592.774414
7.120000 5.000000 -4.960000 -49.053219 34.487251 3595.588867
7.120000 5.000000 -4.920000 -42.610008 2.265799 1820.746582
7.120000 5.000000 -4.880000 -15.817068 -11.782431 389.005310
7.120000 5.000000 -4.840000 7.327036 0.860183 54.425369
7.120000 5.000000 -4.800000 6.676528 24.127422 626.708496
7.120000 5.040000 -5.200000 -0.324266 30.197620 912.001465
7.120000 5.040000 -5.160000 -1.806419 30.166069 913.254822
7.120000 5.040000 -5.120000 -0.710828 36.019005 1297.873901
7.120000 5.040000 -5.080000 -8.418346 47.943291 2369.427734
7.120000 5.040000 -5.040000 -30.247089 52.476849 3668.706055
7.120000 5.040000 -5.000000 -54.227692 36.212006 4251.952148
7.120000 5.040000 -4.960000 -59.557537 3.450876 3559.008789
7.120000 5.040000 -4.920000 -38.068016 -23.363651 1995.034058
7.120000 5.040000 -4.880000 -5.489735 -23.949642 603.722595
7.120000 5.040000 -4.840000 11.737917 -1.014499 138.807907
7.120000 5.040000 -4.800000 2.188179 21.270004 457.201202
7.120000 5.080000 -5.200000 -18.528196 23.941900 916.508667
7.120000 5.080000 -5.160000 -21.927019 19.533026 862.333252
7.120000 5.080000 -5.120000 -22.265680 19.872931 890.693909
7.120000 5.080000 -5.080000 -29.257074 23.208099 1394.592285
7.120000 5.080000 -5.040000 -43.815899 17.709700 2233.466553
7.120000 5.080000 -5.000000 -52.670006 -3.246386 2784.668457
7.120000 5.080000 -4.960000 -41.318268 -29.067066 2552.093506
7.120000 5.080000 -4.920000 -11.909598 -39.186909 1677.452271
7.120000 5.080000 -4.880000 15.122602 -23.862244 798.099731
7.120000 5.080000 -4.840000 19.883587 4.051533 411.771942
7.120000 5.080000 -4.800000 3.143584 20.714983 438.992645
7.120000 5.120000 -5.200000 -29.721828 7.684295 942.435486
7.120000 5.120000 -5.160000 -31.103640 -2.831884 975.455994
7.120000 5.120000 -5.120000 -27.173492 -8.546160 811.435547
7.120000 5.120000 -5.080000 -25.807316 -10.736968 781.300049
7.120000 5.120000 -5.040000 -26.872194 -17.124981 1015.379761
7.120000 5.120000 -5.000000 -21.348141 -29.328342 1315.894775
7.120000 5.120000 -4.960000 -3.349058 -37.316277 1403.720703
7.120000 5.120000 -4.920000 19.437263 -29.129940 1226.360596
7.120000 5.120000 -4.880000 30.675301 -5.497588 971.197510
7.120000 5.120000 -4.840000 21.818096 18.131838 804.792847
7.120000 5.120000 -4.800000 1.782701 26.078632 683.273132
7.120000 5.160000 -5.200000 -27.871906 -12.373436 929.945068
7.120000 5.160000 -5.160000 -22.273073 -25.892748 1166.524170
7.120000 5.160000 -5.120000 -9.925009 -31.892635 1115.645996
7.120000 5.160000 -5.080000 1.316924 -30.455791 929.289551
7.120000 5.160000 -5.040000 9.280005 -26.772110 802.864319
7.120000 5.160000 -5.000000 17.328674 -22.638199 812.770996
7.120000 5.160000 -4.960000 26.691116 -14.096029 911.113770
7.120000 5.160000 -4.920000 31.905228 1.859476 1021.401184
7.120000 5.160000 -4.880000 26.009541 20.478767 1095.876099
7.120000 5.160000 -4.840000 9.461140 31.732939 1096.492554
7.120000 5.160000 -4.800000 -8.454127 30.204266 983.769958
7.120000 5.200000 -5.200000 -12.922489 -25.678400 826.370972
7.120000 5.200000 -5.160000 -0.120902 -35.252842 1242.777466
7.120000 5.200000 -5.120000 17.576790 -34.201057 1478.655762
7.120000 5.200000 -5.080000 31.447645 -22.708609 1504.635254
7.120000 5.200000 -5.040000 36.853703 -6.470957 1400.068726
7.120000 5.200000 -5.000000 34.486946 9.066993 1271.559814
7.120000 5.200000 -4.960000 26.838659 21.592283 1186.540283
7.120000 5.200000 -4.920000 15.351104 30.286560 1152.932129
7.120000 5.200000 -4.880000 1.257566 33.704857 1137.598755
7.120000 5.200000 -4.840000 -12.587564 30.655586 1098.211670
7.120000 5.200000 -4.800000 -22.617416 22.494587 1017.553955
7.160000 4.800000 -5.200000 -14.426023 -9.815563 304.455444
7.160000 4.800000 -5.160000 -2.524042 -16.029888 263.328094
7.160000 4.800000 -5.120000 15.921850 -7.832604 314.855011
7.160000 4.800000 -5.080000 23.072880 17.063747 823.529297
7.160000 4.800000 -5.040000 6.368557 42.188648 1820.440552
7.160000 4.800000 -5.000000 -26.063133 46.066139 2801.375977
7.160000 4.800000 -4.960000 -50.361225 23.567390 3091.674805
7.160000 4.800000 -4.920000 -48.882191 -7.752334 2449.567139
7.160000 4.800000 -4.880000 -26.864216 -24.067719 1300.941162
7.160000 4.800000 -4.840000 -6.146954 -17.937071 359.523560
7.160000 4.800000 -4.800000 -2.544742 -3.572425 19.237934
7.160000 4.840000 -5.200000 -3.492650 -19.788925 403.800171
7.160000 4.840000 -5.160000 10.881073 -18.987686 478.929993
7.160000 4.840000 -5.120000 22.911018 -2.518766 531.258911
7.160000 4.840000 -5.080000 17.177027 21.949120 776.814087
7.160000 4.840000 -5.040000 -7.880066 35.069027 1291.932129
7.160000 4.840000 -5.000000 -35.499855 24.060181 1839.132080
7.160000 4.840000 -4.960000 -44.930664 -3.865317 2033.705200
7.160000 4.840000 -4.920000 -30.660801 -27.448689 1693.515137
7.160000 4.840000 -4.880000 -6.848978 -31.101231 1014.195068
7.160000 4.840000 -4.840000 7.431629 -18.244926 388.106445
7.160000 4.840000 -4.800000 6.366946 -5.052718 66.067963
7.160000 4.880000 -5.200000 12.181974 -19.061033 511.723511
7.160000 4.880000 -5.160000 23.489637 -11.348538 680.552368
7.160000 4.880000 -5.120000 25.694080 6.320461 700.134033
7.160000 4.880000 -5.080000 12.199800 22.014633 633.479187
7.160000 4.880000 -5.040000 -10.024851 22.510551 607.222534
7.160000 4.880000 -5.000000 -25.284540 5.962195 674.855774
7.160000 4.880000 -4.960000 -22.835289 -15.687618 767.551819
7.160000 4.880000 -4.920000 -6.063523 -27.132729 772.951233
7.160000 4.880000 -4.880000 11.564685 -22.648811 646.710571
7.160000 4.880000 -4.840000 19.032394 -9.116765 445.347412
7.160000 4.880000 -4.800000 15.986450 2.603569 262.345154
7.160000 4.920000 -5.200000 24.090385 -6.997472 629.311279
7.160000 4.920000 -5.160000 28.583395 4.363409 836.049866
7.160000 4.920000 -5.120000 23.253855 17.219715 837.260376
7.160000 4.920000 -5.080000 9.790707 23.163155 632.389648
7.160000 4.920000 -5.040000 -3.978195 18.077333 342.616028
7.160000 4.920000 -5.000000 -9.842484 5.307085 125.039627
7.160000 4.920000 -4.960000 -4.963600 -6.986814 73.452888
7.160000 4.920000 -4.920000 6.750139 -11.542904 178.803009
7.160000 4.920000 -4.880000 17.877823 -6.280580 359.062225
7.160000 4.920000 -4.840000 22.156546 5.404001 520.115723
7.160000 4.920000 -4.800000 17.426250 17.294271 602.765991
7.160000 4.960000 -5.200000 25.143415 11.456068 763.432861
7.160000 4.960000 -5.160000 21.603289 21.991802 950.341431
7.160000 4.960000 -5.120000 12.925167 27.657656 932.005859
7.160000 4.960000 -5.080000 3.540629 27.446766 765.861023
7.160000 4.960000 -5.040000 -3.679515 22.743225 530.793091
7.160000 4.960000 -5.000000 -7.099699 15.137284 279.543091
7.160000 4.960000 -4.960000 -5.055891 6.864593 72.684662
7.160000 4.960000 -4.920000 2.769834 2.221761 12.608201
7.160000 4.960000 -4.880000 12.376348 5.825248 187.107513
7.160000 4.960000 -4.840000 15.824730 17.547104 558.322937
7.160000 4.960000 -4.800000 7.293003 29.643906 931.949036
7.160000 5.000000 -5.200000 12.814662 27.339792 911.679810
7.160000 5.000000 -5.160000 2.467883 32.430939 1057.856201
7.160000 5.000000 -5.120000 -6.104185 30.612192 974.367371
7.160000 5.000000 -5.080000 -11.069618 26.882578 845.209412
7.160000 5.000000 -5.040000 -14.967975 22.895020 748.222229
7.160000 5.000000 -5.000000 -17.949976 16.343044 589.296753
7.160000 5.000000 -4.960000 -15.780424 7.358741 303.172852
7.160000 5.000000 -4.920000 -6.173564 2.297123 43.389671
7.160000 5.000000 -4.880000 4.663864 8.001286 85.772202
7.160000 5.000000 -4.840000 5.404697 22.016119 513.920288
7.160000 5.000000 -4.800000 -8.325584 31.302101 1049.136841
7.160000 5.040000 -5.200000 -8.391933 31.273613 1048.463379
7.160000 5.040000 -5.160000 -21.560909 27.218792 1205.735352
7.160000 5.040000 -5.120000 -26.653635 18.183849 1041.068604
7.160000 5.040000 -5.080000 -26.362610 11.497765 827.185791
7.160000 5.040000 -5.040000 -25.918024 6.779543 717.706177
7.160000 5.040000 -5.000000 -24.580816 0.167843 604.244751
7.160000 5.040000 -4.960000 -17.421629 -6.729539 348.799866
7.160000 5.040000 -4.920000 -4.869124 -6.205732 62.219482
7.160000 5.040000 -4.880000 3.406540 5.536140 42.253365
7.160000 5.040000 -4.840000 -2.403491 20.107063 410.070770
7.160000 5.040000 -4.800000 -19.315691 22.654232 886.310181
7.160000 5.080000 -5.200000 -27.489710 19.193443 1124.072388
7.160000 5.080000 -5.160000 -37.148109 5.380908 1408.936279
7.160000 5.080000 -5.120000 -34.613232 -8.771706 1275.018677
7.160000 5.080000 -5.080000 -26.300194 -16.283304 956.846191
7.160000 5.080000 -5.040000 -18.333778 -18.886873 692.841431
7.160000 5.080000 -5.000000 -10.346986 -19.957634 505.367279
7.160000 5.080000 -4.960000 -0.171956 -17.520969 307.013947
7.160000 5.080000 -4.920000 8.480664 -7.359763 126.087784
7.160000 5.080000 -4.880000 7.370522 7.967986 117.813393
7.160000 5.080000 -4.840000 -5.814732 17.349358 334.811310
7.160000 5.080000 -4.800000 -20.918461 11.698223 574.430420
7.160000 5.120000 -5.200000 -32.788067 -3.154500 1085.008301
7.160000 5.120000 -5.160000 -33.125996 -22.395994 1598.912109
7.160000 5.120000 -5.120000 -20.262884 -36.080345 1712.375732
7.160000 5.120000 -5.080000 -3.095996 -38.507114 1492.383057
7.160000 5.120000 -5.040000 11.014631 -32.135719 1154.026611
7.160000 5.120000 -5.000000 20.070354 -21.102747 848.145020
7.160000 5.120000 -4.960000 23.670317 -7.121506 610.999695
7.160000 5.120000 -4.920000 19.603605 7.804723 445.215027
7.160000 5.120000 -4.880000 6.932656 17.869637 367.385620
7.160000 5.120000 -4.840000 -8.759798 16.724663 356.448425
7.160000 5.120000 -4.800000 -17.017824 5.420043 318.983215
7.160000 5.160000 -5.200000 -20.550243 -22.117863 911.512329
7.160000 5.160000 -5.160000 -10.563678 -39.006348 1633.086426
7.160000 5.160000 -5.120000 10.213449 -45.154221 2143.218262
7.160000 5.160000 -5.080000 31.135708 -36.533630 2304.138428
7.160000 5.160000 -5.040000 43.108116 -17.334312 2158.788086
7.160000 5.160000 -5.000000 42.579037 4.676147 1834.840698
7.160000 5.160000 -4.960000 30.889803 22.244865 1449.013916
7.160000 5.160000 -4.920000 12.654964 30.180941 1071.037354
7.160000 5.160000 -4.880000 -5.058406 26.593468 732.799988
7.160000 5.160000 -4.840000 -14.924883 14.848338 443.225281
7.160000 5.160000 -4.800000 -14.030729 3.276637 207.597717
7.160000 5.200000 -5.200000 0.654593 -25.437675 647.503784
7.160000 5.200000 -5.160000 15.572814 -33.953758 1395.370239
7.160000 5.200000 -5.120000 36.703030 -29.426121 2213.009033
7.160000 5.200000 -5.080000 52.416695 -9.889229 2845.306641
7.160000 5.200000 -5.040000 52.986439 17.358860 3108.892822
7.160000 5.200000 -5.000000 36.658669 40.086548 2950.789307
7.160000 5.200000 -4.960000 10.739199 48.272270 2445.542480
7.160000 5.200000 -4.920000 -12.651132 39.893913 1751.575439
7.160000 5.200000 -4.880000 -23.796001 21.996475 1050.094604
7.160000 5.200000 -4.840000 -21.324596 6.046162 491.294495
7.160000 5.200000 -4.800000 -12.718233 0.036667 161.754791
7.200000 4.800000 -5.200000 -22.933268 -0.430752 526.120300
7.200000 4.800000 -5.160000 -17.256786 -10.300943 403.906097
7.200000 4.800000 -5.120000 -4.295187 -6.115744 55.850952
7.200000 4.800000 -5.080000 -3.254790 11.804800 149.946960
7.200000 4.800000 -5.040000 -22.806374 24.278231 1109.563232
7.200000 4.800000 -5.000000 -48.664711 13.214711 2542.882812
7.200000 4.800000 -4.960000 -56.375618 -17.438347 3482.306152
7.200000 4.800000 -4.920000 -36.660114 -43.512363 3237.289795
7.200000 4.800000 -4.880000 -5.830715 -44.520306 2016.054810
7.200000 4.800000 -4.840000 10.728369 -24.252697 703.291199
7.200000 4.800000 -4.800000 4.503082 -5.689926 52.653008
7.200000 4.840000 -5.200000 -15.469572 -17.084030 531.171753
7.200000 4.840000 -5.160000 -4.039580 -20.441051 434.154785
7.200000 4.840000 -5.120000 3.745050 -9.105480 96.935165
7.200000 4.840000 -5.080000 -5.197735 5.225373 54.320972
7.200000 4.840000 -5.040000 -25.916517 4.268431 689.885376
7.200000 4.840000 -5.000000 -38.599110 -16.631233 1766.489136
7.200000 4.840000 -4.960000 -28.592752 -41.781723 2563.257812
7.200000 4.840000 -4.920000 -2.062095 -50.028152 2507.068115
7.200000 4.840000 -4.880000 19.828159 -35.812820 1675.713989
7.200000 4.840000 -4.840000 22.184399 -13.948856 686.718140
7.200000 4.840000 -4.800000 10.330214 -3.255093 117.308937
7.200000 4.880000 -5.200000 3.458333 -22.423801 514.786926
7.200000 4.880000 -5.160000 13.233857 -16.370022 443.112579
7.200000 4.880000 -5.120000 11.713896 -4.116559 154.161407
7.200000 4.880000 -5.080000 -1.383317 0.342461 2.030845
7.200000 4.880000 -5.040000 -13.260368 -10.368088 283.334625
7.200000 4.880000 -5.000000 -10.541246 -28.512569 924.084473
7.200000 4.880000 -4.960000 7.105951 -38.234550 1512.375366
7.200000 4.880000 -4.920000 26.431129 -30.855719 1650.679932
7.200000 4.880000 -4.880000 33.543114 -12.685114 1286.052612
7.200000 4.880000 -4.840000 26.598621 2.306119 712.804810
7.200000 4.880000 -4.800000 15.385924 6.456411 278.411926
7.200000 4.920000 -5.200000 20.922382 -10.318664 544.220886
7.200000 4.920000 -5.160000 21.449371 1.270442 461.689545
7.200000 4.920000 -5.120000 12.125243 7.261358 199.748840
7.200000 4.920000 -5.080000 2.547657 1.871028 9.991303
7.200000 4.920000 -5.040000 2.595251 -9.780932 102.401970
7.200000 4.920000 -5.000000 13.219399 -16.845028 458.507507
7.200000 4.920000 -4.960000 26.263329 -12.848526 854.847046
7.200000 4.920000 -4.920000 32.542591 -0.598870 1059.378906
7.200000 4.920000 -4.880000 29.383434 11.930088 1005.713257
7.200000 4.920000 -4.840000 20.709812 19.165268 796.203857
7.200000 4.920000 -4.800000 11.416370 20.980598 570.519043
7.200000 4.960000 -5.200000 22.934555 12.512256 682.550415
7.200000 4.960000 -5.160000 11.762786 20.854195 573.260559
7.200000 4.960000 -5.120000 0.441995 16.337038 267.094177
7.200000 4.960000 -5.080000 -0.887153 5.482280 30.842432
7.200000 4.960000 -5.040000 7.506641 -0.721231 56.869835
7.200000 4.960000 -5.000000 17.229710 2.607514 303.662018
7.200000 4.960000 -4.960000 21.091805 11.657639 580.764771
7.200000 4.960000 -4.920000 18.616577 20.195948 754.453247
7.200000 4.960000 -4.880000 13.088102 25.862398 840.162048
7.200000 4.960000 -4.840000 5.841002 29.504612 904.639465
7.200000 4.960000 -4.800000 -4.156875 30.245914 932.094971
7.200000 5.000000 -5.200000 5.779494 29.883644 926.434692
7.200000 5.000000 -5.160000 -12.150271 26.717457 861.451599
7.200000 5.000000 -5.120000 -18.337057 12.044376 481.314636
7.200000 5.000000 -5.080000 -10.305660 0.709709 106.710320
7.200000 5.000000 -5.040000 1.862385 1.242927 5.013344
7.200000 5.000000 -5.000000 7.752746 9.943445 158.977173
7.200000 5.000000 -4.960000 5.978640 18.307169 370.896576
7.200000 5.000000 -4.920000 1.428355 22.979759 530.109558
7.200000 5.000000 -4.880000 -3.540942 26.305733 704.529846
7.200000 5.000000 -4.840000 -11.551509 28.831453 964.690063
7.200000 5.000000 -4.800000 -23.379957 25.456444 1194.652832
7.200000 5.040000 -5.200000 -19.585480 28.176920 1177.529785
7.200000 5.040000 -5.160000 -34.538681 11.203870 1318.447266
7.200000 5.040000 -5.120000 -30.030972 -8.960165 982.143799
7.200000 5.040000 -5.080000 -13.352266 -16.592999 453.610626
7.200000 5.040000 -5.040000 0.725681 -9.728950 95.179070
7.200000 5.040000 -5.000000 4.519148 2.378087 26.077995
7.200000 5.040000 -4.960000 0.912043 11.447464 131.876251
7.200000 5.040000 -4.920000 -4.902523 16.720097 303.596344
7.200000 5.040000 -4.880000 -12.608627 20.030210 560.186768
7.200000 5.040000 -4.840000 -23.644299 18.800846 912.524658
7.200000 5.040000 -4.800000 -33.582165 8.202031 1195.035156
7.200000 5.080000 -5.200000 -35.041309 7.693311 1287.080322
7.200000 5.080000 -5.160000 -38.457142 -17.660147 1790.832520
7.200000 5.080000 -5.120000 -21.575462 -35.951042 1757.978027
7.200000 5.080000 -5.080000 1.729458 -35.809986 1285.346069
7.200000 5.080000 -5.040000 16.527493 -21.109533 718.770386
7.200000 5.080000 -5.000000 17.999516 -3.243439 334.502472
7.200000 5.080000 -4.960000 10.191390 9.846642 200.820801
7.200000 5.080000 -4.920000 -1.888279 16.263737 268.074738
7.200000 5.080000 -4.880000 -15.517454 15.452552 479.572754
7.200000 5.080000 -4.840000 -26.764091 5.960140 751.839844
7.200000 5.080000 -4.800000 -28.585329 -10.064219 918.409546
7.200000 5.120000 -5.200000 -29.610390 -16.722948 1156.432129
7.200000 5.120000 -5.160000 -19.474323 -40.678116 2033.958374
7.200000 5.120000 -5.120000 6.330565 -49.972870 2537.364014
7.200000 5.120000 -5.080000 31.623964 -38.608406 2490.684082
7.200000 5.120000 -5.040000 42.826115 -14.151884 2034.351807
7.200000 5.120000 -5.000000 36.649681 10.336691 1450.046265
7.200000 5.120000 -4.960000 18.495636 24.949331 964.557678
7.200000 5.120000 -4.920000 -2.947371 25.822289 675.477600
7.200000 5.120000 -4.880000 -19.124933 14.262618 569.185303
7.200000 5.120000 -4.840000 -23.333307 -3.730796 558.362061
7.200000 5.120000 -4.800000 -13.928729 -18.130791 522.735107
7.200000 5.160000 -5.200000 -8.567263 -27.338900 820.813416
7.200000 5.160000 -5.160000 9.629243 -42.130764 1867.723511
7.200000 5.160000 -5.120000 36.836098 -39.243736 2896.968750
7.200000 5.160000 -5.080000 56.996796 -16.704315 3527.668945
7.200000 5.160000 -5.040000 57.843136 15.084711 3573.376953
7.200000 5.160000 -5.000000 38.238506 40.368614 3091.808350
7.200000 5.160000 -4.960000 8.136280 47.345173 2307.764404
7.200000 5.160000 -4.920000 -17.448467 34.401817 1487.933960
7.200000 5.160000 -4.880000 -26.794762 10.651301 831.409424
7.200000 5.160000 -4.840000 -18.116030 -9.337120 415.372314
7.200000 5.160000 -4.800000 -0.773599 -14.391487 207.713348
7.200000 5.200000 -5.200000 10.926138 -17.968597 442.250977
7.200000 5.200000 -5.160000 28.465611 -22.665461 1324.014038
7.200000 5.200000 -5.120000 49.487698 -10.541428 2560.153809
7.200000 5.200000 -5.080000 58.643185 17.659426 3750.878418
7.200000 5.200000 -5.040000 45.564407 48.644478 4442.400391
7.200000 5.200000 -5.000000 13.587591 64.565857 4353.372559
7.200000 5.200000 -4.960000 -20.904667 55.554382 3523.294434
7.200000 5.200000 -4.920000 -39.155991 27.554701 2292.453125
7.200000 5.200000 -4.880000 -33.429527 -1.245429 1119.084473
7.200000 5.200000 -4.840000 -12.659113 -13.608698 345.449799
7.200000 5.200000 -4.800000 4.748189 -6.041796 59.048599
