#kx 	ky 	kz 	real 	imag 	intensity
2.800000 6.800000 2.800000 3.585054 -22.899343 537.232544
2.800000 6.800000 2.840000 6.000922 -11.818228 175.681564
2.800000 6.800000 2.880000 -1.647419 -6.762527 48.445759
2.800000 6.800000 2.920000 -8.435150 -13.404812 250.840729
2.800000 6.800000 2.960000 -3.809692 -24.942539 636.643982
2.800000 6.800000 3.000000 11.687038 -28.488819 948.199646
2.800000 6.800000 3.040000 26.577898 -17.645441 1017.746216
2.800000 6.800000 3.080000 29.317104 1.416754 861.499817
2.800000 6.800000 3.120000 18.732517 16.198677 613.304321
2.800000 6.800000 3.160000 3.725586 19.513935 394.673676
2.800000 6.800000 3.200000 -6.463576 14.477621 251.379333
2.800000 6.840000 2.800000 9.146473 -19.680721 470.988739
2.800000 6.840000 2.840000 6.366215 -10.327728 147.190659
2.800000 6.840000 2.880000 -1.746544 -11.308064 130.922745
2.800000 6.840000 2.920000 -2.317054 -21.493763 467.350586
2.800000 6.840000 2.960000 9.734918 -28.624229 914.115112
2.800000 6.840000 3.000000 25.768303 -22.019287 1148.854492
2.800000 6.840000 3.040000 31.862011 -3.885114 1030.281860
2.800000 6.840000 3.080000 22.746334 12.693964 678.532410
2.800000 6.840000 3.120000 6.551253 16.831009 326.201782
2.800000 6.840000 3.160000 -4.249079 9.850214 115.081390
2.800000 6.840000 3.200000 -5.423057 1.969788 33.289604
2.800000 6.880000 2.800000 13.456446 -17.721619 495.131683
2.800000 6.880000 2.840000 9.174410 -12.322695 236.018600
2.800000 6.880000 2.880000 5.406274 -16.736816 309.348816
2.800000 6.880000 2.920000 11.414446 -24.065126 709.419922
2.800000 6.880000 2.960000 24.891294 -22.753567 1137.301270
2.800000 6.880000 3.000000 34.119076 -9.526745 1254.870239
2.800000 6.880000 3.040000 30.457939 6.668962 972.161072
2.800000 6.880000 3.080000 17.474926 14.021196 501.966980
2.800000 6.880000 3.120000 6.735651 10.045707 146.285217
2.800000 6.880000 3.160000 5.209531 3.228359 37.561516
2.800000 6.880000 3.200000 8.464083 2.589143 78.344353
2.800000 6.920000 2.800000 20.413321 -14.579448 629.263916
2.800000 6.920000 2.840000 17.345421 -11.121490 424.551147
2.800000 6.920000 2.880000 17.656450 -13.951834 506.403931
2.800000 6.920000 2.920000 24.986931 -15.091578 852.102417
2.800000 6.920000 2.960000 33.530807 -8.177677 1191.189453
2.800000 6.920000 3.000000 35.077927 4.161437 1247.778442
2.800000 6.920000 3.040000 28.412128 13.505264 989.641174
2.800000 6.920000 3.080000 20.291519 15.304403 645.970520
2.800000 6.920000 3.120000 17.123777 13.635348 479.146484
2.800000 6.920000 3.160000 17.358234 15.524549 542.319946
2.800000 6.920000 3.200000 13.666579 21.606339 653.609253
2.800000 6.960000 2.800000 27.799786 -4.779507 795.671753
2.800000 6.960000 2.840000 24.642780 -0.768289 607.856873
2.800000 6.960000 2.880000 24.559181 -0.545514 603.450989
2.800000 6.960000 2.920000 28.100384 1.463654 791.773865
2.800000 6.960000 2.960000 31.096184 7.491985 1023.102478
2.800000 6.960000 3.000000 30.510347 14.988266 1155.529419
2.800000 6.960000 3.040000 27.463715 21.023769 1196.254517
2.800000 6.960000 3.080000 24.245529 26.188122 1273.663452
2.800000 6.960000 3.120000 19.828304 32.744659 1465.374390
2.800000 6.960000 3.160000 10.437530 39.530243 1671.582153
2.800000 6.960000 3.200000 -4.733036 40.637955 1673.844971
2.800000 7.000000 2.800000 27.646351 11.909639 906.160278
2.800000 7.000000 2.840000 21.374523 15.244287 689.258545
2.800000 7.000000 2.880000 17.990124 14.658483 538.515686
2.800000 7.000000 2.920000 18.396076 14.023045 535.061401
2.800000 7.000000 2.960000 21.087898 15.971335 699.783020
2.800000 7.000000 3.000000 23.817322 21.784851 1041.844604
2.800000 7.000000 3.040000 23.602669 31.701080 1562.044434
2.800000 7.000000 3.080000 16.787945 43.707214 2192.155762
2.800000 7.000000 3.120000 1.409122 52.345768 2742.064941
2.800000 7.000000 3.160000 -19.309105 50.793266 2952.797363
2.800000 7.000000 3.200000 -36.608559 36.227272 2652.601807
2.800000 7.040000 2.800000 14.509180 27.080324 943.860229
2.800000 7.040000 2.840000 5.289872 25.281168 667.120178
2.800000 7.040000 2.880000 1.452361 19.202698 370.852936
2.800000 7.040000 2.920000 4.527499 14.117245 219.794846
2.800000 7.040000 2.960000 11.956786 15.506027 383.401611
2.800000 7.040000 3.000000 17.129421 25.950695 966.855713
2.800000 7.040000 3.040000 12.320269 41.921543 1909.204834
2.800000 7.040000 3.080000 -5.620738 53.881592 2934.818604
2.800000 7.040000 3.120000 -30.963806 51.753510 3637.183105
2.800000 7.040000 3.160000 -51.080780 32.827953 3686.920654
2.800000 7.040000 3.200000 -54.846111 5.314021 3036.334717
2.800000 7.080000 2.800000 -7.166416 30.010098 951.963501
2.800000 7.080000 2.840000 -14.309825 20.332758 618.192139
2.800000 7.080000 2.880000 -12.223942 9.187240 233.830139
2.800000 7.080000 2.920000 -1.875698 4.471260 23.510406
2.800000 7.080000 2.960000 9.188712 11.806887 223.835007
2.800000 7.080000 3.000000 10.096874 28.970409 941.231445
2.800000 7.080000 3.040000 -5.385000 44.688042 2026.019287
2.800000 7.080000 3.080000 -32.011780 45.363602 3082.610352
2.800000 7.080000 3.120000 -54.620880 25.867100 3652.547363
2.800000 7.080000 3.160000 -58.734692 -4.880455 3473.582764
2.800000 7.080000 3.200000 -41.953178 -29.615307 2637.135742
2.800000 7.120000 2.800000 -25.207684 17.794783 952.081604
2.800000 7.120000 2.840000 -24.276331 3.120349 599.076843
2.800000 7.120000 2.880000 -12.832273 -6.777718 210.604675
2.800000 7.120000 2.920000 2.776458 -4.085446 24.399590
2.800000 7.120000 2.960000 10.631140 11.669445 249.197083
2.800000 7.120000 3.000000 1.438868 30.236423 916.311646
2.800000 7.120000 3.040000 -22.425968 36.161564 1810.582764
2.800000 7.120000 3.080000 -46.061798 20.861057 2556.873047
2.800000 7.120000 3.120000 -52.378738 -8.901209 2822.763672
2.800000 7.120000 3.160000 -35.887875 -34.865845 2503.566650
2.800000 7.120000 3.200000 -7.625368 -41.365753 1769.271729
2.800000 7.160000 2.800000 -29.994282 -1.336801 901.443970
2.800000 7.160000 2.840000 -19.510132 -14.151907 580.921692
2.800000 7.160000 2.880000 -2.060512 -15.992670 260.011200
2.800000 7.160000 2.920000 11.411224 -3.533899 142.704483
2.800000 7.160000 2.960000 9.796400 15.915547 349.274109
2.800000 7.160000 3.000000 -8.309857 27.380688 818.755798
2.800000 7.160000 3.040000 -30.862942 19.493916 1332.533936
2.800000 7.160000 3.080000 -40.308353 -4.941274 1649.179443
2.800000 7.160000 3.120000 -27.840616 -29.524504 1646.796143
2.800000 7.160000 3.160000 -1.385553 -36.992264 1370.347412
2.800000 7.160000 3.200000 20.601833 -23.318729 968.198669
2.800000 7.200000 2.800000 -22.654148 -15.372472 749.523315
2.800000 7.200000 2.840000 -6.897821 -21.162003 495.410278
2.800000 7.200000 2.880000 9.239307 -13.617334 270.796600
2.800000 7.200000 2.920000 14.353455 3.933689 221.495560
2.800000 7.200000 2.960000 3.483013 19.041225 374.699646
2.800000 7.200000 3.000000 -15.776546 19.112453 614.185303
2.800000 7.200000 3.040000 -27.754362 2.646094 777.306458
2.800000 7.200000 3.080000 -21.468843 -18.016499 785.505432
2.800000 7.200000 3.120000 -0.584835 -26.273735 690.651184
2.800000 7.200000 3.160000 19.143322 -15.316248 601.054199
2.800000 7.200000 3.200000 23.113941 6.152877 572.112183
2.840000 6.800000 2.800000 15.070773 -6.421948 268.369629
2.840000 6.800000 2.840000 8.095327 -0.414451 65.706093
2.840000 6.800000 2.880000 0.255246 -4.016065 16.193926
2.840000 6.800000 2.920000 0.448966 -13.484010 182.020081
2.840000 6.800000 2.960000 10.345145 -19.174578 474.686462
2.840000 6.800000 3.000000 22.857595 -14.379541 729.240845
2.840000 6.800000 3.040000 28.693459 -1.041111 824.398499
2.840000 6.800000 3.080000 24.261309 12.769172 751.662842
2.840000 6.800000 3.120000 13.355154 20.302904 590.568054
2.840000 6.800000 3.160000 2.077520 20.723785 433.791382
2.840000 6.800000 3.200000 -6.632816 16.974087 332.113892
2.840000 6.840000 2.800000 12.838123 -1.674076 167.619949
2.840000 6.840000 2.840000 8.995811 -0.772686 81.521652
2.840000 6.840000 2.880000 8.634598 -3.650518 87.882568
2.840000 6.840000 2.920000 13.145582 -4.581822 193.799438
2.840000 6.840000 2.960000 18.003584 0.253307 324.193207
2.840000 6.840000 3.000000 17.664215 8.593782 385.877594
2.840000 6.840000 3.040000 11.433361 14.566658 342.909271
2.840000 6.840000 3.080000 3.862201 14.888594 236.586823
2.840000 6.840000 3.120000 -0.540205 11.843155 140.552139
2.840000 6.840000 3.160000 -2.119362 9.788537 100.307159
2.840000 6.840000 3.200000 -4.757207 9.405256 111.089867
2.840000 6.880000 2.800000 11.971634 -1.732911 146.322998
2.840000 6.880000 2.840000 14.470192 0.633245 209.787460
2.840000 6.880000 2.880000 16.815609 6.134190 320.393005
2.840000 6.880000 2.920000 14.677888 14.221971 417.704834
2.840000 6.880000 2.960000 6.218993 19.526558 419.962341
2.840000 6.880000 3.000000 -4.045699 16.859175 300.599457
2.840000 6.880000 3.040000 -8.352360 7.516798 126.264168
2.840000 6.880000 3.080000 -3.429426 -0.511612 12.022711
2.840000 6.880000 3.120000 5.250194 0.171904 27.594084
2.840000 6.880000 3.160000 8.072491 8.579376 138.770813
2.840000 6.880000 3.200000 0.877382 15.492973 240.802032
2.840000 6.920000 2.800000 15.889333 -0.219649 252.519150
2.840000 6.920000 2.840000 19.436466 9.873439 475.261017
2.840000 6.920000 2.880000 14.194590 22.823792 722.411865
2.840000 6.920000 2.920000 -1.097218 29.234976 855.887695
2.840000 6.920000 2.960000 -17.650587 21.384720 768.849487
2.840000 6.920000 3.000000 -22.280956 2.649972 503.463348
2.840000 6.920000 3.040000 -9.755957 -12.719521 256.964905
2.840000 6.920000 3.080000 10.440516 -11.379145 238.489304
2.840000 6.920000 3.120000 21.117289 6.321232 485.897858
2.840000 6.920000 3.160000 12.696816 25.545355 813.774292
2.840000 6.920000 3.200000 -7.745878 29.934294 956.060608
2.840000 6.960000 2.800000 18.979357 8.494849 432.378418
2.840000 6.960000 2.840000 14.484383 24.131086 792.106689
2.840000 6.960000 2.880000 -3.183063 33.801601 1152.680054
2.840000 6.960000 2.920000 -25.078957 26.093493 1309.824463
2.840000 6.960000 2.960000 -33.851925 2.156464 1150.603149
2.840000 6.960000 3.000000 -19.286041 -20.918442 809.532593
2.840000 6.960000 3.040000 9.546487 -23.096447 624.581299
2.840000 6.960000 3.080000 29.493973 -0.096226 869.903687
2.840000 6.960000 3.120000 23.099823 30.822586 1483.633545
2.840000 6.960000 3.160000 -5.340700 45.066490 2059.511719
2.840000 6.960000 3.200000 -33.307598 32.255112 2149.788330
2.840000 7.000000 2.800000 12.617688 20.818230 592.604736
2.840000 7.000000 2.840000 -2.860760 31.841408 1022.059204
2.840000 7.000000 2.880000 -25.639660 27.367462 1406.370117
2.840000 7.000000 2.920000 -38.809669 4.177838 1523.644775
2.840000 7.000000 2.960000 -27.771336 -23.196518 1309.325439
2.840000 7.000000 3.000000 3.296482 -31.514463 1004.028198
2.840000 7.000000 3.040000 30.621607 -9.879149 1035.280396
2.840000 7.000000 3.080000 29.979494 27.507984 1655.459229
2.840000 7.000000 3.120000 -1.019067 51.403221 2643.329834
2.840000 7.000000 3.160000 -39.445251 42.744217 3382.996094
2.840000 7.000000 3.200000 -56.845695 9.307610 3318.064697
2.840000 7.040000 2.800000 -4.127973 25.872856 686.444824
2.840000 7.040000 2.840000 -22.881851 23.608227 1080.927490
2.840000 7.040000 2.880000 -36.684345 5.082301 1371.571045
2.840000 7.040000 2.920000 -30.805744 -20.990440 1389.592529
2.840000 7.040000 2.960000 -3.766243 -33.921715 1164.867310
2.840000 7.040000 3.000000 25.736641 -18.588694 1007.914185
2.840000 7.040000 3.040000 31.856102 17.607494 1324.835083
2.840000 7.040000 3.080000 4.990885 47.173042 2250.204834
2.840000 7.040000 3.120000 -37.109077 45.149193 3415.533203
2.840000 7.040000 3.160000 -63.166592 11.582354 4124.169434
2.840000 7.040000 3.200000 -55.324715 -28.174280 3854.614014
2.840000 7.080000 2.800000 -21.345963 16.488861 727.532654
2.840000 7.080000 2.840000 -31.255032 2.592251 983.596802
2.840000 7.080000 2.880000 -27.885618 -17.991056 1101.285889
2.840000 7.080000 2.920000 -7.381665 -30.992752 1015.039673
2.840000 7.080000 2.960000 18.714767 -22.217005 843.837830
2.840000 7.080000 3.000000 28.858307 7.050689 882.514099
2.840000 7.080000 3.040000 9.972997 36.111824 1403.524536
2.840000 7.080000 3.080000 -27.912518 40.095421 2386.751465
2.840000 7.080000 3.120000 -57.167397 12.180658 3416.479736
2.840000 7.080000 3.160000 -55.481064 -28.656729 3899.356445
2.840000 7.080000 3.200000 -25.289160 -53.303692 3480.825195
2.840000 7.120000 2.800000 -26.909277 -2.544500 730.583679
2.840000 7.120000 2.840000 -22.415838 -17.146128 796.459473
2.840000 7.120000 2.880000 -6.864086 -26.387169 743.398315
2.840000 7.120000 2.920000 13.141077 -20.828535 606.515808
2.840000 7.120000 2.960000 23.077805 0.409318 532.752625
2.840000 7.120000 3.000000 11.512871 24.161192 716.309387
2.840000 7.120000 3.040000 -17.397390 30.837566 1253.624756
2.840000 7.120000 3.080000 -43.530319 11.130810 2018.783569
2.840000 7.120000 3.120000 -46.035614 -23.619884 2677.176758
2.840000 7.120000 3.160000 -21.534912 -49.025345 2867.236816
2.840000 7.120000 3.200000 12.188735 -47.873985 2440.483643
2.840000 7.160000 2.800000 -18.196701 -18.309868 666.371216
2.840000 7.160000 2.840000 -4.833410 -23.372734 569.646545
2.840000 7.160000 2.880000 9.968088 -17.929638 420.834717
2.840000 7.160000 2.920000 17.262402 -2.339796 303.465149
2.840000 7.160000 2.960000 9.921810 14.962932 322.331635
2.840000 7.160000 3.000000 -9.921211 21.044050 541.282471
2.840000 7.160000 3.040000 -29.235323 8.443457 925.996094
2.840000 7.160000 3.080000 -32.596970 -16.659504 1340.101440
2.840000 7.160000 3.120000 -15.072889 -37.112732 1604.546875
2.840000 7.160000 3.160000 12.254137 -37.975166 1592.277100
2.840000 7.160000 3.200000 30.553352 -19.090242 1297.944702
2.840000 7.200000 2.800000 -4.403732 -22.009695 503.819519
2.840000 7.200000 2.840000 7.456327 -16.614082 331.624542
2.840000 7.200000 2.880000 12.701482 -4.373691 180.456802
2.840000 7.200000 2.920000 7.540160 8.124756 122.865677
2.840000 7.200000 2.960000 -5.653688 12.586235 190.377502
2.840000 7.200000 3.000000 -18.194595 4.738624 353.497864
2.840000 7.200000 3.040000 -20.251759 -11.236738 536.398010
2.840000 7.200000 3.080000 -8.503516 -24.266623 661.178711
2.840000 7.200000 3.120000 10.137014 -24.230206 689.861938
2.840000 7.200000 3.160000 22.990730 -10.195623 632.524414
2.840000 7.200000 3.200000 21.376802 8.300261 525.862000
2.880000 6.800000 2.800000 9.058763 14.631166 296.132202
2.880000 6.800000 2.840000 0.116632 9.102431 82.867859
2.880000 6.800000 2.880000 -0.430464 -0.709980 0.689371
2.880000 6.800000 2.920000 7.100548 -6.441542 91.911240
2.880000 6.800000 2.960000 16.084885 -3.950521 274.330109
2.880000 6.800000 3.000000 20.237209 3.963646 425.255127
2.880000 6.800000 3.040000 18.672337 11.764027 487.048462
2.880000 6.800000 3.080000 14.507187 16.920853 496.773712
2.880000 6.800000 3.120000 9.662495 20.696491 521.708557
2.880000 6.800000 3.160000 2.670749 23.818510 574.454285
2.880000 6.800000 3.200000 -7.670671 23.191772 596.697510
2.880000 6.840000 2.800000 0.022926 12.663128 160.355331
2.880000 6.840000 2.840000 3.705482 8.835960 91.804787
2.880000 6.840000 2.880000 8.788795 13.257881 253.014343
2.880000 6.840000 2.920000 6.018467 22.670891 550.191223
2.880000 6.840000 2.960000 -5.807304 26.642311 743.537537
2.880000 6.840000 3.000000 -17.327124 18.883831 656.828247
2.880000 6.840000 3.040000 -17.896120 5.009018 345.361389
2.880000 6.840000 3.080000 -7.283253 -2.321032 58.432957
2.880000 6.840000 3.120000 3.108534 3.500695 21.917850
2.880000 6.840000 3.160000 1.561705 15.450431 241.154739
2.880000 6.840000 3.200000 -11.426626 19.374592 505.942596
2.880000 6.880000 2.800000 -1.608348 5.978206 38.325729
2.880000 6.880000 2.840000 7.599613 16.319536 324.081390
2.880000 6.880000 2.880000 0.885315 35.555599 1264.984497
2.880000 6.880000 2.920000 -24.833260 43.549404 2513.241455
2.880000 6.880000 2.960000 -51.727272 25.871216 3345.030518
2.880000 6.880000 3.000000 -55.988331 -9.194595 3219.233643
2.880000 6.880000 3.040000 -31.323107 -35.481789 2240.094238
2.880000 6.880000 3.080000 3.128429 -32.699505 1079.044678
2.880000 6.880000 3.120000 19.679625 -5.852354 421.537689
2.880000 6.880000 3.160000 7.762236 19.432114 437.859375
2.880000 6.880000 3.200000 -17.009342 21.347343 745.026794
2.880000 6.920000 2.800000 3.047009 4.258442 27.418587
2.880000 6.920000 2.840000 1.563995 28.940897 840.021606
2.880000 6.920000 2.880000 -27.899355 46.225994 2915.216553
2.880000 6.920000 2.920000 -68.100792 30.312441 5556.562012
2.880000 6.920000 2.960000 -83.987923 -17.652668 7365.587891
2.880000 6.920000 3.000000 -55.600708 -64.794128 7289.717773
2.880000 6.920000 3.040000 -0.120407 -74.043701 5482.484375
2.880000 6.920000 3.080000 40.969574 -38.592838 3167.913086
2.880000 6.920000 3.120000 38.815453 11.069384 1629.170654
2.880000 6.920000 3.160000 2.514767 35.210155 1246.079102
2.880000 6.920000 3.200000 -31.648045 20.566206 1424.567627
2.880000 6.960000 2.800000 4.581614 10.065884 122.313194
2.880000 6.960000 2.840000 -17.217918 34.027344 1454.316895
2.880000 6.960000 2.880000 -60.469509 28.942375 4494.222656
2.880000 6.960000 2.920000 -89.081192 -17.049788 8226.154297
2.880000 6.960000 2.960000 -69.649971 -76.721680 10737.334961
2.880000 6.960000 3.000000 -6.690292 -102.970367 10647.656250
2.880000 6.960000 3.040000 55.773697 -71.510323 8224.431641
2.880000 6.960000 3.080000 71.454498 -5.420481 5135.126953
2.880000 6.960000 3.120000 33.138714 44.235977 3054.996094
2.880000 6.960000 3.160000 -22.177975 43.918327 2420.682129
2.880000 6.960000 3.200000 -48.895966 5.282130 2418.716309
2.880000 7.000000 2.800000 -3.199860 15.309297 244.613663
2.880000 7.000000 2.840000 -37.505272 21.127998 1853.037720
2.880000 7.000000 2.880000 -71.057617 -10.818775 5166.230957
2.880000 7.000000 2.920000 -66.554657 -67.914871 9041.952148
2.880000 7.000000 2.960000 -12.784967 -106.592056 11525.321289
2.880000 7.000000 3.000000 57.337608 -89.641365 11323.175781
2.880000 7.000000 3.040000 91.160164 -23.381454 8856.868164
2.880000 7.000000 3.080000 62.921539 43.831398 5880.311523
2.880000 7.000000 3.120000 -2.369814 63.194073 3999.106689
2.880000 7.000000 3.160000 -51.881653 27.900799 3470.160400
2.880000 7.000000 3.200000 -52.520500 -24.190639 3343.589844
2.880000 7.040000 2.800000 -15.100424 10.327671 334.683594
2.880000 7.040000 2.840000 -42.536785 -5.387054 1838.398438
2.880000 7.040000 2.880000 -48.663456 -47.144852 4590.768555
2.880000 7.040000 2.920000 -13.790774 -86.082718 7600.419922
2.880000 7.040000 2.960000 46.847286 -84.726410 9373.232422
2.880000 7.040000 3.000000 89.126732 -33.455589 9062.850586
2.880000 7.040000 3.040000 77.310524 34.694103 7180.597656
2.880000 7.040000 3.080000 18.087786 69.427986 5147.413086
2.880000 7.040000 3.120000 -43.116562 47.068130 4074.446777
2.880000 7.040000 3.160000 -61.894073 -9.085822 3913.428467
2.880000 7.040000 3.200000 -32.832321 -51.676086 3748.379395
2.880000 7.080000 2.800000 -19.302866 -4.546552 393.271790
2.880000 7.080000 2.840000 -26.278606 -27.841118 1465.693115
2.880000 7.080000 2.880000 -8.514240 -55.479759 3150.495850
2.880000 7.080000 2.920000 32.060181 -61.547600 4815.961914
2.880000 7.080000 2.960000 68.744202 -30.596809 5661.929688
2.880000 7.080000 3.000000 69.690865 22.554878 5365.539062
2.880000 7.080000 3.040000 27.881220 60.021687 4379.965332
2.880000 7.080000 3.080000 -28.384068 52.404991 3551.938477
2.880000 7.080000 3.120000 -57.750565 5.792230 3368.677490
2.880000 7.080000 3.160000 -41.464920 -42.824440 3553.272217
2.880000 7.080000 3.200000 1.498108 -58.318188 3403.255371
2.880000 7.120000 2.800000 -10.171338 -18.175928 433.820465
2.880000 7.120000 2.840000 -0.449195 -30.938993 957.423096
2.880000 7.120000 2.880000 20.893452 -34.287704 1612.183105
2.880000 7.120000 2.920000 42.653896 -18.168293 2149.441650
2.880000 7.120000 2.960000 46.406998 13.604370 2338.688232
2.880000 7.120000 3.000000 22.786348 40.794716 2183.426514
2.880000 7.120000 3.040000 -16.130075 41.198235 1957.473877
2.880000 7.120000 3.080000 -43.082729 10.959410 1976.230225
2.880000 7.120000 3.120000 -37.798870 -29.287214 2286.495605
2.880000 7.120000 3.160000 -5.068111 -50.554096 2581.402344
2.880000 7.120000 3.200000 29.203806 -40.072685 2458.682373
2.880000 7.160000 2.800000 5.169318 -19.958754 425.073669
2.880000 7.160000 2.840000 15.881845 -16.110315 511.775269
2.880000 7.160000 2.880000 23.100136 -5.245495 561.131470
2.880000 7.160000 2.920000 21.619158 9.748362 562.418518
2.880000 7.160000 2.960000 8.784115 21.389633 534.677124
2.880000 7.160000 3.000000 -10.882698 20.612978 543.328003
2.880000 7.160000 3.040000 -25.540030 4.267304 670.502991
2.880000 7.160000 3.080000 -23.614344 -19.535391 939.268677
2.880000 7.160000 3.120000 -4.017966 -35.223095 1256.810425
2.880000 7.160000 3.160000 21.001945 -31.631115 1441.609131
2.880000 7.160000 3.200000 34.741436 -11.726954 1344.488892
2.880000 7.200000 2.800000 14.069337 -10.987958 318.681458
2.880000 7.200000 2.840000 14.151601 0.388049 200.418396
2.880000 7.200000 2.880000 6.706641 7.943758 108.082321
2.880000 7.200000 2.920000 -3.182299 8.159990 76.712463
2.880000 7.200000 2.960000 -10.319262 1.855496 109.930023
2.880000 7.200000 3.000000 -11.649503 -7.689866 194.844940
2.880000 7.200000 3.040000 -6.403681 -16.480827 312.624817
2.880000 7.200000 3.080000 4.010700 -20.514475 436.929413
2.880000 7.200000 3.120000 15.621387 -16.930384 530.665588
2.880000 7.200000 3.160000 22.713615 -6.210409 554.477539
2.880000 7.200000 3.200000 21.044479 6.672865 487.397247
2.920000 6.800000 2.800000 -12.380714 25.082054 782.391541
2.920000 6.800000 2.840000 -13.820374 10.001743 291.037598
2.920000 6.800000 2.880000 -4.748650 1.168617 23.915339
2.920000 6.800000 2.920000 5.083794 2.888707 34.189587
2.920000 6.800000 2.960000 8.030994 9.573868 156.155823
2.920000 6.800000 3.000000 5.537943 13.233765 205.801331
2.920000 6.800000 3.040000 4.505257 12.735806 182.498077
2.920000 6.800000 3.080000 7.502525 14.168318 257.029114
2.920000 6.800000 3.120000 8.646114 21.905447 554.603882
2.920000 6.800000 3.160000 0.537593 31.025984 962.900696
2.920000 6.800000 3.200000 -15.295538 30.816158 1183.589111
2.920000 6.840000 2.800000 -20.852665 12.158224 582.656067
2.920000 6.840000 2.840000 -9.136223 12.604080 242.333405
2.920000 6.840000 2.880000 -8.529907 26.071329 752.473511
2.920000 6.840000 2.920000 -25.938423 33.954697 1825.723145
2.920000 6.840000 2.960000 -46.916203 20.612976 2626.024902
2.920000 6.840000 3.000000 -49.208389 -8.229027 2489.182373
2.920000 6.840000 3.040000 -26.371887 -28.830971 1526.701294
2.920000 6.840000 3.080000 3.552387 -22.637781 525.088562
2.920000 6.840000 3.120000 14.563309 4.280087 230.409103
2.920000 6.840000 3.160000 -1.665730 26.233534 690.972961
2.920000 6.840000 3.200000 -27.417740 22.968998 1279.307373
2.920000 6.880000 2.800000 -17.002922 -0.361734 289.230225
2.920000 6.880000 2.840000 -12.595800 22.778976 677.535950
2.920000 6.880000 2.880000 -40.612350 41.749531 3392.386230
2.920000 6.880000 2.920000 -82.875931 24.781811 7482.558105
2.920000 6.880000 2.960000 -98.890060 -28.306953 10580.527344
2.920000 6.880000 3.000000 -65.459610 -80.152702 10709.416016
2.920000 6.880000 3.040000 -2.629341 -88.771523 7887.296875
2.920000 6.880000 3.080000 42.237007 -47.789959 4067.844727
2.920000 6.880000 3.120000 37.933823 6.754044 1484.591919
2.920000 6.880000 3.160000 -2.550550 30.454639 933.990356
2.920000 6.880000 3.200000 -36.950012 11.413733 1495.576660
2.920000 6.920000 2.800000 -8.268422 -3.548418 80.958076
2.920000 6.920000 2.840000 -29.973320 27.323921 1644.996582
2.920000 6.920000 2.880000 -82.847023 22.364479 7363.799316
2.920000 6.920000 2.920000 -118.727783 -36.512894 15429.477539
2.920000 6.920000 2.960000 -92.482246 -114.092407 21570.042969
2.920000 6.920000 3.000000 -9.672417 -148.571075 22166.919922
2.920000 6.920000 3.040000 72.424202 -108.756622 17073.267578
2.920000 6.920000 3.080000 94.843307 -25.126495 9626.593750
2.920000 6.920000 3.120000 49.981380 37.367851 3894.494629
2.920000 6.920000 3.160000 -14.399321 38.394760 1681.498047
2.920000 6.920000 3.200000 -42.730064 -4.794096 1848.841797
2.920000 6.960000 2.800000 -4.989021 -0.134905 24.908533
2.920000 6.960000 2.840000 -50.460205 12.716011 2707.929199
2.920000 6.960000 2.880000 -99.189072 -30.784637 10786.166016
2.920000 6.960000 2.920000 -93.575050 -113.973686 21746.291016
2.920000 6.960000 2.960000 -15.008394 -172.534683 29993.468750
2.920000 6.960000 3.000000 89.515091 -151.125366 30851.828125
2.920000 6.960000 3.040000 144.220276 -57.780636 24138.089844
2.920000 6.960000 3.080000 112.161926 39.589447 14147.622070
2.920000 6.960000 3.120000 27.747108 73.365753 6152.435547
2.920000 6.960000 3.160000 -37.443020 34.804794 2613.353516
2.920000 6.960000 3.200000 -40.640945 -25.043741 2278.875488
2.920000 7.000000 2.800000 -8.361088 -0.039837 69.909378
2.920000 7.000000 2.840000 -54.042885 -18.203747 3252.009766
2.920000 7.000000 2.880000 -68.481888 -84.070862 11757.678711
2.920000 7.000000 2.920000 -14.704389 -150.571136 22887.886719
2.920000 7.000000 2.960000 85.430794 -154.149719 31060.556641
2.920000 7.000000 3.000000 161.320724 -75.823853 31773.632812
2.920000 7.000000 3.040000 154.246002 34.740192 24998.710938
2.920000 7.000000 3.080000 71.337715 99.717300 15032.609375
2.920000 7.000000 3.120000 -20.691673 81.162514 7015.499023
2.920000 7.000000 3.160000 -56.300907 11.086855 3292.710693
2.920000 7.000000 3.200000 -26.866417 -43.827091 2642.618408
2.920000 7.040000 2.800000 -9.574162 -7.672237 150.527817
2.920000 7.040000 2.840000 -31.369099 -44.710831 2983.078613
2.920000 7.040000 2.880000 -7.124641 -98.685455 9789.580078
2.920000 7.040000 2.920000 65.452911 -118.499527 18326.220703
2.920000 7.040000 2.960000 139.466827 -70.069771 24360.769531
2.920000 7.040000 3.000000 154.989578 25.431675 24668.539062
2.920000 7.040000 3.040000 93.802505 103.197914 19448.718750
2.920000 7.040000 3.080000 -0.901075 109.660271 12026.186523
2.920000 7.040000 3.120000 -61.286331 49.043205 6161.250488
2.920000 7.040000 3.160000 -53.695190 -23.171413 3420.087891
2.920000 7.040000 3.200000 -3.306380 -52.512440 2768.488525
2.920000 7.080000 2.800000 -1.052573 -15.974135 256.280914
2.920000 7.080000 2.840000 4.428588 -46.063858 2141.491211
2.920000 7.080000 2.880000 42.820793 -65.504585 6124.470703
2.920000 7.080000 2.920000 94.159729 -44.373165 10835.032227
2.920000 7.080000 2.960000 116.859314 17.702057 13969.462891
2.920000 7.080000 3.000000 83.853836 83.069832 13932.062500
2.920000 7.080000 3.040000 10.938065 104.460678 11031.674805
2.920000 7.080000 3.080000 -52.635551 66.264053 7161.425781
2.920000 7.080000 3.120000 -65.296783 -0.812078 4264.329590
2.920000 7.080000 3.160000 -27.829205 -46.864738 2970.768311
2.920000 7.080000 3.200000 21.066387 -45.898296 2550.446289
2.920000 7.120000 2.800000 13.392699 -14.398743 386.688171
2.920000 7.120000 2.840000 27.844463 -21.694372 1245.959961
2.920000 7.120000 2.880000 50.269989 -13.390524 2706.377930
2.920000 7.120000 2.920000 63.354073 15.667698 4259.215332
2.920000 7.120000 2.960000 49.548397 52.167957 5176.539551
2.920000 7.120000 3.000000 8.988132 70.427933 5040.880371
2.920000 7.120000 3.040000 -35.410305 53.216759 4085.913086
2.920000 7.120000 3.080000 -54.040234 8.824158 2998.212646
2.920000 7.120000 3.120000 -35.197823 -33.285267 2346.795654
2.920000 7.120000 3.160000 4.715516 -46.228905 2159.347656
2.920000 7.120000 3.200000 35.660408 -27.434515 2024.317261
2.920000 7.160000 2.800000 21.711296 -1.751789 474.449127
2.920000 7.160000 2.840000 24.384745 7.325477 648.278381
2.920000 7.160000 2.880000 21.353647 17.682724 768.656982
2.920000 7.160000 2.920000 11.995338 26.163052 828.393372
2.920000 7.160000 2.960000 -2.902687 28.488518 820.021240
2.920000 7.160000 3.000000 -18.772316 20.272951 763.392395
2.920000 7.160000 3.040000 -27.039824 1.439621 733.224548
2.920000 7.160000 3.080000 -20.281532 -20.267612 822.116699
2.920000 7.160000 3.120000 0.458155 -32.351360 1046.820435
2.920000 7.160000 3.160000 23.925709 -26.777380 1289.467529
2.920000 7.160000 3.200000 36.145535 -7.331837 1360.255493
2.920000 7.200000 2.800000 17.021008 11.165864 414.391205
2.920000 7.200000 2.840000 3.848030 18.090025 342.056335
2.920000 7.200000 2.880000 -9.730038 12.324215 246.559906
2.920000 7.200000 2.920000 -14.008589 -0.724555 196.765533
2.920000 7.200000 2.960000 -8.453632 -11.145767 195.692017
2.920000 7.200000 3.000000 0.055120 -14.311924 204.834198
2.920000 7.200000 3.040000 5.914930 -13.306835 212.058258
2.920000 7.200000 3.080000 9.990316 -12.672528 260.399384
2.920000 7.200000 3.120000 16.039988 -11.884233 398.516174
2.920000 7.200000 3.160000 23.723986 -6.418720 604.027466
2.920000 7.200000 3.200000 27.223057 5.264866 768.813660
2.960000 6.800000 2.800000 -36.248840 16.821720 1596.948730
2.960000 6.800000 2.840000 -26.081383 0.218082 680.286072
2.960000 6.800000 2.880000 -11.185925 -2.081285 129.456665
2.960000 6.800000 2.920000 -4.142876 5.225395 44.468174
2.960000 6.800000 2.960000 -6.397345 10.214264 145.257202
2.960000 6.800000 3.000000 -8.517853 7.554558 129.625153
2.960000 6.800000 3.040000 -2.729637 4.241222 25.438885
2.960000 6.800000 3.080000 6.523579 10.524311 153.318207
2.960000 6.800000 3.120000 6.534967 26.109543 724.414062
2.960000 6.800000 3.160000 -8.801708 37.751667 1502.658447
2.960000 6.800000 3.200000 -29.744646 32.264023 1925.711182
2.960000 6.840000 2.800000 -36.403088 -4.077637 1341.811890
2.960000 6.840000 2.840000 -24.100880 4.908379 604.944580
2.960000 6.840000 2.880000 -34.218975 18.697479 1520.533936
2.960000 6.840000 2.920000 -58.702011 11.556908 3579.488037
2.960000 6.840000 2.960000 -68.906883 -21.305588 5202.086914
2.960000 6.840000 3.000000 -45.423149 -55.038589 5092.508789
2.960000 6.840000 3.040000 -0.903679 -58.162720 3383.718506
2.960000 6.840000 3.080000 29.355995 -24.831043 1478.355225
2.960000 6.840000 3.120000 21.062057 17.309425 743.226440
2.960000 6.840000 3.160000 -15.178659 32.896965 1312.602051
2.960000 6.840000 3.200000 -44.357285 12.584209 2125.931152
2.960000 6.880000 2.800000 -23.841663 -17.387150 870.737915
2.960000 6.880000 2.840000 -35.060596 9.445356 1318.460205
2.960000 6.880000 2.880000 -77.652550 7.759693 6090.131348
2.960000 6.880000 2.920000 -108.126389 -42.539616 13500.934570
2.960000 6.880000 2.960000 -83.389656 -110.876457 19247.423828
2.960000 6.880000 3.000000 -7.283783 -140.068756 19672.308594
2.960000 6.880000 3.040000 67.123650 -100.901283 14686.654297
2.960000 6.880000 3.080000 84.920334 -22.389343 7712.745605
2.960000 6.880000 3.120000 40.140686 34.031830 2769.439941
2.960000 6.880000 3.160000 -20.628424 31.254501 1402.375732
2.960000 6.880000 3.200000 -44.520176 -12.174234 2130.258057
2.960000 6.920000 2.800000 -10.069872 -18.671417 450.024139
2.960000 6.920000 2.840000 -52.815414 -2.148945 2794.085938
2.960000 6.920000 2.880000 -102.668709 -45.452698 12606.810547
2.960000 6.920000 2.920000 -95.864426 -132.540680 26757.019531
2.960000 6.920000 2.960000 -10.957092 -193.878922 37709.093750
2.960000 6.920000 3.000000 101.404480 -169.381241 38972.871094
2.960000 6.920000 3.040000 159.461945 -68.276703 30089.820312
2.960000 6.920000 3.080000 124.503799 35.641312 16771.500000
2.960000 6.920000 3.120000 35.207561 70.512680 6211.610352
2.960000 6.920000 3.160000 -31.343115 29.368063 1844.874023
2.960000 6.920000 3.200000 -31.613491 -31.219902 1974.095215
2.960000 6.960000 2.800000 -2.903762 -14.795073 227.326004
2.960000 6.960000 2.840000 -56.971275 -32.189392 4281.883301
2.960000 6.960000 2.880000 -75.231575 -110.361496 17839.449219
2.960000 6.960000 2.920000 -9.682831 -191.260529 36674.347656
2.960000 6.960000 2.960000 113.462296 -195.603821 51134.546875
2.960000 6.960000 3.000000 207.350037 -99.847488 52963.558594
2.960000 6.960000 3.040000 200.664139 35.034779 41493.535156
2.960000 6.960000 3.080000 103.121452 115.035347 23867.164062
2.960000 6.960000 3.120000 -4.583197 96.205406 9276.486328
2.960000 6.960000 3.160000 -45.866669 18.547403 2447.757324
2.960000 6.960000 3.200000 -13.672169 -39.420055 1740.869019
2.960000 7.000000 2.800000 0.591648 -13.682077 187.549301
2.960000 7.000000 2.840000 -33.062378 -61.425095 4866.163086
2.960000 7.000000 2.880000 -2.176605 -137.135254 18810.816406
2.960000 7.000000 2.920000 98.739151 -166.961945 37625.710938
2.960000 7.000000 2.960000 203.959839 -101.334465 51868.289062
2.960000 7.000000 3.000000 229.518494 30.928774 53635.328125
2.960000 7.000000 3.040000 150.126251 140.836456 42372.796875
2.960000 7.000000 3.080000 24.390488 156.128464 24970.994141
2.960000 7.000000 3.120000 -57.686111 83.275375 10262.475586
2.960000 7.000000 3.160000 -53.613487 -4.653316 2896.059326
2.960000 7.000000 3.200000 2.201769 -39.168739 1539.037964
2.960000 7.040000 2.800000 7.731364 -14.273839 263.516479
2.960000 7.040000 2.840000 9.297731 -64.354233 4227.915039
2.960000 7.040000 2.880000 68.998665 -101.504601 15064.000000
2.960000 7.040000 2.920000 154.943756 -72.405502 29250.125000
2.960000 7.040000 2.960000 197.727051 26.015400 39772.789062
2.960000 7.040000 3.000000 151.890594 133.794937 40971.835938
2.960000 7.040000 3.040000 41.060421 175.858719 32612.248047
2.960000 7.040000 3.080000 -59.375557 127.426239 19762.902344
2.960000 7.040000 3.120000 -87.243622 34.120186 8775.636719
2.960000 7.040000 3.160000 -44.220840 -31.837021 2969.078613
2.960000 7.040000 3.200000 14.586229 -35.290073 1458.147339
2.960000 7.080000 2.800000 18.742882 -8.664862 426.375458
2.960000 7.080000 2.840000 41.206924 -34.359604 2878.593018
2.960000 7.080000 2.880000 90.049866 -28.912712 8944.923828
2.960000 7.080000 2.920000 126.388672 24.519711 16575.312500
2.960000 7.080000 2.960000 109.599594 100.295197 22071.197266
2.960000 7.080000 3.000000 36.700226 145.829285 22613.085938
2.960000 7.080000 3.040000 -49.320477 125.683411 18228.828125
2.960000 7.080000 3.080000 -93.370560 53.491371 11579.388672
2.960000 7.080000 3.120000 -74.021965 -19.388727 5855.174316
2.960000 7.080000 3.160000 -18.513245 -48.088432 2655.237549
2.960000 7.080000 3.200000 25.607672 -29.344442 1516.849121
2.960000 7.120000 2.800000 24.597752 6.262621 644.269775
2.960000 7.120000 2.840000 40.048134 7.311129 1657.305664
2.960000 7.120000 2.880000 54.306999 27.221453 3690.257812
2.960000 7.120000 2.920000 48.605762 60.733070 6051.026367
2.960000 7.120000 2.960000 14.636799 86.307205 7663.169434
2.960000 7.120000 3.000000 -33.997429 81.394623 7780.909668
2.960000 7.120000 3.040000 -68.620773 42.290134 6497.266113
2.960000 7.120000 3.080000 -67.237350 -9.904076 4618.952148
2.960000 7.120000 3.120000 -32.501930 -44.428413 3030.259277
2.960000 7.120000 3.160000 10.616703 -44.649742 2106.313965
2.960000 7.120000 3.200000 35.591827 -19.343269 1640.940308
2.960000 7.160000 2.800000 17.461559 22.189739 797.290588
2.960000 7.160000 2.840000 11.059507 29.773581 1008.778809
2.960000 7.160000 2.880000 0.374735 32.921108 1083.939697
2.960000 7.160000 2.920000 -11.299149 30.574802 1062.489258
2.960000 7.160000 2.960000 -21.966484 22.948803 1009.174011
2.960000 7.160000 3.000000 -29.489658 9.569813 961.221252
2.960000 7.160000 3.040000 -29.513714 -8.824333 948.928162
2.960000 7.160000 3.080000 -17.613701 -26.747719 1025.682983
2.960000 7.160000 3.120000 4.988720 -34.731133 1231.138916
2.960000 7.160000 3.160000 28.751186 -26.169327 1511.464355
2.960000 7.160000 3.200000 41.045300 -4.259271 1702.857910
2.960000 7.200000 2.800000 1.612530 26.800446 720.864136
2.960000 7.200000 2.840000 -17.545963 20.950508 746.784668
2.960000 7.200000 2.880000 -25.712925 0.982493 662.119751
2.960000 7.200000 2.920000 -16.066101 -17.865623 577.300110
2.960000 7.200000 2.960000 2.014816 -22.440037 507.614716
2.960000 7.200000 3.000000 13.605598 -14.389122 392.159119
2.960000 7.200000 3.040000 13.983424 -6.410683 236.632996
2.960000 7.200000 3.080000 12.054207 -6.930210 193.331726
2.960000 7.200000 3.120000 18.279930 -10.653263 447.647858
2.960000 7.200000 3.160000 31.202477 -5.464685 1003.457336
2.960000 7.200000 3.200000 37.981476 12.504666 1598.959229
3.000000 6.800000 2.800000 -48.380615 -5.580830 2371.829590
3.000000 6.800000 2.840000 -29.595427 -16.478590 1147.433228
3.000000 6.800000 2.880000 -14.226192 -11.826176 342.242981
3.000000 6.800000 2.920000 -10.692435 -3.025482 123.481712
3.000000 6.800000 2.960000 -13.180603 -1.256775 175.307785
3.000000 6.800000 3.000000 -10.188629 -5.183193 130.673660
3.000000 6.800000 3.040000 0.628731 -3.311057 11.358402
3.000000 6.800000 3.080000 8.176552 11.283497 194.173309
3.000000 6.800000 3.120000 -0.150568 30.390942 923.631958
3.000000 6.800000 3.160000 -22.997637 37.033772 1900.391602
3.000000 6.800000 3.200000 -43.613579 23.046803 2433.299316
3.000000 6.840000 2.800000 -37.621887 -27.321602 2161.876221
3.000000 6.840000 2.840000 -31.330921 -14.360834 1187.860229
3.000000 6.840000 2.880000 -46.933109 -10.317368 2309.164795
3.000000 6.840000 2.920000 -61.773193 -32.835567 4894.102051
3.000000 6.840000 2.960000 -47.753502 -68.389679 6957.544922
3.000000 6.840000 3.000000 -3.244957 -82.772430 6861.805176
3.000000 6.840000 3.040000 40.588036 -55.630539 4742.145508
3.000000 6.840000 3.080000 47.941574 -3.674591 2311.897217
3.000000 6.840000 3.120000 13.458408 32.717323 1251.552002
3.000000 6.840000 3.160000 -31.763363 27.198997 1748.696655
3.000000 6.840000 3.200000 -49.857021 -8.340738 2555.290527
3.000000 6.880000 2.800000 -17.643890 -36.255516 1625.769287
3.000000 6.880000 2.840000 -41.684731 -21.034933 2180.085205
3.000000 6.880000 2.880000 -75.831093 -49.298382 8180.685059
3.000000 6.880000 2.920000 -69.552002 -112.344582 17458.785156
3.000000 6.880000 2.960000 -3.573334 -156.827393 24607.601562
3.000000 6.880000 3.000000 83.526756 -134.521164 25072.662109
3.000000 6.880000 3.040000 126.634369 -52.101868 18750.869141
3.000000 6.880000 3.080000 94.563278 30.908600 9897.555664
3.000000 6.880000 3.120000 19.363161 55.976448 3508.294922
3.000000 6.880000 3.160000 -34.958183 18.038048 1547.445801
3.000000 6.880000 3.200000 -32.372879 -34.829117 2261.070801
3.000000 6.920000 2.800000 -0.115347 -32.720242 1070.627563
3.000000 6.920000 2.840000 -45.173714 -44.053707 3981.393555
3.000000 6.920000 2.880000 -60.618622 -111.900536 16196.346680
3.000000 6.920000 2.920000 0.099377 -183.598663 33708.480469
3.000000 6.920000 2.960000 113.711594 -184.953644 47138.179688
3.000000 6.920000 3.000000 199.226532 -93.815384 48492.539062
3.000000 6.920000 3.040000 190.302429 32.223709 37253.382812
3.000000 6.920000 3.080000 97.398445 104.985001 20508.308594
3.000000 6.920000 3.120000 -2.520767 84.657364 7173.223633
3.000000 6.920000 3.160000 -38.025745 11.089083 1568.925049
3.000000 6.920000 3.200000 -4.946860 -40.855438 1693.638306
3.000000 6.960000 2.800000 10.423955 -24.433165 705.638367
3.000000 6.960000 2.840000 -24.869492 -70.785187 5629.034180
3.000000 6.960000 2.880000 7.421476 -149.072708 22277.750000
3.000000 6.960000 2.920000 114.701935 -179.365601 45328.554688
3.000000 6.960000 2.960000 226.401199 -107.916382 62903.449219
3.000000 6.960000 3.000000 252.545929 33.848381 64925.156250
3.000000 6.960000 3.040000 167.370483 150.321045 50609.296875
3.000000 6.960000 3.080000 34.960285 165.750397 28695.414062
3.000000 6.960000 3.120000 -49.293694 89.698891 10475.759766
3.000000 6.960000 3.160000 -43.302265 1.095460 1876.286255
3.000000 6.960000 3.200000 13.200803 -29.606041 1050.778809
3.000000 7.000000 2.800000 17.392529 -16.135351 562.849609
3.000000 7.000000 2.840000 16.595943 -76.141388 6072.936035
3.000000 7.000000 2.880000 88.913521 -122.500725 22912.042969
3.000000 7.000000 2.920000 195.073059 -87.195694 45656.589844
3.000000 7.000000 2.960000 248.403519 33.847622 62849.968750
3.000000 7.000000 3.000000 193.271133 166.099670 64942.828125
3.000000 7.000000 3.040000 60.049431 218.187164 51211.570312
3.000000 7.000000 3.080000 -59.318241 162.367706 29881.925781
3.000000 7.000000 3.120000 -92.359695 55.711159 11634.046875
3.000000 7.000000 3.160000 -44.995674 -16.594873 2300.000488
3.000000 7.000000 3.200000 15.929787 -17.571608 562.519470
3.000000 7.040000 2.800000 23.603765 -5.501495 587.404236
3.000000 7.040000 2.840000 53.431610 -47.013641 5065.219727
3.000000 7.040000 2.880000 126.451645 -43.192314 17855.593750
3.000000 7.040000 2.920000 183.320755 33.374802 34720.378906
3.000000 7.040000 2.960000 162.574280 144.545135 47323.695312
3.000000 7.040000 3.000000 60.316360 212.821594 48931.093750
3.000000 7.040000 3.040000 -60.518654 188.314011 39124.675781
3.000000 7.040000 3.080000 -122.910599 92.712074 23702.542969
3.000000 7.040000 3.120000 -100.651787 -1.959301 10134.621094
3.000000 7.040000 3.160000 -34.163643 -37.843895 2599.314941
3.000000 7.040000 3.200000 14.009600 -16.200504 458.725220
3.000000 7.080000 2.800000 25.078667 10.260258 734.212402
3.000000 7.080000 2.840000 57.841156 1.219425 3347.086426
3.000000 7.080000 2.880000 95.297638 34.242886 10254.214844
3.000000 7.080000 2.920000 94.458069 100.708000 19064.429688
3.000000 7.080000 2.960000 36.211060 155.672791 25545.257812
3.000000 7.080000 3.000000 -52.145290 154.053589 26451.638672
3.000000 7.080000 3.040000 -115.995026 90.624855 21667.710938
3.000000 7.080000 3.080000 -118.163216 5.804729 13996.241211
3.000000 7.080000 3.120000 -68.021843 -48.493835 6978.623047
3.000000 7.080000 3.160000 -8.998262 -50.601208 2641.450928
3.000000 7.080000 3.200000 21.082424 -20.388624 860.164551
3.000000 7.120000 2.800000 15.710823 26.391787 943.356384
3.000000 7.120000 2.840000 26.612083 35.277107 1952.677246
3.000000 7.120000 2.880000 25.645723 58.723942 4106.204102
3.000000 7.120000 2.920000 1.302429 81.409660 6629.229004
3.000000 7.120000 2.960000 -40.527634 82.325302 8419.944336
3.000000 7.120000 3.000000 -77.664726 51.925705 8728.087891
3.000000 7.120000 3.040000 -87.049202 1.792282 7580.775879
3.000000 7.120000 3.080000 -62.207508 -42.328190 5661.449707
3.000000 7.120000 3.120000 -18.058722 -58.864265 3791.119141
3.000000 7.120000 3.160000 20.728004 -44.926918 2448.078125
3.000000 7.120000 3.200000 37.486774 -15.571072 1647.716553
3.000000 7.160000 2.800000 -2.748817 32.572781 1068.542114
3.000000 7.160000 2.840000 -14.181195 33.530548 1325.403931
3.000000 7.160000 2.880000 -25.787079 26.476301 1365.968018
3.000000 7.160000 2.920000 -32.091461 14.077148 1228.028076
3.000000 7.160000 2.960000 -32.539295 0.911026 1059.635742
3.000000 7.160000 3.000000 -29.130985 -11.661102 984.595642
3.000000 7.160000 3.040000 -21.277496 -24.531929 1054.547363
3.000000 7.160000 3.080000 -5.643940 -35.378334 1283.480469
3.000000 7.160000 3.120000 17.678299 -36.769829 1664.542480
3.000000 7.160000 3.160000 40.268600 -22.268805 2117.459961
3.000000 7.160000 3.200000 49.281918 5.042877 2454.138184
3.000000 7.200000 2.800000 -18.578377 24.215019 931.523193
3.000000 7.200000 2.840000 -32.758049 5.721354 1105.823608
3.000000 7.200000 2.880000 -27.106607 -20.280987 1146.086670
3.000000 7.200000 2.920000 -3.363338 -33.515671 1134.612183
3.000000 7.200000 2.960000 19.920288 -25.287674 1036.284302
3.000000 7.200000 3.000000 26.602379 -7.171124 759.111572
3.000000 7.200000 3.040000 19.407078 2.247513 381.685974
3.000000 7.200000 3.080000 15.405293 -2.028385 241.437393
3.000000 7.200000 3.120000 25.584026 -6.373570 695.164795
3.000000 7.200000 3.160000 41.298630 5.250452 1733.144043
3.000000 7.200000 3.200000 42.885925 31.814884 2851.389404
3.040000 6.800000 2.800000 -43.393242 -29.219421 2736.748047
3.040000 6.800000 2.840000 -21.773193 -32.348145 1520.474365
3.040000 6.800000 2.880000 -8.392790 -23.316746 614.109558
3.040000 6.800000 2.920000 -5.944714 -14.341965 241.031570
3.040000 6.800000 2.960000 -5.959824 -12.024986 180.119797
3.040000 6.800000 3.000000 -0.402855 -11.036209 121.960205
3.040000 6.800000 3.040000 7.641899 -1.877113 61.922176
3.040000 6.800000 3.080000 6.545198 15.866661 294.590546
3.040000 6.800000 3.120000 -10.216959 30.050785 1007.435913
3.040000 6.800000 3.160000 -34.391945 27.251354 1925.442139
3.040000 6.800000 3.200000 -48.844090 7.297268 2438.995117
3.040000 6.840000 2.800000 -24.622860 -46.166439 2737.625244
3.040000 6.840000 2.840000 -22.864496 -36.554790 1859.037842
3.040000 6.840000 2.880000 -32.068954 -42.296856 2817.441895
3.040000 6.840000 2.920000 -27.809174 -65.405006 5051.165039
3.040000 6.840000 2.960000 3.450935 -82.417587 6804.567871
3.040000 6.840000 3.000000 45.635475 -67.525253 6642.256348
3.040000 6.840000 3.040000 65.087753 -21.435989 4695.916992
3.040000 6.840000 3.080000 43.016666 24.910774 2470.980225
3.040000 6.840000 3.120000 -4.475573 37.557835 1430.621704
3.040000 6.840000 3.160000 -40.128525 11.160582 1734.857056
3.040000 6.840000 3.200000 -39.877163 -26.875710 2312.491943
3.040000 6.880000 2.800000 -0.796441 -48.358490 2339.177734
3.040000 6.880000 2.840000 -22.229136 -50.543766 3048.806885
3.040000 6.880000 2.880000 -29.168552 -88.574570 8696.258789
3.040000 6.880000 2.920000 11.188499 -130.604065 17182.603516
3.040000 6.880000 2.960000 85.756821 -127.225494 23540.558594
3.040000 6.880000 3.000000 140.711548 -62.330124 23684.785156
3.040000 6.880000 3.040000 130.319748 25.282207 17622.425781
3.040000 6.880000 3.080000 61.562668 74.159996 9289.666992
3.040000 6.880000 3.120000 -11.007156 55.881458 3243.894775
3.040000 6.880000 3.160000 -35.629993 -0.986034 1270.468750
3.040000 6.880000 3.200000 -8.730662 -41.461250 1795.259766
3.040000 6.920000 2.800000 18.088701 -38.337685 1796.979248
3.040000 6.920000 2.840000 -6.075329 -69.202721 4825.926270
3.040000 6.920000 2.880000 20.419897 -126.234924 16352.228516
3.040000 6.920000 2.920000 105.346558 -146.166992 32462.687500
3.040000 6.920000 2.960000 192.829224 -85.401016 44476.441406
3.040000 6.920000 3.000000 210.359253 30.670349 45191.687500
3.040000 6.920000 3.040000 137.667892 124.082108 34348.820312
3.040000 6.920000 3.080000 28.246899 133.433136 18602.289062
3.040000 6.920000 3.120000 -39.118828 68.106613 6168.793457
3.040000 6.920000 3.160000 -30.775364 -5.285247 975.056885
3.040000 6.920000 3.200000 18.371761 -28.298077 1138.302734
3.040000 6.960000 2.800000 28.557573 -22.828318 1336.666992
3.040000 6.960000 2.840000 28.182831 -73.757645 6234.461914
3.040000 6.960000 2.880000 94.604591 -113.467987 21825.011719
3.040000 6.960000 2.920000 192.005463 -77.930405 42939.246094
3.040000 6.960000 2.960000 239.343231 36.630272 58626.960938
3.040000 6.960000 3.000000 185.210709 159.814148 59843.570312
3.040000 6.960000 3.040000 59.708191 206.354813 46147.375000
3.040000 6.960000 3.080000 -50.052109 152.360718 25719.001953
3.040000 6.960000 3.120000 -77.643692 53.775112 8920.305664
3.040000 6.960000 3.160000 -31.951408 -9.394472 1109.148682
3.040000 6.960000 3.200000 22.093071 -5.480038 518.134583
3.040000 7.000000 2.800000 31.822664 -5.894023 1047.421509
3.040000 7.000000 2.840000 62.678146 -49.243553 6353.477539
3.040000 7.000000 2.880000 141.240997 -44.354755 21916.363281
3.040000 7.000000 2.920000 202.421036 39.568615 42539.953125
3.040000 7.000000 2.960000 179.029373 160.402100 57780.351562
3.040000 7.000000 3.000000 68.148590 233.501389 59167.128906
3.040000 7.000000 3.040000 -60.476654 206.467438 46286.230469
3.040000 7.000000 3.080000 -124.579651 105.750069 26703.167969
3.040000 7.000000 3.120000 -99.831818 9.932831 10065.052734
3.040000 7.000000 3.160000 -33.235245 -22.141720 1594.837280
3.040000 7.000000 3.200000 9.055964 2.636171 88.959877
3.040000 7.040000 2.800000 28.148600 11.324130 920.579590
3.040000 7.040000 2.840000 71.274246 -3.058418 5089.372070
3.040000 7.040000 2.880000 123.066582 39.146553 16677.835938
3.040000 7.040000 2.920000 124.590385 127.183472 31698.398438
3.040000 7.040000 2.960000 50.201141 200.483673 42713.859375
3.040000 7.040000 3.000000 -62.693291 199.923965 43900.042969
3.040000 7.040000 3.040000 -142.504303 121.339432 35030.734375
3.040000 7.040000 3.080000 -144.461105 19.326696 21242.533203
3.040000 7.040000 3.120000 -85.558502 -41.684067 9057.818359
3.040000 7.040000 3.160000 -22.293392 -40.740089 2156.750244
3.040000 7.040000 3.200000 3.099897 -8.536428 82.479980
3.040000 7.080000 2.800000 15.954133 25.833298 921.893616
3.040000 7.080000 2.840000 43.966194 36.446400 3261.366211
3.040000 7.080000 2.880000 53.032925 80.716591 9327.659180
3.040000 7.080000 2.920000 16.301426 129.027512 16913.835938
3.040000 7.080000 2.960000 -56.027195 138.797058 22403.669922
3.040000 7.080000 3.000000 -120.991104 92.301125 23158.345703
3.040000 7.080000 3.040000 -137.690643 13.707470 19146.607422
3.040000 7.080000 3.080000 -100.416870 -50.785942 12662.759766
3.040000 7.080000 3.120000 -40.082054 -70.428604 6566.759766
3.040000 7.080000 3.160000 4.791813 -50.429028 2566.048340
3.040000 7.080000 3.200000 18.386953 -19.537628 719.798950
3.040000 7.120000 2.800000 -3.095982 31.310896 989.957275
3.040000 7.120000 2.840000 -0.972145 43.304741 1876.245605
3.040000 7.120000 2.880000 -15.757576 58.575787 3679.424072
3.040000 7.120000 2.920000 -45.881096 59.774033 5678.009766
3.040000 7.120000 2.960000 -75.383469 36.874001 7042.359375
3.040000 7.120000 3.000000 -85.413635 -3.944649 7311.049316
3.040000 7.120000 3.040000 -67.909836 -44.189629 6564.468750
3.040000 7.120000 3.080000 -30.621021 -65.699409 5254.059570
3.040000 7.120000 3.120000 9.197165 -61.594208 3878.434326
3.040000 7.120000 3.160000 35.957375 -38.172569 2750.077637
3.040000 7.120000 3.200000 43.269302 -8.618620 1946.513184
3.040000 7.160000 2.800000 -20.714447 23.892998 999.963684
3.040000 7.160000 2.840000 -31.381359 17.634884 1295.778809
3.040000 7.160000 2.880000 -37.151413 2.819992 1388.179932
3.040000 7.160000 2.920000 -32.762421 -13.499329 1255.608154
3.040000 7.160000 2.960000 -21.482590 -23.983307 1036.700684
3.040000 7.160000 3.000000 -9.795721 -28.389740 901.933533
3.040000 7.160000 3.040000 1.038788 -31.240789 977.066040
3.040000 7.160000 3.080000 15.494926 -33.087723 1334.890137
3.040000 7.160000 3.120000 35.165699 -27.076288 1969.751709
3.040000 7.160000 3.160000 51.788780 -6.570413 2725.248047
3.040000 7.160000 3.200000 52.004387 24.034708 3282.123535
3.040000 7.200000 2.800000 -27.190029 8.821083 817.109192
3.040000 7.200000 2.840000 -29.831703 -14.401752 1097.341064
3.040000 7.200000 2.880000 -10.838504 -35.179207 1355.049683
3.040000 7.200000 2.920000 19.022594 -35.057087 1590.858521
3.040000 7.200000 2.960000 37.691078 -14.225300 1622.976562
3.040000 7.200000 3.000000 34.637199 8.102890 1265.392456
3.040000 7.200000 3.040000 21.604446 14.324496 671.943298
3.040000 7.200000 3.080000 18.765263 7.483055 408.131195
3.040000 7.200000 3.120000 31.247309 7.197685 1028.200928
3.040000 7.200000 3.160000 42.327881 26.525505 2495.251953
3.040000 7.200000 3.200000 31.441063 55.202545 4035.861572
3.080000 6.800000 2.800000 -26.960423 -42.749012 2554.342285
3.080000 6.800000 2.840000 -6.250391 -39.874649 1629.055054
3.080000 6.800000 2.880000 5.329275 -27.950405 809.626343
3.080000 6.800000 2.920000 7.472507 -16.798466 338.026825
3.080000 6.800000 2.960000 6.974472 -10.315731 155.057571
3.080000 6.800000 3.000000 8.404625 -4.278492 88.943214
3.080000 6.800000 3.040000 8.285406 6.315178 108.529434
3.080000 6.800000 3.080000 -0.508533 18.856571 355.828888
3.080000 6.800000 3.120000 -18.908348 23.720844 920.204102
3.080000 6.800000 3.160000 -37.713959 13.947496 1616.875244
3.080000 6.800000 3.200000 -44.815224 -6.340547 2048.606934
3.080000 6.840000 2.800000 -4.637781 -53.506195 2884.421875
3.080000 6.840000 2.840000 -0.346552 -48.427288 2345.322266
3.080000 6.840000 2.880000 2.691700 -53.165222 2833.786133
3.080000 6.840000 2.920000 18.343582 -60.768101 4029.249023
3.080000 6.840000 2.960000 45.302799 -53.390949 4902.937012
3.080000 6.840000 3.000000 64.137787 -22.710861 4629.438965
3.080000 6.840000 3.040000 55.037930 17.107815 3321.850830
3.080000 6.840000 3.080000 18.947180 39.187256 1894.636597
3.080000 6.840000 3.120000 -20.256901 28.253080 1208.578613
3.080000 6.840000 3.160000 -36.181854 -4.769917 1331.878662
3.080000 6.840000 3.200000 -23.118519 -32.849518 1613.556763
3.080000 6.880000 2.800000 20.004007 -49.046066 2805.677002
3.080000 6.880000 2.840000 14.467728 -58.207027 3597.373291
3.080000 6.880000 2.880000 31.227022 -80.673676 7483.368652
3.080000 6.880000 2.920000 76.511154 -84.430969 12982.544922
3.080000 6.880000 2.960000 121.568481 -45.495609 16848.746094
3.080000 6.880000 3.000000 126.501617 22.772552 16521.248047
3.080000 6.880000 3.040000 79.506119 76.305054 12143.684570
3.080000 6.880000 3.080000 11.480385 79.013840 6374.986328
3.080000 6.880000 3.120000 -30.342037 35.791412 2201.664307
3.080000 6.880000 3.160000 -24.321745 -13.154338 764.583923
3.080000 6.880000 3.200000 9.292685 -30.581707 1021.594788
3.080000 6.920000 2.800000 37.440304 -32.077408 2430.736328
3.080000 6.920000 2.840000 40.600769 -58.136551 5028.281250
3.080000 6.920000 2.880000 84.646332 -77.375404 13151.955078
3.080000 6.920000 2.920000 147.167511 -47.810902 23944.158203
3.080000 6.920000 2.960000 174.516296 33.091396 31550.978516
3.080000 6.920000 3.000000 132.417114 117.460716 31331.312500
3.080000 6.920000 3.040000 42.366787 146.962158 23392.820312
3.080000 6.920000 3.080000 -34.578972 105.819565 12393.485352
3.080000 6.920000 3.120000 -51.987648 34.289845 3878.509033
3.080000 6.920000 3.160000 -16.972794 -10.396446 396.161804
3.080000 6.920000 3.200000 23.170366 -5.804623 570.559509
3.080000 6.960000 2.800000 42.984039 -9.567724 1939.169067
3.080000 6.960000 2.840000 67.159782 -37.167786 5891.880859
3.080000 6.960000 2.880000 126.794525 -28.200092 16872.097656
3.080000 6.960000 2.920000 171.361465 41.497345 31086.781250
3.080000 6.960000 2.960000 148.312668 138.233398 41105.117188
3.080000 6.960000 3.000000 56.587311 194.636566 41085.519531
3.080000 6.960000 3.040000 -46.820843 170.039032 31105.462891
3.080000 6.960000 3.080000 -96.074760 87.777283 16935.210938
3.080000 6.960000 3.120000 -73.666306 12.421453 5581.017090
3.080000 6.960000 3.160000 -20.066465 -9.553543 493.933228
3.080000 6.960000 3.200000 10.496701 13.364594 288.793091
3.080000 7.000000 2.800000 36.626469 11.583187 1475.668457
3.080000 7.000000 2.840000 74.870895 1.721446 5608.614258
3.080000 7.000000 2.880000 120.733711 43.258400 16447.917969
3.080000 7.000000 2.920000 119.426453 126.270668 30206.958984
3.080000 7.000000 2.960000 47.738846 193.882935 39869.589844
3.080000 7.000000 3.000000 -57.945400 191.541641 40045.867188
3.080000 7.000000 3.040000 -130.333740 117.651375 30828.730469
3.080000 7.000000 3.080000 -129.798019 25.322449 17488.751953
3.080000 7.000000 3.120000 -75.862030 -26.066586 6434.514160
3.080000 7.000000 3.160000 -22.917109 -21.055458 968.526123
3.080000 7.000000 3.200000 -7.647694 7.503911 114.795898
3.080000 7.040000 2.800000 21.048033 25.976849 1117.816406
3.080000 7.040000 2.840000 52.928757 38.364120 4273.259277
3.080000 7.040000 2.880000 63.995354 89.910217 12179.251953
3.080000 7.040000 2.920000 22.291416 146.541077 21971.195312
3.080000 7.040000 2.960000 -60.057266 158.692017 28790.031250
3.080000 7.040000 3.000000 -132.725021 107.052315 29076.128906
3.080000 7.040000 3.040000 -149.967255 21.638105 22958.384766
3.080000 7.040000 3.080000 -109.120796 -44.476929 13885.545898
3.080000 7.040000 3.120000 -48.573799 -60.392879 6006.713867
3.080000 7.040000 3.160000 -10.155483 -38.208305 1563.008423
3.080000 7.040000 3.200000 -4.656017 -12.940925 189.146027
3.080000 7.080000 2.800000 1.118299 29.753992 886.550659
3.080000 7.080000 2.840000 11.863712 49.758259 2616.631836
3.080000 7.080000 2.880000 -5.422100 81.191620 6621.478516
3.080000 7.080000 2.920000 -52.545662 92.635300 11342.345703
3.080000 7.080000 2.960000 -102.534546 63.575180 14555.136719
3.080000 7.080000 3.000000 -121.631348 4.266197 14812.384766
3.080000 7.080000 3.040000 -97.616913 -52.241272 12258.211914
3.080000 7.080000 3.080000 -48.138988 -77.438759 8314.123047
3.080000 7.080000 3.120000 -3.204124 -67.868294 4616.372070
3.080000 7.080000 3.160000 19.181358 -41.708546 2107.527344
3.080000 7.080000 3.200000 21.804871 -18.855103 830.967285
3.080000 7.120000 2.800000 -16.057203 22.205761 750.929565
3.080000 7.120000 2.840000 -22.377350 30.241304 1415.282227
3.080000 7.120000 2.880000 -40.744244 30.175190 2570.635498
3.080000 7.120000 2.920000 -59.449036 12.994823 3703.053223
3.080000 7.120000 2.960000 -63.996391 -16.866974 4380.032715
3.080000 7.120000 3.000000 -48.903339 -45.587097 4469.719727
3.080000 7.120000 3.040000 -20.367184 -60.850445 4117.598633
3.080000 7.120000 3.080000 10.299816 -58.891579 3574.304199
3.080000 7.120000 3.120000 34.167183 -43.188316 3032.626953
3.080000 7.120000 3.160000 46.689735 -19.600292 2564.102783
3.080000 7.120000 3.200000 45.925774 5.757238 2142.322510
3.080000 7.160000 2.800000 -23.825722 8.077253 632.907043
3.080000 7.160000 2.840000 -29.866238 -2.466215 898.074341
3.080000 7.160000 2.880000 -26.596556 -19.042980 1070.011841
3.080000 7.160000 2.920000 -11.825401 -30.933281 1096.708008
3.080000 7.160000 2.960000 6.078972 -31.184357 1009.418030
3.080000 7.160000 3.000000 17.901688 -23.736427 883.888428
3.080000 7.160000 3.040000 23.802261 -17.224564 863.233276
3.080000 7.160000 3.080000 31.305302 -13.167063 1153.393433
3.080000 7.160000 3.120000 43.217064 -3.529899 1880.174805
3.080000 7.160000 3.160000 50.469025 18.263233 2880.668213
3.080000 7.160000 3.200000 40.131771 45.411049 3672.722412
3.080000 7.200000 2.800000 -21.136354 -3.754072 460.838531
3.080000 7.200000 2.840000 -13.770134 -22.778988 708.498840
3.080000 7.200000 2.880000 10.715200 -31.754025 1123.133545
3.080000 7.200000 2.920000 36.372116 -18.543041 1666.775146
3.080000 7.200000 2.960000 43.852158 8.426779 1994.022339
3.080000 7.200000 3.000000 31.121357 27.962578 1750.444580
3.080000 7.200000 3.040000 15.629745 28.717548 1068.986572
3.080000 7.200000 3.080000 14.558035 21.331678 666.976868
3.080000 7.200000 3.120000 24.880228 25.724209 1280.760742
3.080000 7.200000 3.160000 26.119579 47.110069 2901.591064
3.080000 7.200000 3.200000 3.735907 67.665405 4592.563965
3.120000 6.800000 2.800000 -9.822680 -43.431511 1982.781128
3.120000 6.800000 2.840000 8.895878 -36.378555 1402.535889
3.120000 6.800000 2.880000 18.173676 -21.242264 781.516235
3.120000 6.800000 2.920000 17.142540 -6.879204 341.190125
3.120000 6.800000 2.960000 11.265785 1.882866 130.463104
3.120000 6.800000 3.000000 5.629337 6.771946 77.548691
3.120000 6.800000 3.040000 -0.018177 11.514248 132.578247
3.120000 6.800000 3.080000 -9.277822 15.751129 334.176056
3.120000 6.800000 3.120000 -22.763065 14.452993 727.046204
3.120000 6.800000 3.160000 -34.914204 3.660005 1232.397217
3.120000 6.800000 3.200000 -37.977676 -13.836519 1633.753174
3.120000 6.840000 2.800000 13.480538 -49.179123 2600.311035
3.120000 6.840000 2.840000 23.914400 -42.347023 2365.168945
3.120000 6.840000 2.880000 32.420708 -35.616970 2319.670898
3.120000 6.840000 2.920000 42.009552 -25.886379 2434.907227
3.120000 6.840000 2.960000 48.720833 -8.409817 2444.444580
3.120000 6.840000 3.000000 43.765209 14.545292 2126.958984
3.120000 6.840000 3.040000 23.240370 31.726891 1546.710449
3.120000 6.840000 3.080000 -4.877579 31.405697 1010.108582
3.120000 6.840000 3.120000 -24.962811 12.605854 782.049438
3.120000 6.840000 3.160000 -26.295465 -12.557550 849.143555
3.120000 6.840000 3.200000 -11.883479 -28.615967 960.090576
3.120000 6.880000 2.800000 37.115284 -38.767799 2880.486572
3.120000 6.880000 2.840000 45.396393 -38.230904 3522.434570
3.120000 6.880000 2.880000 63.388195 -34.324669 5196.246094
3.120000 6.880000 2.920000 84.181000 -13.349442 7264.648438
3.120000 6.880000 2.960000 88.491547 25.148952 8463.223633
3.120000 6.880000 3.000000 63.390182 62.037048 7866.910645
3.120000 6.880000 3.040000 18.182392 72.951797 5652.564453
3.120000 6.880000 3.080000 -20.253094 50.603191 2970.870605
3.120000 6.880000 3.120000 -29.859623 12.604935 1050.481445
3.120000 6.880000 3.160000 -12.014981 -13.808539 335.035522
3.120000 6.880000 3.200000 11.826535 -15.428502 377.905609
3.120000 6.920000 2.800000 50.156116 -15.652256 2760.629150
3.120000 6.920000 2.840000 64.356003 -18.320076 4477.320312
3.120000 6.920000 2.880000 91.189751 -3.912445 8330.877930
3.120000 6.920000 2.920000 107.147232 38.094917 12931.751953
3.120000 6.920000 2.960000 87.281670 90.210907 15756.097656
3.120000 6.920000 3.000000 32.439396 117.959633 14966.789062
3.120000 6.920000 3.040000 -26.474918 100.715820 10844.597656
3.120000 6.920000 3.080000 -53.794662 51.926888 5590.267578
3.120000 6.920000 3.120000 -40.013474 7.666637 1659.855347
3.120000 6.920000 3.160000 -7.933450 -5.569702 93.961205
3.120000 6.920000 3.200000 11.207809 7.925835 188.433838
3.120000 6.960000 2.800000 47.059792 10.361984 2321.994629
3.120000 6.960000 2.840000 67.679123 13.645628 4766.666992
3.120000 6.960000 2.880000 89.500717 45.377075 10069.457031
3.120000 6.960000 2.920000 81.056274 98.747070 16321.103516
3.120000 6.960000 2.960000 29.958609 139.005920 20220.164062
3.120000 6.960000 3.000000 -39.774765 133.493820 19402.630859
3.120000 6.960000 3.040000 -85.626602 83.073471 14233.117188
3.120000 6.960000 3.080000 -83.610268 22.863468 7513.415039
3.120000 6.960000 3.120000 -47.997429 -9.106918 2386.689209
3.120000 6.960000 3.160000 -14.946274 -4.251355 241.465118
3.120000 6.960000 3.200000 -7.755775 14.387020 267.138397
3.120000 7.000000 2.800000 30.183971 28.669025 1732.985107
3.120000 7.000000 2.840000 48.419361 42.912407 4185.909180
3.120000 7.000000 2.880000 50.317799 82.736572 9377.220703
3.120000 7.000000 2.920000 13.990328 123.269699 15391.148438
3.120000 7.000000 2.960000 -50.156261 128.897079 19130.107422
3.120000 7.000000 3.000000 -104.192879 87.242203 18467.359375
3.120000 7.000000 3.040000 -115.204041 22.708195 13787.632812
3.120000 7.000000 3.080000 -83.825294 -24.609604 7632.312988
3.120000 7.000000 3.120000 -40.970657 -33.669003 2812.196289
3.120000 7.000000 3.160000 -17.510239 -16.887566 591.798340
3.120000 7.000000 3.200000 -18.188272 -2.290646 336.060333
3.120000 7.040000 2.800000 7.905536 33.213364 1165.625000
3.120000 7.040000 2.840000 14.121609 52.744125 2981.362793
3.120000 7.040000 2.880000 -4.709312 81.492661 6663.231445
3.120000 7.040000 2.920000 -50.058327 90.982643 10783.677734
3.120000 7.040000 2.960000 -96.556976 62.963917 13287.705078
3.120000 7.040000 3.000000 -113.209328 8.447388 12887.709961
3.120000 7.040000 3.040000 -90.751266 -40.882996 9907.210938
3.120000 7.040000 3.080000 -48.342796 -60.057152 5943.887695
3.120000 7.040000 3.120000 -14.355243 -49.912289 2697.309570
3.120000 7.040000 3.160000 -1.875038 -30.745989 948.831604
3.120000 7.040000 3.200000 -2.592868 -20.038244 408.254181
3.120000 7.080000 2.800000 -10.078748 25.029818 728.072937
3.120000 7.080000 2.840000 -16.318924 37.886398 1701.686401
3.120000 7.080000 2.880000 -40.022274 43.282627 3475.168457
3.120000 7.080000 2.920000 -67.923462 26.223667 5301.277344
3.120000 7.080000 2.960000 -78.976181 -10.145439 6340.167480
3.120000 7.080000 3.000000 -63.424942 -46.473549 6182.514160
3.120000 7.080000 3.040000 -30.590734 -64.072655 5041.098145
3.120000 7.080000 3.080000 1.013464 -59.329765 3521.048096
3.120000 7.080000 3.120000 19.559309 -42.598930 2197.235352
3.120000 7.080000 3.160000 25.873835 -25.649582 1327.356445
3.120000 7.080000 3.200000 26.410076 -12.308756 848.997620
3.120000 7.120000 2.800000 -17.855370 11.049895 440.914398
3.120000 7.120000 2.840000 -26.704365 9.999777 813.118652
3.120000 7.120000 2.880000 -36.118637 -2.284224 1309.773560
3.120000 7.120000 2.920000 -34.792259 -22.404366 1712.456909
3.120000 7.120000 2.960000 -19.733053 -38.837048 1897.709717
3.120000 7.120000 3.000000 1.578876 -43.229042 1871.242920
3.120000 7.120000 3.040000 19.690071 -36.769669 1739.707520
3.120000 7.120000 3.080000 31.484243 -25.633595 1648.338745
3.120000 7.120000 3.120000 39.128868 -12.756426 1693.794800
3.120000 7.120000 3.160000 42.791641 3.390309 1842.618652
3.120000 7.120000 3.200000 37.888870 22.140594 1925.772461
3.120000 7.160000 2.800000 -16.235369 -0.326581 263.693848
3.120000 7.160000 2.840000 -16.539375 -11.474621 405.217834
3.120000 7.160000 2.880000 -5.505976 -23.520992 583.552856
3.120000 7.160000 2.920000 13.606634 -24.947395 807.513062
3.120000 7.160000 2.960000 28.530182 -13.210886 988.498779
3.120000 7.160000 3.000000 31.448750 2.133952 993.577637
3.120000 7.160000 3.040000 27.310707 10.679815 859.933167
3.120000 7.160000 3.080000 26.733952 13.364348 893.309937
3.120000 7.160000 3.120000 31.662169 20.632412 1428.189331
3.120000 7.160000 3.160000 31.357088 37.943401 2422.968750
3.120000 7.160000 3.200000 14.825788 55.771828 3330.300781
3.120000 7.200000 2.800000 -11.590938 -4.694628 156.389374
3.120000 7.200000 2.840000 -0.490185 -15.665816 245.658081
3.120000 7.200000 2.880000 20.808710 -13.761589 622.383728
3.120000 7.200000 2.920000 35.820133 6.019964 1319.321899
3.120000 7.200000 2.960000 31.495167 30.728020 1936.156738
3.120000 7.200000 3.000000 13.078236 42.327652 1962.670410
3.120000 7.200000 3.040000 -1.265735 37.239296 1388.367188
3.120000 7.200000 3.080000 -0.882421 29.993805 900.407043
3.120000 7.200000 3.120000 5.002875 35.952572 1317.616211
3.120000 7.200000 3.160000 -2.096413 52.243439 2733.771973
3.120000 7.200000 3.200000 -27.482372 59.154343 4254.517090
3.160000 6.800000 2.800000 0.326015 -36.610924 1340.466064
3.160000 6.800000 2.840000 16.127491 -26.101421 941.380127
3.160000 6.800000 2.880000 20.733433 -8.629698 504.346924
3.160000 6.800000 2.920000 13.671188 5.561348 217.829987
3.160000 6.800000 2.960000 2.221971 10.591045 117.107399
3.160000 6.800000 3.000000 -5.972122 8.911600 115.082863
3.160000 6.800000 3.040000 -9.790503 6.969201 144.423706
3.160000 6.800000 3.080000 -14.055597 7.374549 251.943787
3.160000 6.800000 3.120000 -22.398609 5.999894 537.696411
3.160000 6.800000 3.160000 -31.544823 -2.907914 1003.531860
3.160000 6.800000 3.200000 -33.351093 -19.089834 1476.717163
3.160000 6.840000 2.800000 23.910908 -38.262840 2035.776367
3.160000 6.840000 2.840000 35.775253 -23.678127 1840.522461
3.160000 6.840000 2.880000 37.378143 -6.449614 1438.723145
3.160000 6.840000 2.920000 30.952961 7.202625 1009.963623
3.160000 6.840000 2.960000 20.940271 15.329315 673.482849
3.160000 6.840000 3.000000 9.910889 18.941158 456.993195
3.160000 6.840000 3.040000 -1.768698 18.447325 343.432098
3.160000 6.840000 3.080000 -13.017183 12.507853 325.893433
3.160000 6.840000 3.120000 -20.184563 0.586976 407.761108
3.160000 6.840000 3.160000 -19.095428 -14.094250 563.283264
3.160000 6.840000 3.200000 -9.112534 -25.208418 718.502625
3.160000 6.880000 2.800000 44.946724 -22.531633 2527.882568
3.160000 6.880000 2.840000 52.072239 -5.868134 2745.953125
3.160000 6.880000 2.880000 51.393143 12.074898 2787.058350
3.160000 6.880000 2.920000 43.227432 28.447256 2677.857178
3.160000 6.880000 2.960000 28.056240 40.113754 2396.265869
3.160000 6.880000 3.000000 8.294062 43.056389 1922.644165
3.160000 6.880000 3.040000 -10.179322 34.841965 1317.581177
3.160000 6.880000 3.080000 -20.114931 18.091660 731.918579
3.160000 6.880000 3.120000 -17.923065 0.530060 321.517242
3.160000 6.880000 3.160000 -6.884830 -9.794090 143.325089
3.160000 6.880000 3.200000 5.224289 -10.182317 130.972778
3.160000 6.920000 2.800000 51.168152 4.356347 2637.157471
3.160000 6.920000 2.840000 53.183693 21.700291 3299.407715
3.160000 6.920000 2.880000 47.934364 41.001205 3978.802246
3.160000 6.920000 2.920000 32.537083 58.356506 4464.143555
3.160000 6.920000 2.960000 7.890127 66.223511 4447.807129
3.160000 6.920000 3.000000 -18.059145 58.649212 3765.862793
3.160000 6.920000 3.040000 -33.924103 37.832249 2582.123779
3.160000 6.920000 3.080000 -33.440628 14.552673 1330.055908
3.160000 6.920000 3.120000 -20.906353 0.543388 437.370850
3.160000 6.920000 3.160000 -7.499984 -0.572720 56.577763
3.160000 6.920000 3.200000 -1.598879 5.010956 27.666092
3.160000 6.960000 2.800000 38.797596 28.834646 2336.690186
3.160000 6.960000 2.840000 34.988625 45.054016 3254.068359
3.160000 6.960000 2.880000 22.117796 62.420692 4385.539551
3.160000 6.960000 2.920000 -2.150347 72.923889 5322.517578
3.160000 6.960000 2.960000 -31.293015 67.517792 5537.905273
3.160000 6.960000 3.000000 -52.074890 45.444729 4777.017578
3.160000 6.960000 3.040000 -54.745193 17.370129 3298.757568
3.160000 6.960000 3.080000 -41.608299 -2.219018 1736.174683
3.160000 6.960000 3.120000 -24.973183 -6.716588 668.772400
3.160000 6.960000 3.160000 -16.063995 -1.772628 261.194153
3.160000 6.960000 3.200000 -15.813058 1.867559 253.540573
3.160000 7.000000 2.800000 15.230139 39.081055 1759.286011
3.160000 7.000000 2.840000 5.771610 50.996750 2633.979980
3.160000 7.000000 2.880000 -13.559576 59.907669 3772.790771
3.160000 7.000000 2.920000 -39.650829 56.095253 4718.865723
3.160000 7.000000 2.960000 -60.595627 35.778500 4951.931152
3.160000 7.000000 3.000000 -64.970917 7.027569 4270.606934
3.160000 7.000000 3.040000 -52.190399 -15.666492 2969.276611
3.160000 7.000000 3.080000 -33.105610 -23.424002 1644.665283
3.160000 7.000000 3.120000 -19.976482 -19.579964 782.434814
3.160000 7.000000 3.160000 -16.045513 -14.505795 467.876587
3.160000 7.000000 3.200000 -15.001474 -14.528673 436.126587
3.160000 7.040000 2.800000 -6.382288 32.828228 1118.426147
3.160000 7.040000 2.840000 -18.631187 37.095070 1723.165283
3.160000 7.040000 2.880000 -37.068569 33.377884 2488.162109
3.160000 7.040000 2.920000 -52.882195 16.518749 3069.395752
3.160000 7.040000 2.960000 -55.519558 -8.319994 3151.643799
3.160000 7.040000 3.000000 -42.929932 -28.822475 2673.714111
3.160000 7.040000 3.040000 -23.728346 -36.241203 1876.459229
3.160000 7.040000 3.080000 -8.964943 -32.391048 1129.550293
3.160000 7.040000 3.120000 -2.420324 -25.952318 679.380798
3.160000 7.040000 3.160000 0.568529 -22.755299 518.126831
3.160000 7.040000 3.200000 5.471447 -20.866405 465.343628
3.160000 7.080000 2.800000 -16.546432 17.895931 594.048767
3.160000 7.080000 2.840000 -26.342054 13.821405 884.935059
3.160000 7.080000 2.880000 -34.718090 0.788645 1205.967773
3.160000 7.080000 2.920000 -33.009518 -17.742268 1404.416382
3.160000 7.080000 2.960000 -19.542891 -31.669411 1384.876221
3.160000 7.080000 3.000000 -2.017660 -34.005539 1160.447632
3.160000 7.080000 3.040000 10.179398 -27.290932 848.415100
3.160000 7.080000 3.080000 14.864594 -19.607918 605.426575
3.160000 7.080000 3.120000 17.200085 -15.227758 527.727539
3.160000 7.080000 3.160000 21.571205 -10.950071 585.220947
3.160000 7.080000 3.200000 25.367931 -2.033543 647.667236
3.160000 7.120000 2.800000 -15.363512 5.231425 263.405304
3.160000 7.120000 2.840000 -18.141769 -3.796222 343.535095
3.160000 7.120000 2.880000 -12.781454 -16.456078 434.168060
3.160000 7.120000 2.920000 1.920609 -23.353386 549.069336
3.160000 7.120000 2.960000 17.628521 -18.482845 652.380310
3.160000 7.120000 3.000000 24.875849 -6.223613 657.541199
3.160000 7.120000 3.040000 23.100002 3.534276 546.101196
3.160000 7.120000 3.080000 20.271887 6.605971 454.588257
3.160000 7.120000 3.120000 22.399126 8.668322 576.860657
3.160000 7.120000 3.160000 25.542397 17.118969 945.473145
3.160000 7.120000 3.200000 20.350868 30.257837 1329.694580
3.160000 7.160000 2.800000 -10.546647 0.328013 111.339355
3.160000 7.160000 2.840000 -5.547429 -8.186077 97.785828
3.160000 7.160000 2.880000 8.564993 -11.532549 206.358780
3.160000 7.160000 2.920000 23.229555 -2.165581 544.302002
3.160000 7.160000 2.960000 26.840208 15.418022 958.112183
3.160000 7.160000 3.000000 17.813215 28.450531 1126.743408
3.160000 7.160000 3.040000 6.651108 29.799129 932.225342
3.160000 7.160000 3.080000 3.800521 25.816143 680.917236
3.160000 7.160000 3.120000 7.187779 28.320242 853.700317
3.160000 7.160000 3.160000 4.514791 39.476875 1578.807007
3.160000 7.160000 3.200000 -11.450902 47.555344 2392.633789
3.160000 7.200000 2.800000 -9.591776 0.064211 92.006287
3.160000 7.200000 2.840000 0.140869 -4.231512 17.925535
3.160000 7.200000 2.880000 13.749445 3.346021 200.243103
3.160000 7.200000 2.920000 17.585522 21.954416 791.246948
3.160000 7.200000 2.960000 5.734488 38.105263 1484.895508
3.160000 7.200000 3.000000 -12.358152 39.893536 1744.218018
3.160000 7.200000 3.040000 -21.874542 30.306839 1397.000122
3.160000 7.200000 3.080000 -19.343554 23.684725 935.139282
3.160000 7.200000 3.120000 -16.542690 28.669807 1095.618530
3.160000 7.200000 3.160000 -26.273018 37.218586 2075.494629
3.160000 7.200000 3.200000 -45.871979 33.182610 3205.324219
3.200000 6.800000 2.800000 2.667868 -29.957005 904.539612
3.200000 6.800000 2.840000 13.804515 -17.711685 504.268433
3.200000 6.800000 2.880000 12.642939 -1.918198 163.523392
3.200000 6.800000 2.920000 1.707387 6.845730 49.779194
3.200000 6.800000 2.960000 -9.301424 5.053253 112.051857
3.200000 6.800000 3.000000 -13.070647 -1.295222 172.519409
3.200000 6.800000 3.040000 -11.495836 -3.846505 146.949860
3.200000 6.800000 3.080000 -12.543093 -1.293912 159.003387
3.200000 6.800000 3.120000 -20.336391 -0.913761 414.403778
3.200000 6.800000 3.160000 -29.136627 -10.215818 953.306030
3.200000 6.800000 3.200000 -28.107956 -27.380238 1539.734619
3.200000 6.840000 2.800000 25.823811 -27.593346 1428.261963
3.200000 6.840000 2.840000 31.292742 -7.248340 1031.774170
3.200000 6.840000 2.880000 21.246056 9.342625 538.679504
3.200000 6.840000 2.920000 5.298161 12.830252 192.685867
3.200000 6.840000 2.960000 -4.680021 5.891328 56.610344
3.200000 6.840000 3.000000 -5.440784 -1.347800 31.418695
3.200000 6.840000 3.040000 -3.574199 -2.531931 19.185575
3.200000 6.840000 3.080000 -6.486228 -1.104760 43.291645
3.200000 6.840000 3.120000 -13.294017 -5.117320 202.917847
3.200000 6.840000 3.160000 -15.410585 -16.900982 523.129333
3.200000 6.840000 3.200000 -6.065292 -28.931652 873.828247
3.200000 6.880000 2.800000 42.566895 -7.896290 1874.291992
3.200000 6.880000 2.840000 36.285591 15.473172 1556.063232
3.200000 6.880000 2.880000 17.350533 26.135319 984.095825
3.200000 6.880000 2.920000 0.367653 21.114544 445.959137
3.200000 6.880000 2.960000 -5.262683 9.792921 123.597137
3.200000 6.880000 3.000000 -2.281263 3.244787 15.732803
3.200000 6.880000 3.040000 -0.013777 3.698932 13.682289
3.200000 6.880000 3.080000 -3.321891 4.495056 31.240486
3.200000 6.880000 3.120000 -7.871504 -0.725773 62.487324
3.200000 6.880000 3.160000 -5.960881 -10.147650 138.506897
3.200000 6.880000 3.200000 4.213737 -15.417002 255.439529
3.200000 6.920000 2.800000 41.266479 19.248436 2073.424561
3.200000 6.920000 2.840000 22.555531 36.628529 1850.401001
3.200000 6.920000 2.880000 -0.127237 35.857948 1285.808716
3.200000 6.920000 2.920000 -12.465322 22.397072 657.013062
3.200000 6.920000 2.960000 -11.266420 9.565637 218.433624
3.200000 6.920000 3.000000 -4.765635 5.864916 57.108517
3.200000 6.920000 3.040000 -2.665507 8.797001 84.492149
3.200000 6.920000 3.080000 -6.737930 10.020958 145.819305
3.200000 6.920000 3.120000 -10.843817 5.108928 143.689514
3.200000 6.920000 3.160000 -8.846808 -2.308226 83.593925
3.200000 6.920000 3.200000 -1.339154 -5.243189 29.284365
3.200000 6.960000 2.800000 22.091419 38.133720 1942.211426
3.200000 6.960000 2.840000 -2.600061 42.137257 1782.308716
3.200000 6.960000 2.880000 -20.933060 29.304630 1296.954346
3.200000 6.960000 2.920000 -23.919579 11.346626 700.892151
3.200000 6.960000 2.960000 -15.479245 1.194427 241.033676
3.200000 6.960000 3.000000 -7.108594 2.418043 56.379051
3.200000 6.960000 3.040000 -6.839037 8.178417 113.658936
3.200000 6.960000 3.080000 -13.070526 9.364643 258.535187
3.200000 6.960000 3.120000 -18.015781 3.271875 335.273560
3.200000 6.960000 3.160000 -16.078354 -5.082869 284.349030
3.200000 6.960000 3.200000 -8.695593 -8.885386 154.563431
3.200000 7.000000 2.800000 -2.814898 39.033989 1531.576050
3.200000 7.000000 2.840000 -23.415737 29.041983 1391.733521
3.200000 7.000000 2.880000 -30.770294 9.307299 1033.436768
3.200000 7.000000 2.920000 -23.128187 -6.786099 580.964172
3.200000 7.000000 2.960000 -9.751149 -10.208618 199.300781
3.200000 7.000000 3.000000 -2.558993 -3.086440 16.074554
3.200000 7.000000 3.040000 -6.126952 4.341699 56.389893
3.200000 7.000000 3.080000 -14.789856 3.396918 230.278885
3.200000 7.000000 3.120000 -18.910583 -5.735822 390.509827
3.200000 7.000000 3.160000 -13.847374 -15.267462 424.845154
3.200000 7.000000 3.200000 -3.452182 -17.562998 320.376465
3.200000 7.040000 2.800000 -19.019852 25.259811 999.812805
3.200000 7.040000 2.840000 -28.247902 7.851643 859.592285
3.200000 7.040000 2.880000 -23.194311 -10.592470 650.176514
3.200000 7.040000 2.920000 -8.010095 -18.879684 420.604095
3.200000 7.040000 2.960000 5.624738 -13.441830 212.320465
3.200000 7.040000 3.000000 8.013370 -1.596328 66.762352
3.200000 7.040000 3.040000 -0.336010 4.788603 23.043625
3.200000 7.040000 3.080000 -9.525885 -0.166492 90.770195
3.200000 7.040000 3.120000 -9.652775 -11.384825 222.790283
3.200000 7.040000 3.160000 0.121783 -18.129116 328.679688
3.200000 7.040000 3.200000 11.401295 -14.277981 333.850250
3.200000 7.080000 2.800000 -21.025249 9.155817 525.890137
3.200000 7.080000 2.840000 -18.620026 -6.683688 391.377045
3.200000 7.080000 2.880000 -5.387992 -17.199612 324.857086
3.200000 7.080000 2.920000 11.155602 -15.001166 349.482422
3.200000 7.080000 2.960000 19.588367 -1.968807 387.580322
3.200000 7.080000 3.000000 14.673379 10.943905 335.077087
3.200000 7.080000 3.040000 2.741682 13.135941 180.069748
3.200000 7.080000 3.080000 -3.908954 4.341927 34.132248
3.200000 7.080000 3.120000 1.131155 -5.174569 28.055677
3.200000 7.080000 3.160000 12.258933 -4.952676 174.810425
3.200000 7.080000 3.200000 17.857483 5.233878 346.283203
3.200000 7.120000 2.800000 -15.028729 0.847387 226.580765
3.200000 7.120000 2.840000 -6.504782 -8.065783 107.369034
3.200000 7.120000 2.880000 8.072462 -8.866019 143.770935
3.200000 7.120000 2.920000 19.650539 1.941932 389.914795
3.200000 7.120000 2.960000 19.230953 17.838184 688.030396
3.200000 7.120000 3.000000 7.482897 26.822617 775.446533
3.200000 7.120000 3.040000 -4.664093 22.983578 549.998657
3.200000 7.120000 3.080000 -6.573840 12.787885 206.745361
3.200000 7.120000 3.120000 1.183500 8.544134 74.402901
3.200000 7.120000 3.160000 7.540802 15.297971 290.891602
3.200000 7.120000 3.200000 3.102207 25.433538 656.488586
3.200000 7.160000 2.800000 -11.197124 0.221936 125.424850
3.200000 7.160000 2.840000 -2.574919 -2.376196 12.276516
3.200000 7.160000 2.880000 8.106461 3.645338 79.003197
3.200000 7.160000 2.920000 11.397661 17.799999 446.746643
3.200000 7.160000 2.960000 2.522461 30.392233 930.050598
3.200000 7.160000 3.000000 -12.017378 31.742550 1152.006836
3.200000 7.160000 3.040000 -20.250591 22.806467 930.221436
3.200000 7.160000 3.080000 -17.433548 14.595171 516.947632
3.200000 7.160000 3.120000 -11.297049 16.100193 386.839539
3.200000 7.160000 3.160000 -13.231518 23.992640 750.719788
3.200000 7.160000 3.200000 -24.840773 26.225048 1304.817139
3.200000 7.200000 2.800000 -13.312860 -0.659928 177.667755
3.200000 7.200000 2.840000 -6.684144 -0.730095 45.210819
3.200000 7.200000 2.880000 -1.173076 7.593172 59.032368
3.200000 7.200000 2.920000 -5.146505 19.554369 408.859863
3.200000 7.200000 2.960000 -17.959993 24.679359 931.632202
3.200000 7.200000 3.000000 -29.530315 18.560438 1216.529419
3.200000 7.200000 3.040000 -31.282085 8.316450 1047.732178
3.200000 7.200000 3.080000 -26.003151 4.653852 697.822205
3.200000 7.200000 3.120000 -24.602324 9.233918 690.539612
3.200000 7.200000 3.160000 -32.884972 12.312994 1233.031250
3.200000 7.200000 3.200000 -43.663967 4.205590 1924.229004
