#kx 	ky 	kz 	real 	imag 	intensity
2.800000 6.800000 2.983333 -83.996895 -109.310669 19004.300781
2.800000 6.800000 2.991667 75.233330 -77.763062 11707.147461
2.800000 6.800000 3.000000 -26.867929 42.293148 2510.595947
2.800000 6.800000 3.008333 -72.382545 -147.064789 26867.285156
2.800000 6.800000 3.016667 141.774200 -93.299843 28804.785156
2.800000 6.900000 2.983333 -10.529895 -60.698486 3795.184814
2.800000 6.900000 2.991667 66.274269 -5.065914 4417.942383
2.800000 6.900000 3.000000 -17.642794 -14.027412 508.036438
2.800000 6.900000 3.008333 56.996666 -82.874489 10116.800781
2.800000 6.900000 3.016667 128.066513 -4.809021 16424.158203
2.800000 7.000000 2.983333 -21.187332 -87.292908 8068.954590
2.800000 7.000000 2.991667 152.033844 -39.931198 24708.789062
2.800000 7.000000 3.000000 40.117317 119.323883 15847.588867
2.800000 7.000000 3.008333 34.045036 -39.014801 2681.219238
2.800000 7.000000 3.016667 126.526649 167.048523 43914.203125
2.800000 7.100000 2.983333 28.934578 -64.666359 5018.947754
2.800000 7.100000 2.991667 153.618561 179.365250 55770.554688
2.800000 7.100000 3.000000 -205.631836 91.500305 50656.757812
2.800000 7.100000 3.008333 50.201103 -3.780376 2534.442139
2.800000 7.100000 3.016667 -218.133789 90.072830 55695.464844
2.800000 7.200000 2.983333 29.985943 -50.293137 3428.556396
2.800000 7.200000 2.991667 -60.216736 165.681091 31076.279297
2.800000 7.200000 3.000000 -96.961105 -135.887665 27866.914062
2.800000 7.200000 3.008333 0.301943 22.331329 498.779419
2.800000 7.200000 3.016667 8.913631 -213.408737 45622.742188
2.900000 6.800000 2.983333 -24.096113 -34.754837 1788.521362
2.900000 6.800000 2.991667 62.737282 -119.422256 18197.642578
2.900000 6.800000 3.000000 18.149937 78.328201 6464.727539
2.900000 6.800000 3.008333 -8.915794 -157.674362 24940.697266
2.900000 6.800000 3.016667 186.665649 71.368416 39937.515625
2.900000 6.900000 2.983333 314.604340 -659.118958 533413.687500
2.900000 6.900000 2.991667 79.779221 340.616180 122384.109375
2.900000 6.900000 3.000000 -320.329926 -252.024094 166127.406250
2.900000 6.900000 3.008333 -83.310699 -307.429108 101453.328125
2.900000 6.900000 3.016667 203.422485 -565.124329 360746.218750
2.900000 7.000000 2.983333 1041.963135 261.308533 1153969.250000
2.900000 7.000000 2.991667 -403.769470 122.557533 178050.125000
2.900000 7.000000 3.000000 303.318542 -403.504242 254817.812500
2.900000 7.000000 3.008333 355.764282 -338.187805 240939.218750
2.900000 7.000000 3.016667 1066.386230 188.211197 1172603.125000
2.900000 7.100000 2.983333 41.712151 631.842224 400964.500000
2.900000 7.100000 2.991667 -124.473068 -92.747162 24095.582031
2.900000 7.100000 3.000000 152.787537 119.815521 37699.789062
2.900000 7.100000 3.008333 247.099396 132.162521 78525.046875
2.900000 7.100000 3.016667 -10.388454 650.488342 423243.000000
2.900000 7.200000 2.983333 78.870552 161.666870 32356.742188
2.900000 7.200000 2.991667 -228.995056 9.885963 52536.464844
2.900000 7.200000 3.000000 14.866499 -138.325317 19354.906250
2.900000 7.200000 3.008333 4.438497 -44.356800 1987.225952
2.900000 7.200000 3.016667 101.011154 -22.009296 10687.662109
3.000000 6.800000 2.983333 -55.827675 -113.177689 15925.918945
3.000000 6.800000 2.991667 192.730423 -62.559227 41058.671875
3.000000 6.800000 3.000000 -44.226276 71.943573 7131.841309
3.000000 6.800000 3.008333 94.333191 -150.680496 31603.363281
3.000000 6.800000 3.016667 137.517395 127.197647 35090.273438
3.000000 6.900000 2.983333 1140.320312 281.499176 1379572.125000
3.000000 6.900000 2.991667 -423.413269 181.421143 212192.437500
3.000000 6.900000 3.000000 335.811340 -522.587585 385867.031250
3.000000 6.900000 3.008333 495.045013 -286.193756 326976.437500
3.000000 6.900000 3.016667 1076.137085 209.840698 1202104.125000
3.000000 7.000000 2.983333 -210.245438 1675.439941 2851302.250000
3.000000 7.000000 2.991667 -217.649002 -664.594177 489056.500000
3.000000 7.000000 3.000000 778.310791 463.500916 820600.750000
3.000000 7.000000 3.008333 592.622131 452.626801 556072.000000
3.000000 7.000000 3.016667 110.387558 1769.067383 3141785.000000
3.000000 7.100000 2.983333 -989.064331 107.325478 989767.000000
3.000000 7.100000 2.991667 317.774719 -156.519440 125479.109375
3.000000 7.100000 3.000000 -262.295349 420.251617 245410.281250
3.000000 7.100000 3.008333 -122.911591 373.006165 154240.859375
3.000000 7.100000 3.016667 -1103.187134 259.886963 1284563.125000
3.000000 7.200000 2.983333 -155.138214 98.549973 33779.960938
3.000000 7.200000 2.991667 -48.061039 -137.897736 21325.648438
3.000000 7.200000 3.000000 101.502823 -75.563339 16012.641602
3.000000 7.200000 3.008333 75.237907 27.478676 6415.820312
3.000000 7.200000 3.016667 56.671806 -22.582363 3721.656738
3.100000 6.800000 2.983333 71.048744 -75.408493 10734.365234
3.100000 6.800000 2.991667 113.093735 57.923996 16145.381836
3.100000 6.800000 3.000000 -47.422359 86.837212 9789.581055
3.100000 6.800000 3.008333 69.081047 -65.387985 9047.779297
3.100000 6.800000 3.016667 70.097229 193.555344 42377.292969
3.100000 6.900000 2.983333 -88.307968 852.354980 734307.312500
3.100000 6.900000 2.991667 -158.476318 -242.417236 83880.859375
3.100000 6.900000 3.000000 308.431976 188.249695 130568.234375
3.100000 6.900000 3.008333 284.427368 259.542358 148261.156250
3.100000 6.900000 3.016667 -78.810822 810.501831 663124.312500
3.100000 7.000000 2.983333 -1204.286499 -29.835449 1451196.125000
3.100000 7.000000 2.991667 414.304321 -280.242859 250184.140625
3.100000 7.000000 3.000000 -216.050034 536.495728 334505.281250
3.100000 7.000000 3.008333 -231.668259 389.631958 205483.250000
3.100000 7.000000 3.016667 -1094.783813 227.974838 1250524.125000
3.100000 7.100000 2.983333 -86.358551 -689.892212 483409.062500
3.100000 7.100000 2.991667 209.810822 203.513367 85438.273438
3.100000 7.100000 3.000000 -286.824982 -100.310806 92330.828125
3.100000 7.100000 3.008333 -204.781403 -61.800064 45754.667969
3.100000 7.100000 3.016667 -225.186264 -617.435913 431935.937500
3.100000 7.200000 2.983333 -35.181759 -16.764711 1518.811646
3.100000 7.200000 2.991667 43.261101 -0.881683 1872.300171
3.100000 7.200000 3.000000 44.267609 92.104065 10442.780273
3.100000 7.200000 3.008333 -31.385286 51.242191 3610.798340
3.100000 7.200000 3.016667 34.424847 93.964096 10014.321289
3.200000 6.800000 2.983333 24.826517 0.344509 616.474670
3.200000 6.800000 2.991667 70.687828 18.875847 5353.066406
3.200000 6.800000 3.000000 -115.790375 -1.393363 13409.352539
3.200000 6.800000 3.008333 136.007446 -99.835426 28465.136719
3.200000 6.800000 3.016667 -28.506458 163.893829 27673.804688
3.200000 6.900000 2.983333 -163.454666 -52.927090 29518.705078
3.200000 6.900000 2.991667 48.113998 -31.064972 3279.989258
3.200000 6.900000 3.000000 -10.431982 -58.179634 3493.696045
3.200000 6.900000 3.008333 83.253464 80.261902 13373.111328
3.200000 6.900000 3.016667 -126.272507 -19.401344 16321.158203
3.200000 7.000000 2.983333 86.848671 -220.787292 56289.718750
3.200000 7.000000 2.991667 152.959229 4.973030 23421.255859
3.200000 7.000000 3.000000 52.420780 27.734554 3517.143799
3.200000 7.000000 3.008333 30.585945 15.847839 1186.654053
3.200000 7.000000 3.016667 74.419388 19.142349 5904.674805
3.200000 7.100000 2.983333 136.417923 90.033142 26715.816406
3.200000 7.100000 2.991667 67.035881 128.071289 20896.066406
3.200000 7.100000 3.000000 -36.251984 105.690933 12484.779297
3.200000 7.100000 3.008333 28.266731 51.850601 3487.492920
3.200000 7.100000 3.016667 -62.580399 152.615631 27207.837891
3.200000 7.200000 2.983333 -74.910919 62.984737 9578.722656
3.200000 7.200000 2.991667 -38.077801 38.431076 2926.866699
3.200000 7.200000 3.000000 -125.088631 -7.310015 15700.601562
3.200000 7.200000 3.008333 3.073212 -26.597166 716.853882
3.200000 7.200000 3.016667 -119.563202 4.283714 14313.709961
