#kx 	ky 	kz 	real 	imag 	intensity
2.800000 -7.200000 -5.200000 -55.010620 -2.801853 3034.018555
2.800000 -7.200000 -5.160000 -34.219387 -28.674179 1993.175049
2.800000 -7.200000 -5.120000 -4.220834 -22.436363 521.205811
2.800000 -7.200000 -5.080000 1.819212 6.611802 47.025459
2.800000 -7.200000 -5.040000 -23.354336 24.893005 1165.086670
2.800000 -7.200000 -5.000000 -53.590843 10.378718 2979.696289
2.800000 -7.200000 -4.960000 -57.373421 -24.347553 3884.512695
2.800000 -7.200000 -4.920000 -30.860863 -46.021492 3070.370605
2.800000 -7.200000 -4.880000 -0.839319 -35.789253 1281.575073
2.800000 -7.200000 -4.840000 4.259363 -7.664380 76.884888
2.800000 -7.200000 -4.800000 -16.773359 8.088669 346.772156
2.800000 -7.160000 -5.200000 -40.421051 -38.341820 3103.956543
2.800000 -7.160000 -5.160000 -7.453722 -46.328194 2201.859375
2.800000 -7.160000 -5.120000 13.590829 -23.821573 752.177979
2.800000 -7.160000 -5.080000 2.917722 2.803675 16.373692
2.800000 -7.160000 -5.040000 -25.900589 3.926137 686.255066
2.800000 -7.160000 -5.000000 -40.892349 -22.528358 2179.711182
2.800000 -7.160000 -4.960000 -25.421915 -49.939651 3140.242432
2.800000 -7.160000 -4.920000 5.396811 -51.703377 2702.364746
2.800000 -7.160000 -4.880000 21.971115 -28.389044 1288.667725
2.800000 -7.160000 -4.840000 11.257062 -5.101697 152.748749
2.800000 -7.160000 -4.800000 -11.789381 -3.926911 154.410141
2.800000 -7.120000 -5.200000 -2.915298 -50.593697 2568.221191
2.800000 -7.120000 -5.160000 24.979652 -37.318291 2016.637817
2.800000 -7.120000 -5.120000 28.229721 -9.994684 896.810913
2.800000 -7.120000 -5.080000 8.156604 3.649607 79.849815
2.800000 -7.120000 -5.040000 -11.059197 -8.261269 190.554413
2.800000 -7.120000 -5.000000 -8.316778 -30.614885 1006.440002
2.800000 -7.120000 -4.960000 12.970898 -38.717388 1667.280273
2.800000 -7.120000 -4.920000 30.254801 -24.525192 1516.838013
2.800000 -7.120000 -4.880000 26.721020 -3.664149 727.438843
2.800000 -7.120000 -4.840000 8.150721 2.790977 74.223801
2.800000 -7.120000 -4.800000 -5.369157 -9.511754 119.301315
2.800000 -7.080000 -5.200000 29.616783 -30.696043 1819.400879
2.800000 -7.080000 -5.160000 39.539055 -7.269667 1616.184937
2.800000 -7.080000 -5.120000 28.084158 11.490572 920.753174
2.800000 -7.080000 -5.080000 10.269214 11.348293 234.240509
2.800000 -7.080000 -5.040000 4.610906 -1.680543 24.084677
2.800000 -7.080000 -5.000000 13.935879 -9.645452 287.243469
2.800000 -7.080000 -4.960000 24.150524 -2.904447 591.683594
2.800000 -7.080000 -4.920000 21.247658 10.129082 554.061279
2.800000 -7.080000 -4.880000 6.955511 13.611503 233.652145
2.800000 -7.080000 -4.840000 -3.976005 2.363564 21.395052
2.800000 -7.080000 -4.800000 -0.649502 -13.003130 169.503250
2.800000 -7.040000 -5.200000 34.987213 3.548569 1236.697388
2.800000 -7.040000 -5.160000 27.614532 21.677128 1232.460205
2.800000 -7.040000 -5.120000 12.308128 26.538006 855.755737
2.800000 -7.040000 -5.080000 3.221579 19.945713 408.210052
2.800000 -7.040000 -5.040000 4.519079 14.154991 220.785843
2.800000 -7.040000 -5.000000 7.288831 16.991207 341.828156
2.800000 -7.040000 -4.960000 1.454975 22.965452 529.528931
2.800000 -7.040000 -4.920000 -11.361591 20.289711 540.758118
2.800000 -7.040000 -4.880000 -18.868176 5.483404 386.075775
2.800000 -7.040000 -4.840000 -11.871525 -11.421379 271.381012
2.800000 -7.040000 -4.800000 5.056129 -17.167412 320.284454
2.800000 -7.000000 -5.200000 15.782568 25.753416 912.327881
2.800000 -7.000000 -5.160000 1.717378 31.141039 972.713684
2.800000 -7.000000 -5.120000 -8.754281 26.264572 766.465210
2.800000 -7.000000 -5.080000 -10.938125 20.281675 530.988892
2.800000 -7.000000 -5.040000 -11.075936 20.220724 531.554077
2.800000 -7.000000 -5.000000 -17.618660 22.271412 806.432983
2.800000 -7.000000 -4.960000 -29.533907 16.274748 1137.119141
2.800000 -7.000000 -4.920000 -35.532661 -1.338965 1264.362915
2.800000 -7.000000 -4.880000 -25.972971 -21.090187 1119.391235
2.800000 -7.000000 -4.840000 -4.373130 -28.637077 839.206482
2.800000 -7.000000 -4.800000 14.722502 -19.228706 586.495178
2.800000 -6.960000 -5.200000 -6.774290 25.445349 693.356750
2.800000 -6.960000 -5.160000 -18.390213 21.310619 792.342407
2.800000 -6.960000 -5.120000 -22.955242 13.155190 700.002136
2.800000 -6.960000 -5.080000 -22.827366 8.485023 593.084229
2.800000 -6.960000 -5.040000 -25.419369 7.363700 700.368347
2.800000 -6.960000 -5.000000 -32.896214 2.173122 1086.883301
2.800000 -6.960000 -4.960000 -37.598450 -12.604513 1572.517212
2.800000 -6.960000 -4.920000 -29.443882 -31.590115 1864.877563
2.800000 -6.960000 -4.880000 -7.856732 -41.528606 1786.353394
2.800000 -6.960000 -4.840000 15.304558 -33.991669 1389.663086
2.800000 -6.960000 -4.800000 25.992058 -14.343891 881.334290
2.800000 -6.920000 -5.200000 -15.924791 14.041706 450.768494
2.800000 -6.920000 -5.160000 -24.116779 6.341961 621.839478
2.800000 -6.920000 -5.120000 -25.627007 -3.456295 668.689453
2.800000 -6.920000 -5.080000 -23.263628 -10.100614 643.218811
2.800000 -6.920000 -5.040000 -22.013737 -14.512444 695.215637
2.800000 -6.920000 -5.000000 -21.762489 -21.672394 943.298584
2.800000 -6.920000 -4.960000 -16.503824 -32.767517 1346.086426
2.800000 -6.920000 -4.920000 -1.764346 -41.205372 1700.995605
2.800000 -6.920000 -4.880000 18.154066 -38.148964 1784.913574
2.800000 -6.920000 -4.840000 32.107239 -22.169521 1522.362427
2.800000 -6.920000 -4.800000 32.121017 -2.136929 1036.326172
2.800000 -6.880000 -5.200000 -14.286148 8.286489 272.759918
2.800000 -6.880000 -5.160000 -22.157242 -2.564496 497.519989
2.800000 -6.880000 -5.120000 -20.129198 -16.426453 675.012939
2.800000 -6.880000 -5.080000 -10.537071 -24.895294 730.805542
2.800000 -6.880000 -5.040000 -0.652651 -26.099304 681.599670
2.800000 -6.880000 -5.000000 5.661058 -24.644581 639.402954
2.800000 -6.880000 -4.960000 11.013065 -24.432301 718.224915
2.800000 -6.880000 -4.920000 19.293728 -23.426718 921.059021
2.800000 -6.880000 -4.880000 29.023773 -16.542841 1116.044922
2.800000 -6.880000 -4.840000 33.630978 -2.947742 1139.731812
2.800000 -6.880000 -4.800000 28.446323 11.254284 935.852173
2.800000 -6.840000 -5.200000 -16.071148 10.955721 378.309631
2.800000 -6.840000 -5.160000 -22.285542 -7.260398 549.358765
2.800000 -6.840000 -5.120000 -11.274726 -24.690762 736.753174
2.800000 -6.840000 -5.080000 8.696747 -27.903366 854.231262
2.800000 -6.840000 -5.040000 22.736364 -16.862843 801.297729
2.800000 -6.840000 -5.000000 23.836552 -3.152839 578.121582
2.800000 -6.840000 -4.960000 17.861122 2.890259 327.373291
2.800000 -6.840000 -4.920000 14.990861 1.820183 228.038971
2.800000 -6.840000 -4.880000 18.223648 1.977884 336.013367
2.800000 -6.840000 -4.840000 21.349667 8.642531 530.501587
2.800000 -6.840000 -4.800000 17.290453 18.065830 625.333984
2.800000 -6.800000 -5.200000 -27.531506 9.877488 855.548584
2.800000 -6.800000 -5.160000 -24.355497 -16.139824 853.684204
2.800000 -6.800000 -5.120000 -0.342848 -29.511959 871.073303
2.800000 -6.800000 -5.080000 24.739933 -18.644672 959.688110
2.800000 -6.800000 -5.040000 31.109772 6.103130 1005.066040
2.800000 -6.800000 -5.000000 17.235023 23.598396 853.930359
2.800000 -6.800000 -4.960000 -0.893722 22.494682 506.809479
2.800000 -6.800000 -4.920000 -7.142381 10.138798 153.808823
2.800000 -6.800000 -4.880000 -0.304828 2.282026 5.300564
2.800000 -6.800000 -4.840000 7.670730 6.304707 98.589417
2.800000 -6.800000 -4.800000 6.097478 15.525085 278.207520
2.840000 -7.200000 -5.200000 -40.411457 -31.258181 2610.159668
2.840000 -7.200000 -5.160000 -9.921288 -34.852173 1313.105957
2.840000 -7.200000 -5.120000 4.742196 -10.948939 142.367691
2.840000 -7.200000 -5.080000 -12.336086 11.016035 273.532043
2.840000 -7.200000 -5.040000 -41.972080 3.078274 1771.131348
2.840000 -7.200000 -5.000000 -49.999344 -30.531584 3432.111816
2.840000 -7.200000 -4.960000 -24.028288 -57.147141 3843.154297
2.840000 -7.200000 -4.920000 12.874453 -50.092232 2674.983154
2.840000 -7.200000 -4.880000 26.252800 -16.706623 968.320801
2.840000 -7.200000 -4.840000 5.912583 9.838198 131.748779
2.840000 -7.200000 -4.800000 -24.858910 5.267400 645.710876
2.840000 -7.160000 -5.200000 -10.379538 -51.673107 2777.844971
2.840000 -7.160000 -5.160000 17.789080 -36.323021 1635.813232
2.840000 -7.160000 -5.120000 18.217880 -8.245573 399.880646
2.840000 -7.160000 -5.080000 -4.679497 2.009211 25.934616
2.840000 -7.160000 -5.040000 -22.204586 -15.716467 740.050964
2.840000 -7.160000 -5.000000 -12.438751 -40.847378 1823.230835
2.840000 -7.160000 -4.960000 16.419571 -44.718010 2269.302734
2.840000 -7.160000 -4.920000 35.359646 -21.396904 1708.132080
2.840000 -7.160000 -4.880000 25.731462 6.510545 704.495361
2.840000 -7.160000 -4.840000 -1.668563 12.417993 156.990646
2.840000 -7.160000 -4.800000 -19.347801 -6.766304 420.120270
2.840000 -7.120000 -5.200000 26.227676 -41.761330 2431.899658
2.840000 -7.120000 -5.160000 39.934158 -15.283263 1828.315186
2.840000 -7.120000 -5.120000 28.875010 7.132967 884.645386
2.840000 -7.120000 -5.080000 9.780739 8.628395 170.112061
2.840000 -7.120000 -5.040000 3.891813 -4.330287 33.897594
2.840000 -7.120000 -5.000000 14.464478 -11.260976 336.030701
2.840000 -7.120000 -4.960000 25.057903 -1.277330 629.530090
2.840000 -7.120000 -4.920000 19.384541 15.285419 609.404419
2.840000 -7.120000 -4.880000 -0.025352 19.319962 373.261566
2.840000 -7.120000 -4.840000 -14.851473 4.646297 242.154312
2.840000 -7.120000 -4.800000 -11.372171 -15.406473 366.685699
2.840000 -7.080000 -5.200000 42.080940 -8.449924 1842.206787
2.840000 -7.080000 -5.160000 40.122456 16.025185 1866.617920
2.840000 -7.080000 -5.120000 25.328217 29.744877 1526.276245
2.840000 -7.080000 -5.080000 11.294144 30.735239 1072.212646
2.840000 -7.080000 -5.040000 4.319408 28.103153 808.444519
2.840000 -7.080000 -5.000000 -0.925396 28.838509 832.515991
2.840000 -7.080000 -4.960000 -11.488728 29.142599 981.281921
2.840000 -7.080000 -4.920000 -24.754351 20.284744 1024.248779
2.840000 -7.080000 -4.880000 -29.682150 1.386763 882.953125
2.840000 -7.080000 -4.840000 -19.479389 -16.651112 656.706116
2.840000 -7.080000 -4.800000 -0.708887 -21.533730 464.204041
2.840000 -7.040000 -5.200000 28.231892 21.901279 1276.705811
2.840000 -7.040000 -5.160000 18.853931 36.999390 1724.425537
2.840000 -7.040000 -5.120000 5.041378 45.600746 2104.843506
2.840000 -7.040000 -5.080000 -10.570189 49.230667 2535.387695
2.840000 -7.040000 -5.040000 -28.902702 47.449455 3086.816895
2.840000 -7.040000 -5.000000 -48.344704 35.716484 3612.877686
2.840000 -7.040000 -4.960000 -60.561829 11.545288 3801.028809
2.840000 -7.040000 -4.920000 -55.643353 -18.096027 3423.648926
2.840000 -7.040000 -4.880000 -32.756355 -38.482765 2553.901855
2.840000 -7.040000 -4.840000 -4.236948 -38.876808 1529.358032
2.840000 -7.040000 -4.800000 13.389681 -22.881939 702.866699
2.840000 -7.000000 -5.200000 1.310298 28.715403 826.291199
2.840000 -7.000000 -5.160000 -7.470417 36.701248 1402.788696
2.840000 -7.000000 -5.120000 -21.824043 43.562859 2374.011475
2.840000 -7.000000 -5.080000 -44.056381 43.670956 3848.117188
2.840000 -7.000000 -5.040000 -69.157143 28.421070 5590.467773
2.840000 -7.000000 -5.000000 -83.496887 -4.434494 6991.394531
2.840000 -7.000000 -4.960000 -73.946465 -43.688072 7376.727539
2.840000 -7.000000 -4.920000 -40.631638 -69.406769 6468.229492
2.840000 -7.000000 -4.880000 -0.215382 -67.900940 4610.583984
2.840000 -7.000000 -4.840000 25.727125 -43.625561 2565.074463
2.840000 -7.000000 -4.800000 27.847679 -15.782750 1024.588379
2.840000 -6.960000 -5.200000 -14.652884 15.408323 452.123474
2.840000 -6.960000 -5.160000 -22.332310 21.850300 976.167664
2.840000 -6.960000 -5.120000 -40.239651 24.683792 2228.519043
2.840000 -6.960000 -5.080000 -64.342300 12.548310 4297.391602
2.840000 -6.960000 -5.040000 -79.792030 -19.271383 6738.154297
2.840000 -6.960000 -5.000000 -70.816437 -60.375710 8660.194336
2.840000 -6.960000 -4.960000 -34.980789 -89.280487 9194.661133
2.840000 -6.960000 -4.920000 11.595364 -88.953445 8047.167969
2.840000 -6.960000 -4.880000 44.796925 -60.882202 5713.407227
2.840000 -6.960000 -4.840000 50.802597 -24.300714 3171.428467
2.840000 -6.960000 -4.800000 35.840942 -0.443514 1284.769775
2.840000 -6.920000 -5.200000 -12.089242 2.309279 151.482544
2.840000 -6.920000 -5.160000 -23.096283 7.424499 588.561462
2.840000 -6.920000 -5.120000 -42.070847 0.537401 1770.244995
2.840000 -6.920000 -5.080000 -55.759674 -24.274731 3698.403809
2.840000 -6.920000 -5.040000 -49.057541 -59.136642 5903.785156
2.840000 -6.920000 -5.000000 -17.876776 -85.257164 7588.363281
2.840000 -6.920000 -4.960000 25.226854 -86.036865 8038.736328
2.840000 -6.920000 -4.920000 58.723640 -60.045124 7053.882812
2.840000 -6.920000 -4.880000 67.592567 -22.507690 5075.351562
2.840000 -6.920000 -4.840000 53.706139 6.391742 2925.203613
2.840000 -6.920000 -4.800000 32.304405 16.554529 1317.626953
2.840000 -6.880000 -5.200000 -4.470808 3.231912 30.433374
2.840000 -6.880000 -5.160000 -19.420477 0.946668 378.051117
2.840000 -6.880000 -5.120000 -30.578672 -16.930069 1221.682495
2.840000 -6.880000 -5.080000 -25.130447 -43.014694 2481.803223
2.840000 -6.880000 -5.040000 -0.544619 -61.719566 3809.601562
2.840000 -6.880000 -5.000000 32.638527 -60.536938 4729.994141
2.840000 -6.880000 -4.960000 58.041389 -39.017174 4891.142578
2.840000 -6.880000 -4.920000 64.696640 -8.565317 4259.020020
2.840000 -6.880000 -4.880000 53.545647 16.172279 3128.678955
2.840000 -6.880000 -4.840000 34.811180 27.105844 1946.545044
2.840000 -6.880000 -4.800000 19.308678 26.301437 1064.590698
2.840000 -6.840000 -5.200000 -8.196378 11.486532 199.121033
2.840000 -6.840000 -5.160000 -19.492638 -2.638940 386.926910
2.840000 -6.840000 -5.120000 -14.739304 -23.548002 771.755493
2.840000 -6.840000 -5.080000 5.836903 -35.644691 1304.613525
2.840000 -6.840000 -5.040000 29.873110 -30.040359 1794.825928
2.840000 -6.840000 -5.000000 43.683273 -10.831260 2025.544556
2.840000 -6.840000 -4.960000 42.507851 10.102703 1908.981934
2.840000 -6.840000 -4.920000 31.654636 23.288677 1544.378418
2.840000 -6.840000 -4.880000 19.624321 27.299683 1130.386597
2.840000 -6.840000 -4.840000 11.035569 26.421906 819.900879
2.840000 -6.840000 -4.800000 5.270245 24.748888 640.282898
2.840000 -6.800000 -5.200000 -22.821783 9.733377 615.572449
2.840000 -6.800000 -5.160000 -20.363819 -11.220059 540.574829
2.840000 -6.800000 -5.120000 -0.876815 -22.130312 490.519501
2.840000 -6.800000 -5.080000 19.896877 -13.466223 577.224854
2.840000 -6.800000 -5.040000 26.056473 6.920708 726.835938
2.840000 -6.800000 -5.000000 15.791937 22.552078 757.981506
2.840000 -6.800000 -4.960000 0.882246 24.097128 581.449951
2.840000 -6.800000 -4.920000 -6.310822 16.199970 302.265503
2.840000 -6.800000 -4.880000 -4.058266 10.048625 117.444382
2.840000 -6.800000 -4.840000 -0.147987 11.276114 127.172638
2.840000 -6.800000 -4.800000 -1.794020 15.863581 254.871704
2.880000 -7.200000 -5.200000 -12.744183 -42.288395 1950.722534
2.880000 -7.200000 -5.160000 8.845799 -24.502377 678.614624
2.880000 -7.200000 -5.120000 1.383494 0.363673 2.046315
2.880000 -7.200000 -5.080000 -25.588921 1.632881 657.459167
2.880000 -7.200000 -5.040000 -39.341858 -26.343992 2241.787598
2.880000 -7.200000 -5.000000 -19.016886 -56.161224 3515.724854
2.880000 -7.200000 -4.960000 20.569416 -55.385475 3490.651611
2.880000 -7.200000 -4.920000 42.889156 -21.236099 2290.451660
2.880000 -7.200000 -4.880000 27.264853 15.438074 981.706299
2.880000 -7.200000 -4.840000 -9.874557 21.490364 559.342651
2.880000 -7.200000 -4.800000 -32.413399 -5.247964 1078.169556
2.880000 -7.160000 -5.200000 18.519657 -42.828903 2177.292725
2.880000 -7.160000 -5.160000 28.459265 -15.322338 1044.703857
2.880000 -7.160000 -5.120000 12.345526 3.437895 164.231125
2.880000 -7.160000 -5.080000 -7.597488 -3.632910 70.919861
2.880000 -7.160000 -5.040000 -6.322006 -24.565739 643.443298
2.880000 -7.160000 -5.000000 16.552620 -31.618214 1273.700684
2.880000 -7.160000 -4.960000 36.050514 -11.956190 1442.589966
2.880000 -7.160000 -4.920000 28.920830 17.709778 1150.050537
2.880000 -7.160000 -4.880000 -0.944569 28.518522 814.198303
2.880000 -7.160000 -4.840000 -26.252241 9.927543 787.736267
2.880000 -7.160000 -4.800000 -24.817097 -19.660433 1002.420898
2.880000 -7.120000 -5.200000 41.187706 -18.455944 2037.048950
2.880000 -7.120000 -5.160000 38.225082 8.692261 1536.712402
2.880000 -7.120000 -5.120000 20.674589 21.572323 892.803711
2.880000 -7.120000 -5.080000 6.868389 18.385183 385.189728
2.880000 -7.120000 -5.040000 5.272499 13.049479 198.088135
2.880000 -7.120000 -5.000000 6.975155 17.245007 346.043030
2.880000 -7.120000 -4.960000 -1.550625 26.358406 697.169983
2.880000 -7.120000 -4.920000 -20.598513 25.235245 1061.116333
2.880000 -7.120000 -4.880000 -35.044388 6.823141 1274.664429
2.880000 -7.120000 -4.840000 -30.561123 -17.815100 1251.359985
2.880000 -7.120000 -4.800000 -9.899221 -29.954166 995.246643
2.880000 -7.080000 -5.200000 38.119583 13.870546 1645.494751
2.880000 -7.080000 -5.160000 28.245367 35.105217 2030.177002
2.880000 -7.080000 -5.120000 10.468099 47.554749 2371.035156
2.880000 -7.080000 -5.080000 -9.597782 51.523132 2746.750488
2.880000 -7.080000 -5.040000 -30.555359 48.071938 3244.541016
2.880000 -7.080000 -5.000000 -50.864918 34.896416 3804.999512
2.880000 -7.080000 -4.960000 -63.792831 10.173588 4173.027344
2.880000 -7.080000 -4.920000 -60.306610 -20.228558 4046.081787
2.880000 -7.080000 -4.880000 -38.665859 -42.656105 3314.592041
2.880000 -7.080000 -4.840000 -9.765306 -45.735455 2187.093018
2.880000 -7.080000 -4.800000 9.871375 -31.271854 1075.372925
2.880000 -7.040000 -5.200000 14.416948 30.463608 1135.879761
2.880000 -7.040000 -5.160000 3.095179 47.693291 2284.229980
2.880000 -7.040000 -5.120000 -20.671627 61.396889 4196.894043
2.880000 -7.040000 -5.080000 -56.120644 60.646851 6827.567383
2.880000 -7.040000 -5.040000 -91.365570 35.536247 9610.492188
2.880000 -7.040000 -5.000000 -106.857956 -11.428143 11549.225586
2.880000 -7.040000 -4.960000 -89.303574 -61.204243 11721.087891
2.880000 -7.040000 -4.920000 -44.705975 -88.826096 9888.699219
2.880000 -7.040000 -4.880000 3.073130 -82.011795 6735.378906
2.880000 -7.040000 -4.840000 29.504539 -51.228924 3494.920410
2.880000 -7.040000 -4.800000 28.041260 -20.910385 1223.556396
2.880000 -7.000000 -5.200000 -7.784935 23.488316 612.306213
2.880000 -7.000000 -5.160000 -21.427286 40.737957 2118.709717
2.880000 -7.000000 -5.120000 -55.996120 48.748352 5511.967285
2.880000 -7.000000 -5.080000 -99.747910 26.789513 10667.323242
2.880000 -7.000000 -5.040000 -123.690224 -28.837053 16130.846680
2.880000 -7.000000 -5.000000 -103.648056 -94.422020 19658.437500
2.880000 -7.000000 -4.960000 -43.147148 -132.931824 19532.544922
2.880000 -7.000000 -4.920000 25.477566 -122.757172 15718.429688
2.880000 -7.000000 -4.880000 65.206070 -75.471024 9947.707031
2.880000 -7.000000 -4.840000 62.942478 -25.633453 4618.829590
2.880000 -7.000000 -4.800000 36.824940 -1.726513 1359.057007
2.880000 -6.960000 -5.200000 -11.664330 7.290106 189.202225
2.880000 -6.960000 -5.160000 -32.488876 23.333179 1599.964355
2.880000 -6.960000 -5.120000 -73.328194 15.201988 5608.124512
2.880000 -6.960000 -5.080000 -104.981995 -31.927584 12040.589844
2.880000 -6.960000 -5.040000 -93.849380 -100.417046 18891.289062
2.880000 -6.960000 -5.000000 -33.137554 -148.654144 23196.152344
2.880000 -6.960000 -4.960000 46.613472 -143.786774 22847.453125
2.880000 -6.960000 -4.920000 99.915894 -89.605873 18012.398438
2.880000 -6.960000 -4.880000 102.417343 -23.312893 11032.803711
2.880000 -6.960000 -4.840000 68.005676 16.016062 4881.286133
2.880000 -6.960000 -4.800000 32.301811 17.971447 1366.379883
2.880000 -6.920000 -5.200000 -1.709895 1.892666 6.505925
2.880000 -6.920000 -5.160000 -30.702484 9.276300 1028.692261
2.880000 -6.920000 -5.120000 -64.319138 -18.451397 4477.405762
2.880000 -6.920000 -5.080000 -66.881920 -75.596207 10187.978516
2.880000 -6.920000 -5.040000 -20.744442 -125.928894 16288.417969
2.880000 -6.920000 -5.000000 53.976418 -130.986877 20071.015625
2.880000 -6.920000 -4.960000 112.917130 -83.222771 19676.308594
2.880000 -6.920000 -4.920000 123.186409 -13.049947 15345.192383
2.880000 -6.920000 -4.880000 88.779800 36.942127 9246.574219
2.880000 -6.920000 -4.840000 43.164154 46.426117 4018.528320
2.880000 -6.920000 -4.800000 17.898493 29.168526 1171.158936
2.880000 -6.880000 -5.200000 3.333648 11.557182 144.681671
2.880000 -6.880000 -5.160000 -26.303040 3.603377 704.834229
2.880000 -6.880000 -5.120000 -39.902557 -34.692150 2795.759277
2.880000 -6.880000 -5.080000 -14.471142 -78.334152 6345.653320
2.880000 -6.880000 -5.040000 42.146469 -91.627068 10171.844727
2.880000 -6.880000 -5.000000 95.021240 -59.191189 12532.632812
2.880000 -6.880000 -4.960000 110.616226 0.090317 12235.957031
2.880000 -6.880000 -4.920000 83.901199 49.195541 9459.612305
2.880000 -6.880000 -4.880000 39.690994 63.651176 5626.847168
2.880000 -6.880000 -4.840000 8.791332 48.562008 2435.556152
2.880000 -6.880000 -4.800000 2.544382 28.334366 809.310181
2.880000 -6.840000 -5.200000 -7.621375 21.352736 514.024658
2.880000 -6.840000 -5.160000 -26.052961 0.182297 678.789978
2.880000 -6.840000 -5.120000 -17.807442 -32.374588 1365.218872
2.880000 -6.840000 -5.080000 17.321590 -48.594597 2661.472412
2.880000 -6.840000 -5.040000 55.962280 -31.969410 4153.819824
2.880000 -6.840000 -5.000000 70.971237 8.109581 5102.681641
2.880000 -6.840000 -4.960000 54.156254 44.951057 4953.497559
2.880000 -6.840000 -4.920000 21.167616 57.574753 3762.919922
2.880000 -6.840000 -4.880000 -4.350407 46.367939 2168.911865
2.880000 -6.840000 -4.840000 -10.986277 28.449997 930.100586
2.880000 -6.840000 -4.800000 -5.674557 19.707146 420.572174
2.880000 -6.800000 -5.200000 -25.321606 14.986142 865.768188
2.880000 -6.800000 -5.160000 -26.005827 -7.908927 738.854187
2.880000 -6.800000 -5.120000 -6.647125 -22.599508 554.922058
2.880000 -6.800000 -5.080000 17.428455 -15.967318 558.706299
2.880000 -6.800000 -5.040000 27.210449 6.541420 783.198730
2.880000 -6.800000 -5.000000 16.957745 26.933544 1012.980835
2.880000 -6.800000 -4.960000 -2.361794 31.525433 999.430969
2.880000 -6.800000 -4.920000 -15.003223 21.856874 702.819702
2.880000 -6.800000 -4.880000 -14.754644 10.360482 325.039124
2.880000 -6.800000 -4.840000 -8.072104 7.102282 115.601257
2.880000 -6.800000 -4.800000 -5.150939 11.431266 157.206024
2.920000 -7.200000 -5.200000 11.728058 -33.402779 1253.292969
2.920000 -7.200000 -5.160000 13.633234 -8.842745 264.059204
2.920000 -7.200000 -5.120000 -7.526480 1.647778 59.363068
2.920000 -7.200000 -5.080000 -26.051100 -16.046041 936.135254
2.920000 -7.200000 -5.040000 -16.289810 -44.751869 2268.087646
2.920000 -7.200000 -5.000000 18.477402 -52.080017 3053.742432
2.920000 -7.200000 -4.960000 46.766235 -24.652786 2794.840820
2.920000 -7.200000 -4.920000 40.330830 15.939817 1880.653564
2.920000 -7.200000 -4.880000 3.726282 33.617363 1144.012207
2.920000 -7.200000 -4.840000 -29.521347 13.959671 1066.382324
2.920000 -7.200000 -4.800000 -30.494747 -21.785564 1404.540405
2.920000 -7.160000 -5.200000 32.285599 -21.009054 1483.740234
2.920000 -7.160000 -5.160000 24.096291 2.367976 586.238525
2.920000 -7.160000 -5.120000 4.306788 6.136992 56.211094
2.920000 -7.160000 -5.080000 -3.660500 -7.884243 75.560547
2.920000 -7.160000 -5.040000 8.794426 -17.921806 398.533051
2.920000 -7.160000 -5.000000 25.409500 -6.607750 689.305054
2.920000 -7.160000 -4.960000 22.595812 18.685863 859.732178
2.920000 -7.160000 -4.920000 -3.997013 32.358273 1063.033936
2.920000 -7.160000 -4.880000 -32.979862 17.641973 1398.910522
2.920000 -7.160000 -4.840000 -38.475536 -14.824661 1700.137573
2.920000 -7.160000 -4.800000 -16.660732 -37.189651 1660.650146
2.920000 -7.120000 -5.200000 38.516083 4.556113 1504.246826
2.920000 -7.120000 -5.160000 25.501984 23.863152 1219.801270
2.920000 -7.120000 -5.120000 7.670031 29.564926 932.914185
2.920000 -7.120000 -5.080000 -4.765793 27.028795 753.268555
2.920000 -7.120000 -5.040000 -12.819107 25.167639 797.739502
2.920000 -7.120000 -5.000000 -24.113930 24.243759 1169.241455
2.920000 -7.120000 -4.960000 -39.963650 15.578915 1839.795898
2.920000 -7.120000 -4.920000 -50.154205 -6.183559 2553.680664
2.920000 -7.120000 -4.880000 -42.744884 -32.894287 2909.159180
2.920000 -7.120000 -4.840000 -18.440067 -47.790691 2623.986328
2.920000 -7.120000 -4.800000 7.171669 -41.568760 1779.394653
2.920000 -7.080000 -5.200000 24.730259 26.416071 1309.394531
2.920000 -7.080000 -5.160000 9.804958 44.663910 2091.001953
2.920000 -7.080000 -5.120000 -15.541224 55.307980 3300.502197
2.920000 -7.080000 -5.080000 -47.638000 51.739990 4946.405762
2.920000 -7.080000 -5.040000 -77.295181 28.971275 6813.879883
2.920000 -7.080000 -5.000000 -91.049477 -10.489151 8400.029297
2.920000 -7.080000 -4.960000 -78.905457 -53.260738 9062.777344
2.920000 -7.080000 -4.920000 -43.555191 -80.441528 8367.894531
2.920000 -7.080000 -4.880000 -1.798147 -80.148384 6426.997070
2.920000 -7.080000 -4.840000 25.875006 -57.063786 3925.791504
2.920000 -7.080000 -4.800000 30.128033 -29.366356 1770.081299
2.920000 -7.040000 -5.200000 2.482233 30.331146 926.139954
2.920000 -7.040000 -5.160000 -17.624279 50.354321 2846.172852
2.920000 -7.040000 -5.120000 -58.981262 56.245148 6642.305664
2.920000 -7.040000 -5.080000 -106.347130 28.516932 12122.927734
2.920000 -7.040000 -5.040000 -129.368942 -33.179634 17837.210938
2.920000 -7.040000 -5.000000 -105.394279 -102.129623 21538.414062
2.920000 -7.040000 -4.960000 -40.876686 -140.601212 21439.605469
2.920000 -7.040000 -4.920000 29.817129 -128.538269 17411.146484
2.920000 -7.040000 -4.880000 69.644630 -79.568420 11181.507812
2.920000 -7.040000 -4.840000 66.752052 -29.196144 5308.251465
2.920000 -7.040000 -4.800000 40.299164 -5.547194 1654.793945
2.920000 -7.000000 -5.200000 -10.219553 18.781090 457.168610
2.920000 -7.000000 -5.160000 -41.060493 37.041203 3058.014648
2.920000 -7.000000 -5.120000 -93.897606 22.594288 9327.262695
2.920000 -7.000000 -5.080000 -131.317978 -39.909191 18837.156250
2.920000 -7.000000 -5.040000 -113.307663 -125.493195 28587.167969
2.920000 -7.000000 -5.000000 -35.150608 -181.849518 34304.812500
2.920000 -7.000000 -4.960000 62.314804 -170.898438 33089.410156
2.920000 -7.000000 -4.920000 123.021072 -101.471130 25430.574219
2.920000 -7.000000 -4.880000 120.365211 -21.943188 14969.288086
2.920000 -7.000000 -4.840000 75.480156 20.749796 6127.808105
2.920000 -7.000000 -4.800000 33.589378 17.564869 1436.770996
2.920000 -6.960000 -5.200000 -6.902566 8.116930 113.529968
2.920000 -6.960000 -5.160000 -48.661888 15.386126 2604.712158
2.920000 -6.960000 -5.120000 -95.307487 -26.322441 9776.388672
2.920000 -6.960000 -5.080000 -96.760284 -108.373535 21107.375000
2.920000 -6.960000 -5.040000 -28.885752 -178.559509 32717.884766
2.920000 -6.960000 -5.000000 77.763153 -182.201782 39244.597656
2.920000 -6.960000 -4.960000 158.270401 -110.671631 37297.730469
2.920000 -6.960000 -4.920000 166.540802 -10.734314 27851.062500
2.920000 -6.960000 -4.880000 112.087402 55.163582 15606.606445
2.920000 -6.960000 -4.840000 46.767555 60.287842 5821.828125
2.920000 -6.960000 -4.800000 16.323561 29.195908 1118.859619
2.920000 -6.920000 -5.200000 1.300632 11.108039 125.080170
2.920000 -6.920000 -5.160000 -42.788792 -0.139355 1830.900146
2.920000 -6.920000 -5.120000 -65.148232 -59.347672 7766.437988
2.920000 -6.920000 -5.080000 -26.038929 -130.003784 17579.009766
2.920000 -6.920000 -5.040000 65.642746 -153.171387 27770.445312
2.920000 -6.920000 -5.000000 153.015854 -100.228119 33459.527344
2.920000 -6.920000 -4.960000 177.808884 -1.218960 31617.486328
2.920000 -6.920000 -4.920000 129.875122 79.727638 23224.042969
2.920000 -6.920000 -4.880000 52.971558 98.922615 12591.669922
2.920000 -6.920000 -4.840000 2.906960 66.127304 4381.270508
2.920000 -6.920000 -4.800000 -0.161270 27.265835 743.451721
2.920000 -6.880000 -5.200000 -1.634449 23.325895 546.768860
2.920000 -6.880000 -5.160000 -35.340919 -5.087336 1274.861572
2.920000 -6.880000 -5.120000 -28.604052 -61.652691 4619.246094
2.920000 -6.880000 -5.080000 30.786421 -98.156479 10582.498047
2.920000 -6.880000 -5.040000 106.860725 -74.882660 17026.626953
2.920000 -6.880000 -5.000000 144.031769 0.893681 20745.949219
2.920000 -6.880000 -4.960000 115.763031 79.032326 19647.187500
2.920000 -6.880000 -4.920000 46.878647 110.001205 14297.873047
2.920000 -6.880000 -4.880000 -11.054874 86.062958 7529.042969
2.920000 -6.880000 -4.840000 -25.847340 42.010757 2432.988770
2.920000 -6.880000 -4.800000 -8.007174 18.275490 398.108368
2.920000 -6.840000 -5.200000 -18.580992 28.200748 1140.535522
2.920000 -6.840000 -5.160000 -33.778027 -6.961567 1189.418457
2.920000 -6.840000 -5.120000 -8.828802 -44.746773 2080.221436
2.920000 -6.840000 -5.080000 43.010780 -47.787552 4133.577148
2.920000 -6.840000 -5.040000 81.497559 -6.235474 6680.733398
2.920000 -6.840000 -5.000000 75.384048 51.586903 8343.962891
2.920000 -6.840000 -4.960000 30.270000 84.360535 8032.972656
2.920000 -6.840000 -4.920000 -18.176334 74.118118 5823.874512
2.920000 -6.840000 -4.880000 -37.638046 38.999756 2937.603516
2.920000 -6.840000 -4.840000 -26.009792 12.324223 828.395752
2.920000 -6.840000 -4.800000 -7.373012 10.938617 174.014633
2.920000 -6.800000 -5.200000 -35.473053 15.493951 1498.400024
2.920000 -6.800000 -5.160000 -33.823032 -13.787325 1334.087891
2.920000 -6.800000 -5.120000 -7.514532 -30.118504 963.592468
2.920000 -6.800000 -5.080000 21.901768 -18.203812 811.066162
2.920000 -6.800000 -5.040000 29.976660 12.119923 1045.492676
2.920000 -6.800000 -5.000000 11.828243 35.657402 1411.357666
2.920000 -6.800000 -4.960000 -14.902237 35.539234 1485.113770
2.920000 -6.800000 -4.920000 -28.196915 17.263664 1093.100098
2.920000 -6.800000 -4.880000 -21.874371 0.573086 478.816528
2.920000 -6.800000 -4.840000 -8.452832 -0.773134 72.048111
2.920000 -6.800000 -4.800000 -4.150870 9.446710 106.470047
2.960000 -7.200000 -5.200000 21.382509 -14.490217 667.178101
2.960000 -7.200000 -5.160000 8.271677 0.436514 68.611183
2.960000 -7.200000 -5.120000 -10.394613 -5.971113 143.702179
2.960000 -7.200000 -5.080000 -11.317848 -28.004435 912.342041
2.960000 -7.200000 -5.040000 11.873932 -40.739620 1800.706909
2.960000 -7.200000 -5.000000 39.078739 -25.351845 2169.863770
2.960000 -7.200000 -4.960000 42.336937 9.459057 1881.890015
2.960000 -7.200000 -4.920000 14.690440 33.766037 1355.954346
2.960000 -7.200000 -4.880000 -21.071510 25.589556 1098.833984
2.960000 -7.200000 -4.840000 -34.071964 -6.866895 1208.053101
2.960000 -7.200000 -4.800000 -15.532011 -33.257454 1347.301636
2.960000 -7.160000 -5.200000 29.279549 -1.025787 858.344238
2.960000 -7.160000 -5.160000 14.489939 9.476738 299.766907
2.960000 -7.160000 -5.120000 1.650190 4.279526 21.037468
2.960000 -7.160000 -5.080000 2.639549 -5.107540 33.054184
2.960000 -7.160000 -5.040000 11.875526 -3.020142 150.149384
2.960000 -7.160000 -5.000000 12.054515 11.820801 285.042664
2.960000 -7.160000 -4.960000 -5.942413 23.039543 566.132812
2.960000 -7.160000 -4.920000 -30.689186 13.586559 1126.420776
2.960000 -7.160000 -4.880000 -39.982334 -14.716959 1815.175903
2.960000 -7.160000 -4.840000 -23.486771 -40.646126 2203.735840
2.960000 -7.160000 -4.800000 5.696712 -43.773499 1948.571655
2.960000 -7.120000 -5.200000 26.247398 17.128483 982.310791
2.960000 -7.120000 -5.160000 11.493836 28.522293 945.629456
2.960000 -7.120000 -5.120000 -6.014679 31.087469 1002.607056
2.960000 -7.120000 -5.080000 -22.464691 26.816782 1223.802124
2.960000 -7.120000 -5.040000 -37.425797 16.795776 1682.788330
2.960000 -7.120000 -5.000000 -49.171364 -0.728348 2418.353516
2.960000 -7.120000 -4.960000 -51.525364 -25.691780 3314.930664
2.960000 -7.120000 -4.920000 -38.178490 -50.792374 4037.462402
2.960000 -7.120000 -4.880000 -11.016121 -63.575264 4163.168945
2.960000 -7.120000 -4.840000 17.352480 -56.423038 3484.667969
2.960000 -7.120000 -4.800000 31.947973 -34.827461 2233.625000
2.960000 -7.080000 -5.200000 11.595496 28.991556 974.965820
2.960000 -7.080000 -5.160000 -9.020415 44.516502 2063.086914
2.960000 -7.080000 -5.120000 -43.696114 45.986477 4024.106445
2.960000 -7.080000 -5.080000 -79.804741 21.988438 6852.288086
2.960000 -7.080000 -5.040000 -96.684616 -25.682785 10007.520508
2.960000 -7.080000 -5.000000 -79.631927 -78.273376 12467.964844
2.960000 -7.080000 -4.960000 -32.687363 -110.071442 13184.186523
2.960000 -7.080000 -4.920000 21.601601 -106.018539 11706.559570
2.960000 -7.080000 -4.880000 57.045364 -72.723885 8542.936523
2.960000 -7.080000 -4.840000 61.926937 -33.104568 4930.857910
2.960000 -7.080000 -4.800000 45.417641 -8.829064 2140.714600
2.960000 -7.040000 -5.200000 -5.025510 27.706440 792.902527
2.960000 -7.040000 -5.160000 -38.861214 41.926067 3267.989258
2.960000 -7.040000 -5.120000 -89.071510 23.346691 8478.801758
2.960000 -7.040000 -5.080000 -121.051689 -38.088448 16104.241211
2.960000 -7.040000 -5.040000 -101.024307 -117.262794 23956.472656
2.960000 -7.040000 -5.000000 -27.636673 -167.421814 28793.849609
2.960000 -7.040000 -4.960000 61.409855 -156.343414 28214.433594
2.960000 -7.040000 -4.920000 116.721954 -93.225975 22315.097656
2.960000 -7.040000 -4.880000 115.405251 -21.031794 13760.708008
2.960000 -7.040000 -4.840000 75.945930 19.003975 6128.935059
2.960000 -7.040000 -4.800000 37.695663 18.312355 1756.305420
2.960000 -7.000000 -5.200000 -12.509246 18.178892 486.953339
2.960000 -7.000000 -5.160000 -59.232468 19.441448 3886.455078
2.960000 -7.000000 -5.120000 -105.768967 -30.585566 12122.550781
2.960000 -7.000000 -5.080000 -101.586433 -119.076141 24498.929688
2.960000 -7.000000 -5.040000 -25.320650 -190.451721 36912.996094
2.960000 -7.000000 -5.000000 88.072235 -189.704224 43744.410156
2.960000 -7.000000 -4.960000 170.494095 -111.115669 41414.929688
2.960000 -7.000000 -4.920000 175.835922 -5.565667 30949.248047
2.960000 -7.000000 -4.880000 116.428047 61.969765 17395.742188
2.960000 -7.000000 -4.840000 47.493809 65.165939 6502.261719
2.960000 -7.000000 -4.800000 16.360828 31.032293 1230.679932
2.960000 -6.960000 -5.200000 -9.806324 12.479054 251.890808
2.960000 -6.960000 -5.160000 -58.829048 -7.568295 3518.135986
2.960000 -6.960000 -5.120000 -78.841270 -80.440414 12686.605469
2.960000 -6.960000 -5.080000 -26.271992 -162.085388 26961.890625
2.960000 -6.960000 -5.040000 85.489212 -184.238846 41252.359375
2.960000 -6.960000 -5.000000 187.936127 -115.804985 48730.781250
2.960000 -6.960000 -4.960000 212.912720 4.861707 45355.464844
2.960000 -6.960000 -4.920000 150.851257 100.252655 32806.695312
2.960000 -6.960000 -4.880000 56.439724 119.150360 17382.250000
2.960000 -6.960000 -4.840000 -2.558420 75.514427 5708.974121
2.960000 -6.960000 -4.800000 -2.878231 26.523338 711.771729
2.960000 -6.920000 -5.200000 -7.237860 16.952471 339.772888
2.960000 -6.920000 -5.160000 -44.496780 -22.161564 2471.098389
2.960000 -6.920000 -5.120000 -29.587465 -94.581154 9821.012695
2.960000 -6.920000 -5.080000 52.731903 -138.387146 21931.656250
2.960000 -6.920000 -5.040000 154.703979 -101.869370 34310.687500
2.960000 -6.920000 -5.000000 201.918808 4.473293 40791.214844
2.960000 -6.920000 -4.960000 158.810486 111.899582 37742.285156
2.960000 -6.920000 -4.920000 60.337173 152.067581 26765.123047
2.960000 -6.920000 -4.880000 -20.908443 114.583725 13566.592773
2.960000 -6.920000 -4.840000 -39.258240 49.295574 3971.263184
2.960000 -6.920000 -4.800000 -9.958350 14.660952 314.112244
2.960000 -6.880000 -5.200000 -15.239986 24.818964 848.238159
2.960000 -6.880000 -5.160000 -32.755203 -22.129681 1562.626099
2.960000 -6.880000 -5.120000 5.879639 -73.706261 5467.183105
2.960000 -6.880000 -5.080000 84.431183 -74.525848 12682.726562
2.960000 -6.880000 -5.040000 143.060913 -6.904572 20514.099609
2.960000 -6.880000 -5.000000 131.286835 87.328926 24862.574219
2.960000 -6.880000 -4.960000 55.102974 141.767334 23134.314453
2.960000 -6.880000 -4.920000 -28.434662 124.163696 16225.153320
2.960000 -6.880000 -4.880000 -63.511215 62.083790 7888.071289
2.960000 -6.880000 -4.840000 -43.088699 12.357866 2009.352783
2.960000 -6.880000 -4.800000 -7.070771 7.243160 102.459175
2.960000 -6.840000 -5.200000 -32.229702 22.984596 1567.045410
2.960000 -6.840000 -5.160000 -31.831627 -19.737740 1402.830811
2.960000 -6.840000 -5.120000 10.948568 -45.959877 2232.181396
2.960000 -6.840000 -5.080000 63.674164 -23.390015 4601.492188
2.960000 -6.840000 -5.040000 79.510857 37.207527 7706.376465
2.960000 -6.840000 -5.000000 41.619789 89.557411 9752.736328
2.960000 -6.840000 -4.960000 -20.685318 94.272522 9315.191406
2.960000 -6.840000 -4.920000 -59.927399 54.145561 6523.035156
2.960000 -6.840000 -4.880000 -54.105164 8.150429 2993.798096
2.960000 -6.840000 -4.840000 -22.942320 -7.668625 585.157837
2.960000 -6.840000 -4.800000 -3.462658 7.859030 73.754349
2.960000 -6.800000 -5.200000 -45.010624 6.343525 2066.196533
2.960000 -6.800000 -5.160000 -34.292507 -25.958532 1849.821533
2.960000 -6.800000 -5.120000 -0.167068 -35.912361 1289.725586
2.960000 -6.800000 -5.080000 27.887152 -13.494232 959.787537
2.960000 -6.800000 -5.040000 25.868057 21.522552 1132.376709
2.960000 -6.800000 -5.000000 -2.143394 39.030914 1528.006348
2.960000 -6.800000 -4.960000 -29.545135 27.315193 1619.034790
2.960000 -6.800000 -4.920000 -34.093605 2.173126 1167.096436
2.960000 -6.800000 -4.880000 -18.172321 -11.280384 457.480347
2.960000 -6.800000 -4.840000 -3.035509 -3.802467 23.673073
2.960000 -6.800000 -4.800000 -5.388838 11.330873 157.428253
3.000000 -7.200000 -5.200000 16.303413 0.692723 266.281158
3.000000 -7.200000 -5.160000 2.846939 0.686539 8.576398
3.000000 -7.200000 -5.120000 -2.834263 -12.016505 152.429443
3.000000 -7.200000 -5.080000 7.949421 -23.853798 632.196960
3.000000 -7.200000 -5.040000 26.906382 -19.146193 1090.530029
3.000000 -7.200000 -5.000000 34.667267 2.862228 1210.011719
3.000000 -7.200000 -4.960000 19.814182 24.641460 999.803406
3.000000 -7.200000 -4.920000 -8.106983 26.131552 748.581177
3.000000 -7.200000 -4.880000 -26.144581 4.742990 706.035095
3.000000 -7.200000 -4.840000 -19.683567 -21.112112 833.164062
3.000000 -7.200000 -4.800000 3.368460 -29.409031 876.237610
3.000000 -7.160000 -5.200000 18.432547 8.125013 405.774628
3.000000 -7.160000 -5.160000 8.822913 9.603270 170.066589
3.000000 -7.160000 -5.120000 3.554581 5.672039 44.807072
3.000000 -7.160000 -5.080000 3.617126 3.741356 27.081348
3.000000 -7.160000 -5.040000 2.116411 7.370655 58.805756
3.000000 -7.160000 -5.000000 -7.397190 10.578979 166.633240
3.000000 -7.160000 -4.960000 -21.464115 3.408283 472.324646
3.000000 -7.160000 -4.920000 -27.619984 -16.100391 1022.086121
3.000000 -7.160000 -4.880000 -16.437485 -36.749168 1620.692261
3.000000 -7.160000 -4.840000 7.307581 -42.981880 1900.842773
3.000000 -7.160000 -4.800000 27.014801 -29.877321 1622.453857
3.000000 -7.120000 -5.200000 14.707422 19.427258 593.726624
3.000000 -7.120000 -5.160000 1.358471 27.762154 772.582642
3.000000 -7.120000 -5.120000 -18.267830 27.542843 1092.321777
3.000000 -7.120000 -5.080000 -37.742691 14.758381 1642.320557
3.000000 -7.120000 -5.040000 -48.491135 -9.498260 2441.607178
3.000000 -7.120000 -5.000000 -43.770317 -38.209454 3375.803223
3.000000 -7.120000 -4.960000 -22.748070 -60.577911 4187.158203
3.000000 -7.120000 -4.920000 7.612343 -67.044151 4552.866211
3.000000 -7.120000 -4.880000 34.975750 -54.996716 4247.941895
3.000000 -7.120000 -4.840000 48.224072 -31.257889 3302.616699
3.000000 -7.120000 -4.800000 44.394791 -8.549250 2043.987183
3.000000 -7.080000 -5.200000 2.707071 27.295229 752.357788
3.000000 -7.080000 -5.160000 -24.465618 36.899353 1960.128662
3.000000 -7.080000 -5.120000 -61.453121 21.408901 4234.827148
3.000000 -7.080000 -5.080000 -83.597275 -23.793171 7554.619141
3.000000 -7.080000 -5.040000 -69.065941 -80.126099 11190.295898
3.000000 -7.080000 -5.000000 -18.059647 -116.285828 13848.543945
3.000000 -7.080000 -4.960000 44.457081 -111.170486 14335.308594
3.000000 -7.080000 -4.920000 86.203613 -69.917038 12319.455078
3.000000 -7.080000 -4.880000 90.814751 -19.208462 8616.284180
3.000000 -7.080000 -4.840000 67.390610 13.729568 4729.995117
3.000000 -7.080000 -4.800000 39.558247 20.074409 1967.836792
3.000000 -7.040000 -5.200000 -11.597435 25.522820 785.914795
3.000000 -7.040000 -5.160000 -53.439186 22.457838 3360.101074
3.000000 -7.040000 -5.120000 -90.790573 -23.688452 8804.070312
3.000000 -7.040000 -5.080000 -83.518837 -98.691010 16715.310547
3.000000 -7.040000 -5.040000 -17.544544 -156.283875 24732.460938
3.000000 -7.040000 -5.000000 76.571167 -153.630447 29465.457031
3.000000 -7.040000 -4.960000 144.039383 -88.196922 28526.041016
3.000000 -7.040000 -4.920000 148.965714 -1.366028 22192.648438
3.000000 -7.040000 -4.880000 101.431549 55.400513 13357.576172
3.000000 -7.040000 -4.840000 44.672779 60.903419 5704.883789
3.000000 -7.040000 -4.800000 16.214340 35.118477 1496.212158
3.000000 -7.000000 -5.200000 -19.385498 16.544010 649.501831
3.000000 -7.000000 -5.160000 -63.844425 -9.448229 4165.379395
3.000000 -7.000000 -5.120000 -76.320290 -81.238136 12424.421875
3.000000 -7.000000 -5.080000 -20.791306 -155.508270 24615.101562
3.000000 -7.000000 -5.040000 86.116302 -170.865265 36610.957031
3.000000 -7.000000 -5.000000 180.050537 -102.429115 42909.917969
3.000000 -7.000000 -4.960000 200.051758 11.774971 40159.355469
3.000000 -7.000000 -4.920000 139.752411 100.227097 29576.207031
3.000000 -7.000000 -4.880000 50.538990 117.005493 16244.474609
3.000000 -7.000000 -4.840000 -5.459044 75.718292 5763.061035
3.000000 -7.000000 -4.800000 -6.946897 28.862488 881.302612
3.000000 -6.960000 -5.200000 -18.720602 9.505643 440.818176
3.000000 -6.960000 -5.160000 -49.513546 -36.526104 3785.747559
3.000000 -6.960000 -5.120000 -24.709446 -110.057144 12723.131836
3.000000 -6.960000 -5.080000 66.096664 -148.347504 26375.751953
3.000000 -6.960000 -5.040000 171.225250 -102.338791 39791.312500
3.000000 -6.960000 -5.000000 215.174438 13.060110 46470.605469
3.000000 -6.960000 -4.960000 164.420334 125.258392 42723.710938
3.000000 -6.960000 -4.920000 57.811375 164.472626 30393.398438
3.000000 -6.960000 -4.880000 -28.410412 121.804283 15643.434570
3.000000 -6.960000 -4.840000 -47.074615 50.481064 4764.357422
3.000000 -6.960000 -4.800000 -14.685226 12.130915 362.814941
3.000000 -6.920000 -5.200000 -17.168697 10.161108 398.012268
3.000000 -6.920000 -5.160000 -26.161808 -42.368439 2479.524902
3.000000 -6.920000 -5.120000 25.743906 -93.570663 9418.217773
3.000000 -6.920000 -5.080000 117.003143 -84.065460 20756.736328
3.000000 -6.920000 -5.040000 179.458313 2.132305 32209.832031
3.000000 -6.920000 -5.000000 157.701202 114.382751 37953.085938
3.000000 -6.920000 -4.960000 61.742073 175.697952 34681.851562
3.000000 -6.920000 -4.920000 -39.967033 150.025833 24105.113281
3.000000 -6.920000 -4.880000 -81.411942 71.582321 11751.933594
3.000000 -6.920000 -4.840000 -54.699596 9.004187 3073.121338
3.000000 -6.920000 -4.800000 -8.247525 1.630121 70.678970
3.000000 -6.880000 -5.200000 -23.442400 13.694490 737.085205
3.000000 -6.880000 -5.160000 -14.675859 -32.351181 1261.979736
3.000000 -6.880000 -5.120000 42.013268 -54.462570 4731.286133
3.000000 -6.880000 -5.080000 105.409119 -15.035336 11337.143555
3.000000 -6.880000 -5.040000 116.974144 69.709694 18542.390625
3.000000 -6.880000 -5.000000 57.080132 138.567307 22459.039062
3.000000 -6.880000 -4.960000 -33.430672 139.861252 20678.779297
3.000000 -6.880000 -4.920000 -89.457047 78.462410 14158.912109
3.000000 -6.880000 -4.880000 -80.273529 8.953678 6524.007812
3.000000 -6.880000 -4.840000 -33.121231 -17.103470 1389.544678
3.000000 -6.880000 -4.800000 -0.941366 3.599224 13.840585
3.000000 -6.840000 -5.200000 -36.739479 9.236267 1435.097900
3.000000 -6.840000 -5.160000 -19.474827 -26.122135 1061.634888
3.000000 -6.840000 -5.120000 26.439323 -29.746166 1583.872314
3.000000 -6.840000 -5.080000 59.102959 11.647129 3628.815186
3.000000 -6.840000 -5.040000 43.724457 67.492500 6467.065918
3.000000 -6.840000 -5.000000 -11.919960 90.705475 8369.568359
3.000000 -6.840000 -4.960000 -63.673058 62.587643 7971.471680
3.000000 -6.840000 -4.920000 -73.005096 9.866055 5427.083008
3.000000 -6.840000 -4.880000 -42.184570 -22.817406 2300.171875
3.000000 -6.840000 -4.840000 -8.007896 -15.873817 316.104492
3.000000 -6.840000 -4.800000 -2.905775 10.246748 113.439369
3.000000 -6.800000 -5.200000 -45.859947 -8.017627 2167.416992
3.000000 -6.800000 -5.160000 -25.490364 -35.240891 1891.679077
3.000000 -6.800000 -5.120000 9.258112 -33.679123 1219.995972
3.000000 -6.800000 -5.080000 27.206429 -4.508663 760.517822
3.000000 -6.800000 -5.040000 13.573593 25.146912 816.609619
3.000000 -6.800000 -5.000000 -16.282341 29.533314 1137.331299
3.000000 -6.800000 -4.960000 -33.792221 9.019562 1223.266724
3.000000 -6.800000 -4.920000 -26.160343 -12.827404 848.905823
3.000000 -6.800000 -4.880000 -7.116791 -15.142483 279.943481
3.000000 -6.800000 -4.840000 0.180124 -0.475536 0.258580
3.000000 -6.800000 -4.800000 -11.816614 10.550159 250.938232
3.040000 -7.200000 -5.200000 5.949773 4.662689 57.140465
3.040000 -7.200000 -5.160000 3.426998 -1.924183 15.446796
3.040000 -7.200000 -5.120000 8.094669 -7.837078 126.943466
3.040000 -7.200000 -5.080000 16.953121 -6.567093 330.535034
3.040000 -7.200000 -5.040000 21.831972 3.417858 488.316772
3.040000 -7.200000 -5.000000 16.013296 15.482803 496.142853
3.040000 -7.200000 -4.960000 1.308231 19.296701 374.074127
3.040000 -7.200000 -4.920000 -11.922043 10.110083 244.348877
3.040000 -7.200000 -4.880000 -13.309425 -5.852361 211.390930
3.040000 -7.200000 -4.840000 -2.176392 -16.085119 263.467743
3.040000 -7.200000 -4.800000 11.287915 -13.009374 296.660828
3.040000 -7.160000 -5.200000 9.963085 7.756665 159.428925
3.040000 -7.160000 -5.160000 7.862316 10.375830 169.473862
3.040000 -7.160000 -5.120000 2.896072 12.264025 158.793533
3.040000 -7.160000 -5.080000 -4.124743 11.176582 141.929489
3.040000 -7.160000 -5.040000 -11.115074 5.681210 155.821014
3.040000 -7.160000 -5.000000 -15.039791 -4.358585 245.192581
3.040000 -7.160000 -4.960000 -12.556366 -16.799799 439.895569
3.040000 -7.160000 -4.920000 -2.135540 -26.688406 716.831543
3.040000 -7.160000 -4.880000 13.294840 -28.240379 974.271790
3.040000 -7.160000 -4.840000 26.364429 -19.267485 1066.319092
3.040000 -7.160000 -4.800000 29.741323 -4.368040 903.626099
3.040000 -7.120000 -5.200000 8.174742 17.741465 381.585938
3.040000 -7.120000 -5.160000 -6.106184 25.996929 713.125793
3.040000 -7.120000 -5.120000 -27.912758 19.723114 1168.123291
3.040000 -7.120000 -5.080000 -42.438797 -4.285496 1819.416992
3.040000 -7.120000 -5.040000 -37.016811 -35.756721 2648.787598
3.040000 -7.120000 -5.000000 -11.228348 -57.757278 3461.979004
3.040000 -7.120000 -4.960000 22.569767 -58.706821 3955.885254
3.040000 -7.120000 -4.920000 48.135845 -39.775547 3899.153809
3.040000 -7.120000 -4.880000 55.904549 -12.613731 3284.424805
3.040000 -7.120000 -4.840000 47.396355 9.423782 2335.222168
3.040000 -7.120000 -4.800000 31.739992 19.215239 1376.652588
3.040000 -7.080000 -5.200000 -3.997863 25.077387 644.858215
3.040000 -7.080000 -5.160000 -34.385700 24.174627 1766.788940
3.040000 -7.080000 -5.120000 -61.097816 -7.536930 3789.748535
3.040000 -7.080000 -5.080000 -56.649193 -58.728607 6658.180664
3.040000 -7.080000 -5.040000 -12.761978 -97.716125 9711.309570
3.040000 -7.080000 -5.000000 49.581848 -96.802650 11829.112305
3.040000 -7.080000 -4.960000 94.952347 -54.889900 12028.849609
3.040000 -7.080000 -4.920000 100.575424 1.851425 10118.843750
3.040000 -7.080000 -4.880000 71.985954 41.322166 6889.499023
3.040000 -7.080000 -4.840000 34.805168 49.342880 3646.119629
3.040000 -7.080000 -4.800000 12.203703 35.880699 1436.354980
3.040000 -7.040000 -5.200000 -19.526621 20.844528 815.783264
3.040000 -7.040000 -5.160000 -54.689568 -2.218658 2995.871094
3.040000 -7.040000 -5.120000 -62.181934 -59.319984 7385.453613
3.040000 -7.040000 -5.080000 -17.261450 -115.306473 13593.541016
3.040000 -7.040000 -5.040000 64.642303 -124.828018 19760.662109
3.040000 -7.040000 -5.000000 134.742294 -71.710083 23297.822266
3.040000 -7.040000 -4.960000 149.053955 14.451077 22425.916016
3.040000 -7.040000 -4.920000 103.963974 81.253799 17410.687500
3.040000 -7.040000 -4.880000 36.870071 95.545654 10488.374023
3.040000 -7.040000 -4.840000 -7.457611 66.472733 4474.239746
3.040000 -7.040000 -4.800000 -12.632804 30.778069 1106.877197
3.040000 -7.000000 -5.200000 -26.721956 7.342659 767.977539
3.040000 -7.000000 -5.160000 -48.387436 -36.377575 3664.671875
3.040000 -7.000000 -5.120000 -21.049562 -97.896088 10026.727539
3.040000 -7.000000 -5.080000 58.860481 -125.181793 19135.037109
3.040000 -7.000000 -5.040000 145.962128 -81.337990 27920.812500
3.040000 -7.000000 -5.000000 179.136597 17.708149 32403.498047
3.040000 -7.000000 -4.960000 133.548508 111.252617 30212.347656
3.040000 -7.000000 -4.920000 42.724205 143.043854 22286.902344
3.040000 -7.000000 -4.880000 -30.791689 106.700943 12333.218750
3.040000 -7.000000 -4.840000 -48.381847 45.686218 4428.033691
3.040000 -7.000000 -4.800000 -22.576473 10.443316 618.760010
3.040000 -6.960000 -5.200000 -22.239004 -3.662089 507.984192
3.040000 -6.960000 -5.160000 -20.581852 -52.821579 3213.731689
3.040000 -6.960000 -5.120000 34.540810 -93.200485 9879.397461
3.040000 -6.960000 -5.080000 118.862106 -75.039558 19759.136719
3.040000 -6.960000 -5.040000 170.789856 10.580996 29281.132812
3.040000 -6.960000 -5.000000 143.790283 114.859276 33868.300781
3.040000 -6.960000 -4.960000 50.539837 168.639847 30993.673828
3.040000 -6.960000 -4.920000 -45.419044 141.323761 22035.296875
3.040000 -6.960000 -4.880000 -84.236572 65.489395 11384.661133
3.040000 -6.960000 -4.840000 -58.926033 4.305765 3490.816895
3.040000 -6.960000 -4.800000 -13.653908 -5.433941 215.956909
3.040000 -6.920000 -5.200000 -15.359364 -3.923412 251.303207
3.040000 -6.920000 -5.160000 4.086477 -43.035870 1868.785400
3.040000 -6.920000 -5.120000 63.950264 -52.678047 6864.612793
3.040000 -6.920000 -5.080000 121.869057 -2.170162 14856.777344
3.040000 -6.920000 -5.040000 123.145699 87.446243 22811.708984
3.040000 -6.920000 -5.000000 53.266174 154.423340 26683.853516
3.040000 -6.920000 -4.960000 -43.632812 149.442078 24236.755859
3.040000 -6.920000 -4.920000 -101.447220 80.336861 16745.548828
3.040000 -6.920000 -4.880000 -89.914505 4.172836 8102.030762
3.040000 -6.920000 -4.840000 -37.717911 -25.604895 2078.251465
3.040000 -6.920000 -4.800000 -0.162893 -4.873685 23.779339
3.040000 -6.880000 -5.200000 -17.777430 1.384581 317.954041
3.040000 -6.880000 -5.160000 6.517530 -23.994205 618.200134
3.040000 -6.880000 -5.120000 52.479675 -13.862240 2946.277832
3.040000 -6.880000 -5.080000 76.494995 40.052105 7455.655273
3.040000 -6.880000 -5.040000 45.652161 101.477875 12381.878906
3.040000 -6.880000 -5.000000 -26.423645 119.705307 15027.569336
3.040000 -6.880000 -4.960000 -88.020935 77.523064 13757.509766
3.040000 -6.880000 -4.920000 -96.008583 8.599655 9291.602539
3.040000 -6.880000 -4.880000 -54.759628 -34.041702 4157.454590
3.040000 -6.880000 -4.840000 -8.797764 -27.042061 808.673706
3.040000 -6.880000 -4.800000 2.080513 5.515621 34.750610
3.040000 -6.840000 -5.200000 -29.610958 -1.385256 878.727783
3.040000 -6.840000 -5.160000 -7.368679 -19.797306 446.230743
3.040000 -6.840000 -5.120000 23.706692 -6.881882 609.367554
3.040000 -6.840000 -5.080000 29.642570 31.568600 1875.258545
3.040000 -6.840000 -5.040000 -2.080261 61.317757 3764.194580
3.040000 -6.840000 -5.000000 -47.501106 53.055779 5071.270508
3.040000 -6.840000 -4.960000 -68.573273 12.205902 4851.277832
3.040000 -6.840000 -4.920000 -50.368855 -26.204998 3223.723389
3.040000 -6.840000 -4.880000 -14.640476 -32.406670 1264.535767
3.040000 -6.840000 -4.840000 3.772532 -10.196270 118.195915
3.040000 -6.840000 -4.800000 -7.837811 9.992808 161.287506
3.040000 -6.800000 -5.200000 -37.401379 -18.950047 1757.967407
3.040000 -6.800000 -5.160000 -13.859672 -35.836449 1476.341553
3.040000 -6.800000 -5.120000 12.907608 -26.092970 847.449402
3.040000 -6.800000 -5.080000 19.128910 -0.144561 365.936096
3.040000 -6.800000 -5.040000 2.157227 16.967316 292.543427
3.040000 -6.800000 -5.000000 -18.415451 11.438110 469.959229
3.040000 -6.800000 -4.960000 -22.493658 -6.635246 549.991150
3.040000 -6.800000 -4.920000 -10.040619 -16.320221 367.163635
3.040000 -6.800000 -4.880000 1.261353 -9.209425 86.404518
3.040000 -6.800000 -4.840000 -2.793825 2.599231 14.561460
3.040000 -6.800000 -4.800000 -17.026754 1.597545 292.462524
3.080000 -7.200000 -5.200000 0.300350 0.052336 0.092949
3.080000 -7.200000 -5.160000 7.643587 -0.568745 58.747894
3.080000 -7.200000 -5.120000 11.559036 4.497962 153.842972
3.080000 -7.200000 -5.080000 9.945002 10.156372 202.054947
3.080000 -7.200000 -5.040000 5.106412 12.636631 185.759888
3.080000 -7.200000 -5.000000 0.374189 11.574104 134.099899
3.080000 -7.200000 -4.960000 -2.559082 8.536837 79.426483
3.080000 -7.200000 -4.920000 -3.474560 4.923027 36.308762
3.080000 -7.200000 -4.880000 -2.451742 1.683632 8.845656
3.080000 -7.200000 -4.840000 0.123081 0.026613 0.015857
3.080000 -7.200000 -4.800000 2.661804 0.936771 7.962739
3.080000 -7.160000 -5.200000 7.578785 4.932411 81.766670
3.080000 -7.160000 -5.160000 6.164261 14.469263 247.357681
3.080000 -7.160000 -5.120000 -4.805645 18.079433 349.960144
3.080000 -7.160000 -5.080000 -15.817790 10.045914 351.122864
3.080000 -7.160000 -5.040000 -17.125549 -4.884943 317.147125
3.080000 -7.160000 -5.000000 -7.179100 -16.455097 322.309723
3.080000 -7.160000 -4.960000 7.203514 -17.946424 373.964783
3.080000 -7.160000 -4.920000 17.666550 -10.521626 422.811584
3.080000 -7.160000 -4.880000 20.604401 -0.170872 424.570526
3.080000 -7.160000 -4.840000 17.678448 7.993023 376.415955
3.080000 -7.160000 -4.800000 12.200128 12.303205 300.211945
3.080000 -7.120000 -5.200000 4.431643 16.634777 296.355286
3.080000 -7.120000 -5.160000 -13.411525 22.960510 707.054077
3.080000 -7.120000 -5.120000 -33.060608 8.511356 1165.447021
3.080000 -7.120000 -5.080000 -34.950916 -20.872391 1657.223267
3.080000 -7.120000 -5.040000 -12.423176 -45.004333 2179.725342
3.080000 -7.120000 -5.000000 22.045761 -46.335636 2633.006836
3.080000 -7.120000 -4.960000 47.377296 -24.146851 2827.678467
3.080000 -7.120000 -4.920000 50.796101 6.390045 2621.076660
3.080000 -7.120000 -4.880000 35.812626 27.756348 2052.958984
3.080000 -7.120000 -4.840000 16.028542 32.911793 1340.100342
3.080000 -7.120000 -4.800000 2.785491 26.939541 733.497864
3.080000 -7.080000 -5.200000 -10.681945 21.205120 563.761047
3.080000 -7.080000 -5.160000 -37.014896 9.161208 1454.030273
3.080000 -7.080000 -5.120000 -45.368549 -27.793591 2830.788818
3.080000 -7.080000 -5.080000 -18.530895 -65.217026 4596.654297
3.080000 -7.080000 -5.040000 32.963367 -72.773514 6382.567871
3.080000 -7.080000 -5.000000 77.243843 -40.278000 7588.928711
3.080000 -7.080000 -4.960000 86.603012 13.137535 7672.676270
3.080000 -7.080000 -4.920000 59.081104 54.894733 6504.008789
3.080000 -7.080000 -4.880000 17.441017 64.836746 4507.992676
3.080000 -7.080000 -4.840000 -11.607819 48.057930 2444.306152
3.080000 -7.080000 -4.800000 -17.857517 25.511997 969.752930
3.080000 -7.040000 -5.200000 -25.238951 10.468652 746.597290
3.080000 -7.040000 -5.160000 -41.791145 -21.996311 2230.337646
3.080000 -7.040000 -5.120000 -22.115156 -66.162552 4866.563477
3.080000 -7.040000 -5.080000 34.127331 -84.857475 8365.465820
3.080000 -7.040000 -5.040000 94.070633 -53.832909 11747.265625
3.080000 -7.040000 -5.000000 116.135010 14.473145 13696.812500
3.080000 -7.040000 -4.960000 84.450218 78.473305 13289.898438
3.080000 -7.040000 -4.920000 21.920624 100.618980 10604.693359
3.080000 -7.040000 -4.880000 -29.859623 76.420441 6731.681152
3.080000 -7.040000 -4.840000 -44.716953 33.886009 3147.867676
3.080000 -7.040000 -4.800000 -29.227238 6.238178 893.146301
3.080000 -7.000000 -5.200000 -25.508535 -7.795083 711.448669
3.080000 -7.000000 -5.160000 -19.841539 -46.566391 2562.115479
3.080000 -7.000000 -5.120000 25.294838 -74.235840 6150.789062
3.080000 -7.000000 -5.080000 88.476540 -56.398300 11008.866211
3.080000 -7.000000 -5.040000 124.435997 9.938248 15583.085938
3.080000 -7.000000 -5.000000 101.398956 87.454521 17930.041016
3.080000 -7.000000 -4.960000 30.347370 126.344604 16883.921875
3.080000 -7.000000 -4.920000 -42.309910 105.149597 12846.566406
3.080000 -7.000000 -4.880000 -73.077759 47.255585 7573.449219
3.080000 -7.000000 -4.840000 -55.642654 -1.752178 3099.175049
3.080000 -7.000000 -4.800000 -20.479832 -13.676601 606.472900
3.080000 -6.960000 -5.200000 -12.141993 -17.172504 442.322876
3.080000 -6.960000 -5.160000 11.459144 -44.594261 2119.959961
3.080000 -6.960000 -5.120000 61.635612 -43.829258 5719.952637
3.080000 -6.960000 -5.080000 103.705238 3.451606 10766.690430
3.080000 -6.960000 -5.040000 97.963837 76.852356 15503.197266
3.080000 -6.960000 -5.000000 36.964905 128.064514 17766.923828
3.080000 -6.960000 -4.960000 -43.024048 120.512512 16374.333984
3.080000 -6.960000 -4.920000 -90.300011 61.670952 11957.398438
3.080000 -6.960000 -4.880000 -80.960526 -3.320852 6565.634766
3.080000 -6.960000 -4.840000 -36.767590 -31.396496 2337.595459
3.080000 -6.960000 -4.800000 -1.632497 -17.035290 292.866150
3.080000 -6.920000 -5.200000 -0.572288 -10.635083 113.432510
3.080000 -6.920000 -5.160000 25.493177 -21.110558 1095.557739
3.080000 -6.920000 -5.120000 60.596756 -0.858448 3672.703613
3.080000 -6.920000 -5.080000 70.903831 50.543781 7582.027344
3.080000 -6.920000 -5.040000 34.574406 100.887856 11373.749023
3.080000 -6.920000 -5.000000 -32.830067 110.012627 13180.591797
3.080000 -6.920000 -4.960000 -86.865013 66.735764 11999.192383
3.080000 -6.920000 -4.920000 -91.827316 1.528887 8434.593750
3.080000 -6.920000 -4.880000 -52.150200 -39.455887 4276.410156
3.080000 -6.920000 -4.840000 -6.742765 -34.973274 1268.594727
3.080000 -6.920000 -4.800000 8.113802 -4.774650 88.631058
3.080000 -6.880000 -5.200000 -4.409859 0.634130 19.848978
3.080000 -6.880000 -5.160000 13.444861 -1.941078 184.532089
3.080000 -6.880000 -5.120000 30.340384 18.873123 1276.733643
3.080000 -6.880000 -5.080000 21.761688 53.617920 3348.452393
3.080000 -6.880000 -5.040000 -17.279343 72.726059 5587.655273
3.080000 -6.880000 -5.000000 -62.075233 54.074326 6777.367188
3.080000 -6.880000 -4.960000 -78.440010 6.817791 6199.317383
3.080000 -6.880000 -4.920000 -54.851101 -34.468605 4196.728027
3.080000 -6.880000 -4.880000 -13.897850 -41.362587 1904.013916
3.080000 -6.880000 -4.840000 9.477656 -17.676462 402.283264
3.080000 -6.880000 -4.800000 1.291608 6.317579 41.580059
3.080000 -6.840000 -5.200000 -19.294043 -1.468586 374.416809
3.080000 -6.840000 -5.160000 -6.197083 -7.221837 90.558762
3.080000 -6.840000 -5.120000 4.960617 4.391747 43.895164
3.080000 -6.840000 -5.080000 -2.076576 22.341488 503.454254
3.080000 -6.840000 -5.040000 -24.751614 25.883150 1282.579834
3.080000 -6.840000 -5.000000 -42.495869 7.004501 1854.961792
3.080000 -6.840000 -4.960000 -37.639256 -19.668400 1803.559448
3.080000 -6.840000 -4.920000 -14.314621 -31.162342 1175.999878
3.080000 -6.840000 -4.880000 5.444984 -19.885246 425.070892
3.080000 -6.840000 -4.840000 4.717909 -1.309795 23.974228
3.080000 -6.840000 -4.800000 -10.808684 2.842336 124.906532
3.080000 -6.800000 -5.200000 -25.661030 -21.497398 1120.626587
3.080000 -6.800000 -5.160000 -6.746189 -29.994442 945.177612
3.080000 -6.800000 -5.120000 9.904810 -20.844465 532.596985
3.080000 -6.800000 -5.080000 11.787197 -5.030006 164.238983
3.080000 -6.800000 -5.040000 2.216811 2.520329 11.266306
3.080000 -6.800000 -5.000000 -5.508921 -1.606720 32.929756
3.080000 -6.800000 -4.960000 -3.783855 -7.889469 76.561287
3.080000 -6.800000 -4.920000 1.802090 -6.871487 50.464855
3.080000 -6.800000 -4.880000 1.042089 -0.815933 1.751698
3.080000 -6.800000 -4.840000 -7.061705 -0.439505 50.060837
3.080000 -6.800000 -4.800000 -11.942223 -10.841930 260.164124
3.120000 -7.200000 -5.200000 2.286432 -4.977870 30.006962
3.120000 -7.200000 -5.160000 9.227383 5.251607 112.723969
3.120000 -7.200000 -5.120000 4.153815 14.689673 233.040680
3.120000 -7.200000 -5.080000 -5.195818 14.478735 236.630295
3.120000 -7.200000 -5.040000 -8.479066 7.246400 124.404877
3.120000 -7.200000 -5.000000 -3.840752 2.566291 21.337225
3.120000 -7.200000 -4.960000 1.298763 5.647288 33.578651
3.120000 -7.200000 -4.920000 -0.423677 12.025303 144.787415
3.120000 -7.200000 -4.880000 -7.966811 13.443735 244.204086
3.120000 -7.200000 -4.840000 -13.630577 7.482016 241.773193
3.120000 -7.200000 -4.800000 -12.151317 -0.146799 147.676041
3.120000 -7.160000 -5.200000 8.197287 4.737356 89.638054
3.120000 -7.160000 -5.160000 0.144464 17.848949 318.605865
3.120000 -7.160000 -5.120000 -15.755986 16.201775 510.748596
3.120000 -7.160000 -5.080000 -22.680920 0.533590 514.708862
3.120000 -7.160000 -5.040000 -12.981812 -14.588283 381.345428
3.120000 -7.160000 -5.000000 5.000732 -15.583320 267.847168
3.120000 -7.160000 -4.960000 16.103733 -2.536617 265.764648
3.120000 -7.160000 -4.920000 13.017712 12.527182 326.391113
3.120000 -7.160000 -4.880000 1.545569 18.372015 339.919739
3.120000 -7.160000 -4.840000 -7.408720 14.347368 260.736115
3.120000 -7.160000 -4.800000 -8.973267 8.095230 146.052277
3.120000 -7.120000 -5.200000 0.369088 15.635586 244.607773
3.120000 -7.120000 -5.160000 -19.574120 16.436253 653.296509
3.120000 -7.120000 -5.120000 -31.843695 -3.354029 1025.270386
3.120000 -7.120000 -5.080000 -21.208092 -27.947317 1230.835693
3.120000 -7.120000 -5.040000 7.207527 -35.577236 1317.688232
3.120000 -7.120000 -5.000000 32.455173 -18.376694 1391.041138
3.120000 -7.120000 -4.960000 36.591911 11.230316 1465.088013
3.120000 -7.120000 -4.920000 19.407511 32.654926 1442.995728
3.120000 -7.120000 -4.880000 -3.969646 34.887260 1232.879028
3.120000 -7.120000 -4.840000 -18.132927 23.154057 864.913391
3.120000 -7.120000 -4.800000 -19.436064 10.450162 486.966492
3.120000 -7.080000 -5.200000 -15.465354 13.623820 424.785645
3.120000 -7.080000 -5.160000 -31.945705 -3.942178 1036.068848
3.120000 -7.080000 -5.120000 -25.225761 -33.019180 1726.605225
3.120000 -7.080000 -5.080000 6.704950 -48.211071 2369.263672
3.120000 -7.080000 -5.040000 43.049145 -32.562851 2913.568115
3.120000 -7.080000 -5.000000 57.115879 6.764026 3307.975586
3.120000 -7.080000 -4.960000 38.743664 44.066383 3442.917725
3.120000 -7.080000 -4.920000 1.827841 56.492790 3194.776367
3.120000 -7.080000 -4.880000 -28.792164 41.451180 2547.188965
3.120000 -7.080000 -4.840000 -37.810173 15.375805 1666.024536
3.120000 -7.080000 -4.800000 -28.839588 -2.638301 838.682495
3.120000 -7.040000 -5.200000 -22.953312 -2.784262 534.606689
3.120000 -7.040000 -5.160000 -21.996958 -28.858644 1316.687500
3.120000 -7.040000 -5.120000 5.282496 -48.375893 2368.131836
3.120000 -7.040000 -5.080000 44.705925 -39.133774 3530.072021
3.120000 -7.040000 -5.040000 67.674393 0.641819 4580.235352
3.120000 -7.040000 -5.000000 54.417236 47.926460 5258.181152
3.120000 -7.040000 -4.960000 11.213764 72.195229 5337.899414
3.120000 -7.040000 -4.920000 -34.196815 59.674500 4730.468262
3.120000 -7.040000 -4.880000 -55.002266 23.250175 3565.819824
3.120000 -7.040000 -4.840000 -45.545727 -10.040442 2175.223877
3.120000 -7.040000 -4.800000 -22.324104 -21.641582 966.723755
3.120000 -7.000000 -5.200000 -12.576230 -18.809471 511.957764
3.120000 -7.000000 -5.160000 5.205983 -36.241676 1340.561401
3.120000 -7.000000 -5.120000 38.112244 -33.797806 2594.834717
3.120000 -7.000000 -5.080000 63.835381 -2.420335 4080.813721
3.120000 -7.000000 -5.040000 59.011654 44.036110 5421.554199
3.120000 -7.000000 -5.000000 19.871798 76.134872 6191.407227
3.120000 -7.000000 -4.960000 -31.656105 71.464050 6109.219238
3.120000 -7.000000 -4.920000 -63.746956 33.391483 5178.665527
3.120000 -7.000000 -4.880000 -59.697510 -11.307316 3691.648193
3.120000 -7.000000 -4.840000 -30.181471 -34.460480 2098.445801
3.120000 -7.000000 -4.800000 -2.115936 -28.666756 826.260071
3.120000 -6.960000 -5.200000 6.474937 -18.222557 373.986389
3.120000 -6.960000 -5.160000 26.725933 -18.630970 1061.388550
3.120000 -6.960000 -5.120000 46.881172 0.563216 2198.161377
3.120000 -6.960000 -5.080000 48.294525 35.655926 3603.706055
3.120000 -6.960000 -5.040000 20.882259 66.541336 4863.818359
3.120000 -6.960000 -5.000000 -24.541903 70.067688 5511.786133
3.120000 -6.960000 -4.960000 -60.843464 39.799881 5285.957520
3.120000 -6.960000 -4.920000 -65.119102 -6.034076 4276.907715
3.120000 -6.960000 -4.880000 -37.864830 -37.813244 2863.586914
3.120000 -6.960000 -4.840000 -2.629650 -38.652309 1500.916016
3.120000 -6.960000 -4.800000 14.548850 -17.544357 519.473511
3.120000 -6.920000 -5.200000 14.541199 -1.709837 214.369995
3.120000 -6.920000 -5.160000 23.650229 7.305806 612.708130
3.120000 -6.920000 -5.120000 25.698263 26.014084 1337.133301
3.120000 -6.920000 -5.080000 11.353204 46.482571 2289.524658
3.120000 -6.920000 -5.040000 -18.495266 53.086845 3160.288086
3.120000 -6.920000 -5.000000 -48.318531 35.260216 3577.963379
3.120000 -6.920000 -4.960000 -57.831329 -0.313318 3344.560791
3.120000 -6.920000 -4.920000 -39.536194 -31.726353 2569.672119
3.120000 -6.920000 -4.880000 -7.122877 -39.177269 1585.593750
3.120000 -6.920000 -4.840000 15.274355 -22.388702 734.559937
3.120000 -6.920000 -4.800000 14.310057 -0.737475 205.321594
3.120000 -6.880000 -5.200000 2.782279 11.997184 151.673492
3.120000 -6.880000 -5.160000 1.129951 16.044350 258.697937
3.120000 -6.880000 -5.120000 -3.845398 22.022079 499.759064
3.120000 -6.880000 -5.080000 -15.661137 25.279978 884.348450
3.120000 -6.880000 -5.040000 -30.834503 18.177574 1281.190796
3.120000 -6.880000 -5.000000 -38.511322 -0.773098 1483.719604
3.120000 -6.880000 -4.960000 -29.922478 -21.713985 1366.851807
3.120000 -6.880000 -4.920000 -8.715401 -30.167418 986.031250
3.120000 -6.880000 -4.880000 9.973124 -20.746048 529.861694
3.120000 -6.880000 -4.840000 12.972313 -3.612251 181.329254
3.120000 -6.880000 -4.800000 2.125282 4.534123 25.075100
3.120000 -6.840000 -5.200000 -15.446747 5.493860 268.784485
3.120000 -6.840000 -5.160000 -15.365693 -0.653708 236.531860
3.120000 -6.840000 -5.120000 -12.871569 -3.497675 177.911011
3.120000 -6.840000 -5.080000 -12.085554 -4.499897 166.309692
3.120000 -6.840000 -5.040000 -12.412737 -7.617008 212.094849
3.120000 -6.840000 -5.000000 -9.471554 -12.950659 257.429901
3.120000 -6.840000 -4.960000 -1.636677 -15.412294 240.217529
3.120000 -6.840000 -4.920000 6.111481 -10.833184 154.708069
3.120000 -6.840000 -4.880000 6.852596 -2.418329 52.806385
3.120000 -6.840000 -4.840000 0.353891 1.156347 1.462378
3.120000 -6.840000 -4.800000 -4.839074 -4.747959 45.959751
3.120000 -6.800000 -5.200000 -17.032082 -17.171236 584.943115
3.120000 -6.800000 -5.160000 -5.657880 -23.919353 604.147095
3.120000 -6.800000 -5.120000 6.377789 -21.606264 507.506866
3.120000 -6.800000 -5.080000 13.255222 -13.729956 364.212585
3.120000 -6.800000 -5.040000 14.408362 -5.485668 237.693466
3.120000 -6.800000 -5.000000 12.238489 0.769564 150.372833
3.120000 -6.800000 -4.960000 8.051800 5.047462 90.308350
3.120000 -6.800000 -4.920000 1.844666 6.368530 43.960968
3.120000 -6.800000 -4.880000 -4.326595 2.339679 24.193523
3.120000 -6.800000 -4.840000 -5.177335 -6.725080 72.031494
3.120000 -6.800000 -4.800000 3.198630 -14.625519 224.137039
3.160000 -7.200000 -5.200000 7.414390 -4.768937 77.715935
3.160000 -7.200000 -5.160000 5.498607 10.379410 137.966827
3.160000 -7.200000 -5.120000 -7.064418 14.898860 271.882019
3.160000 -7.200000 -5.080000 -15.210062 6.578018 274.616333
3.160000 -7.200000 -5.040000 -10.856768 -2.735163 125.350525
3.160000 -7.200000 -5.000000 -1.057931 -1.235640 2.646023
3.160000 -7.200000 -4.960000 0.775910 9.612184 92.996109
3.160000 -7.200000 -4.920000 -9.739898 17.065838 386.108429
3.160000 -7.200000 -4.880000 -23.073637 11.515191 664.992310
3.160000 -7.200000 -4.840000 -26.354427 -2.970257 703.378296
3.160000 -7.200000 -4.800000 -17.239141 -13.351795 475.458435
3.160000 -7.160000 -5.200000 7.435806 6.672256 99.810196
3.160000 -7.160000 -5.160000 -7.396037 15.769783 303.387421
3.160000 -7.160000 -5.120000 -21.645248 6.780543 514.492554
3.160000 -7.160000 -5.080000 -20.135168 -9.922875 503.888428
3.160000 -7.160000 -5.040000 -4.622720 -16.552715 295.361908
3.160000 -7.160000 -5.000000 8.914567 -6.268430 118.762718
3.160000 -7.160000 -4.960000 7.156765 10.655033 164.749023
3.160000 -7.160000 -4.920000 -7.602258 18.286674 392.196777
3.160000 -7.160000 -4.880000 -21.290030 11.126270 577.059265
3.160000 -7.160000 -4.840000 -23.187237 -2.036711 541.796143
3.160000 -7.160000 -4.800000 -15.654524 -9.003813 326.132751
3.160000 -7.120000 -5.200000 -3.626719 12.300062 164.444626
3.160000 -7.120000 -5.160000 -21.037369 7.152550 493.729858
3.160000 -7.120000 -5.120000 -24.868996 -11.679023 754.866455
3.160000 -7.120000 -5.080000 -9.633494 -25.598877 748.106689
3.160000 -7.120000 -5.040000 11.606445 -20.279106 545.951721
3.160000 -7.120000 -5.000000 19.955706 0.791902 398.857300
3.160000 -7.120000 -4.960000 8.345287 20.274143 480.684723
3.160000 -7.120000 -4.920000 -13.093239 23.500542 723.708374
3.160000 -7.120000 -4.880000 -27.910000 10.825810 896.166260
3.160000 -7.120000 -4.840000 -28.320780 -5.310053 830.263245
3.160000 -7.120000 -4.800000 -19.737484 -13.536778 572.812622
3.160000 -7.080000 -5.200000 -14.658320 4.085796 231.560089
3.160000 -7.080000 -5.160000 -21.884144 -10.984179 599.567932
3.160000 -7.080000 -5.120000 -11.425361 -27.076597 863.680969
3.160000 -7.080000 -5.080000 10.337004 -27.866535 883.397400
3.160000 -7.080000 -5.040000 25.684086 -9.434898 748.689575
3.160000 -7.080000 -5.000000 20.989489 15.650080 685.483643
3.160000 -7.080000 -4.960000 -1.500029 28.963295 841.122498
3.160000 -7.080000 -4.920000 -26.011953 21.594151 1142.929077
3.160000 -7.080000 -4.880000 -36.831337 0.461699 1356.760498
3.160000 -7.080000 -4.840000 -30.378487 -19.081554 1286.958252
3.160000 -7.080000 -4.800000 -15.728664 -26.346107 941.508240
3.160000 -7.040000 -5.200000 -12.115471 -11.242758 273.184235
3.160000 -7.040000 -5.160000 -6.078093 -23.021616 566.938049
3.160000 -7.040000 -5.120000 10.090084 -25.981354 776.840576
3.160000 -7.040000 -5.080000 25.296873 -13.633445 825.802612
3.160000 -7.040000 -5.040000 26.495975 8.740027 778.424805
3.160000 -7.040000 -5.000000 9.416279 26.564863 794.358276
3.160000 -7.040000 -4.960000 -16.780556 26.641621 991.362976
3.160000 -7.040000 -4.920000 -35.555794 7.709016 1323.643433
3.160000 -7.040000 -4.880000 -35.432468 -18.113518 1583.559326
3.160000 -7.040000 -4.840000 -18.670549 -34.636017 1548.243164
3.160000 -7.040000 -4.800000 1.219014 -34.063507 1161.808472
3.160000 -7.000000 -5.200000 4.450059 -17.150497 313.942566
3.160000 -7.000000 -5.160000 13.992514 -16.231964 459.267090
3.160000 -7.000000 -5.120000 22.355949 -7.705762 559.167236
3.160000 -7.000000 -5.080000 23.476061 6.799457 597.358032
3.160000 -7.000000 -5.040000 13.141398 20.711952 601.681274
3.160000 -7.000000 -5.000000 -6.549865 24.630947 649.584290
3.160000 -7.000000 -4.960000 -25.643404 12.797779 821.367310
3.160000 -7.000000 -4.920000 -31.644711 -10.506872 1111.782104
3.160000 -7.000000 -4.880000 -19.391245 -31.678829 1379.568604
3.160000 -7.000000 -4.840000 3.215724 -37.444778 1412.452271
3.160000 -7.000000 -4.800000 20.435633 -26.089197 1098.261230
3.160000 -6.960000 -5.200000 19.462564 -4.740912 401.267670
3.160000 -6.960000 -5.160000 19.547306 5.133123 408.446106
3.160000 -6.960000 -5.120000 14.371497 12.798176 370.333252
3.160000 -6.960000 -5.080000 6.351401 17.104717 332.911652
3.160000 -6.960000 -5.040000 -3.886975 17.457266 319.864716
3.160000 -6.960000 -5.000000 -14.876543 11.287074 348.709595
3.160000 -6.960000 -4.960000 -21.056976 -2.862740 451.591522
3.160000 -6.960000 -4.920000 -15.669538 -19.976830 644.608154
3.160000 -6.960000 -4.880000 1.345556 -29.337971 862.527100
3.160000 -6.960000 -4.840000 19.874428 -23.591295 951.542114
3.160000 -6.960000 -4.800000 26.981602 -7.333607 781.788635
3.160000 -6.920000 -5.200000 16.557934 15.792675 523.573730
3.160000 -6.920000 -5.160000 4.140772 21.548244 481.472839
3.160000 -6.920000 -5.120000 -7.021265 17.156448 343.641876
3.160000 -6.920000 -5.080000 -11.303671 8.719808 203.808014
3.160000 -6.920000 -5.040000 -10.838565 2.032549 121.605743
3.160000 -6.920000 -5.000000 -9.568007 -3.093748 101.118042
3.160000 -6.920000 -4.960000 -6.861557 -9.258256 132.796265
3.160000 -6.920000 -4.920000 0.678521 -14.819174 220.068298
3.160000 -6.920000 -4.880000 12.103464 -14.067548 344.389771
3.160000 -6.920000 -4.840000 20.078850 -4.828423 426.473877
3.160000 -6.920000 -4.800000 18.168634 6.437295 371.538025
3.160000 -6.880000 -5.200000 -2.981135 23.917793 580.947998
3.160000 -6.880000 -5.160000 -17.906174 16.666065 598.388794
3.160000 -6.880000 -5.120000 -21.737427 1.074208 473.669647
3.160000 -6.880000 -5.080000 -13.516084 -10.763899 298.546051
3.160000 -6.880000 -5.040000 -1.892799 -12.525098 160.460770
3.160000 -6.880000 -5.000000 4.947309 -7.700295 83.770416
3.160000 -6.880000 -4.960000 6.376194 -3.145795 50.551876
3.160000 -6.880000 -4.920000 6.683636 -1.209031 46.132740
3.160000 -6.880000 -4.880000 8.041227 0.542985 64.956169
3.160000 -6.880000 -4.840000 8.501448 3.624249 85.409790
3.160000 -6.880000 -4.800000 6.610531 5.684067 76.007736
3.160000 -6.840000 -5.200000 -19.285259 10.497898 482.127106
3.160000 -6.840000 -5.160000 -24.160141 -5.078113 609.499634
3.160000 -6.840000 -5.120000 -14.936835 -19.990322 622.722046
3.160000 -6.840000 -5.080000 2.391414 -23.289225 548.106873
3.160000 -6.840000 -5.040000 15.832622 -13.651841 437.044678
3.160000 -6.840000 -5.000000 17.888348 0.590783 320.342010
3.160000 -6.840000 -4.960000 10.610725 9.647210 205.656158
3.160000 -6.840000 -4.920000 1.775531 9.867062 100.511414
3.160000 -6.840000 -4.880000 -2.246408 4.442010 24.777807
3.160000 -6.840000 -4.840000 -0.039013 -1.059025 1.123057
3.160000 -6.840000 -4.800000 6.090513 -2.629280 44.007465
3.160000 -6.800000 -5.200000 -13.775824 -10.478061 299.563080
3.160000 -6.800000 -5.160000 -6.974055 -20.864967 483.984314
3.160000 -6.800000 -5.120000 7.636769 -24.444748 655.865967
3.160000 -6.800000 -5.080000 22.384747 -16.323097 767.520386
3.160000 -6.800000 -5.040000 27.907204 0.306374 778.905884
3.160000 -6.800000 -5.000000 20.555870 15.725283 669.828308
3.160000 -6.800000 -4.960000 5.582088 20.700821 459.683685
3.160000 -6.800000 -4.920000 -6.498989 13.306065 219.288208
3.160000 -6.800000 -4.880000 -7.452399 0.351007 55.661453
3.160000 -6.800000 -4.840000 2.779121 -7.493454 63.875359
3.160000 -6.800000 -4.800000 15.993241 -3.310989 266.746429
3.200000 -7.200000 -5.200000 9.708015 -0.354167 94.371002
3.200000 -7.200000 -5.160000 -0.068069 10.417939 108.538086
3.200000 -7.200000 -5.120000 -12.207777 7.216728 201.110977
3.200000 -7.200000 -5.080000 -13.824841 -3.195346 201.336456
3.200000 -7.200000 -5.040000 -5.549651 -7.022850 80.119049
3.200000 -7.200000 -5.000000 0.092145 0.651354 0.432753
3.200000 -7.200000 -4.960000 -6.544032 10.384687 150.666092
3.200000 -7.200000 -4.920000 -20.930471 9.138635 521.599243
3.200000 -7.200000 -4.880000 -29.031225 -4.930331 867.120178
3.200000 -7.200000 -4.840000 -22.555595 -20.114082 913.331177
3.200000 -7.200000 -4.800000 -7.811043 -23.632998 619.530945
3.200000 -7.160000 -5.200000 4.600203 7.254136 73.784355
3.200000 -7.160000 -5.160000 -10.594970 8.918076 191.785461
3.200000 -7.160000 -5.120000 -18.333025 -2.735417 343.582306
3.200000 -7.160000 -5.080000 -11.786114 -13.727978 327.369843
3.200000 -7.160000 -5.040000 0.129611 -12.096896 146.351700
3.200000 -7.160000 -5.000000 3.163348 -0.282297 10.086462
3.200000 -7.160000 -4.960000 -6.922366 8.251905 116.013092
3.200000 -7.160000 -4.920000 -20.417656 3.743338 430.893250
3.200000 -7.160000 -4.880000 -24.575279 -10.000259 703.949524
3.200000 -7.160000 -4.840000 -16.823547 -20.601814 707.466492
3.200000 -7.160000 -4.800000 -6.198920 -20.537064 460.197601
3.200000 -7.120000 -5.200000 -4.594192 6.646738 65.285721
3.200000 -7.120000 -5.160000 -16.359373 -0.477618 267.857208
3.200000 -7.120000 -5.120000 -15.940818 -13.749268 443.152039
3.200000 -7.120000 -5.080000 -4.624593 -19.616083 406.177582
3.200000 -7.120000 -5.040000 5.541155 -12.629321 190.204147
3.200000 -7.120000 -5.000000 4.112192 -0.284563 16.991100
3.200000 -7.120000 -4.960000 -7.778729 5.005341 85.562065
3.200000 -7.120000 -4.920000 -19.396841 -1.964467 380.096588
3.200000 -7.120000 -4.880000 -21.303543 -15.157825 683.600586
3.200000 -7.120000 -4.840000 -13.650309 -24.356476 779.568848
3.200000 -7.120000 -4.800000 -4.200817 -24.961588 640.727722
3.200000 -7.080000 -5.200000 -7.799247 -2.411814 66.645096
3.200000 -7.080000 -5.160000 -11.878308 -10.861248 259.060913
3.200000 -7.080000 -5.120000 -6.934700 -19.234409 418.052551
3.200000 -7.080000 -5.080000 2.892807 -19.878231 403.512421
3.200000 -7.080000 -5.040000 8.801920 -11.972149 220.806152
3.200000 -7.080000 -5.000000 5.072267 -2.483663 31.896477
3.200000 -7.080000 -4.960000 -5.761273 -0.230264 33.245293
3.200000 -7.080000 -4.920000 -14.973400 -8.276237 292.698822
3.200000 -7.080000 -4.880000 -14.979784 -21.373362 681.214539
3.200000 -7.080000 -4.840000 -5.522365 -30.513020 961.540894
3.200000 -7.080000 -4.800000 6.612521 -30.350309 964.866760
3.200000 -7.040000 -5.200000 0.698742 -9.927122 99.035995
3.200000 -7.040000 -5.160000 -0.095808 -12.496202 156.164261
3.200000 -7.040000 -5.120000 2.094793 -15.968277 259.374023
3.200000 -7.040000 -5.080000 7.413326 -16.643732 331.971222
3.200000 -7.040000 -5.040000 11.695183 -12.050350 281.988220
3.200000 -7.040000 -5.000000 9.704205 -5.207307 121.287628
3.200000 -7.040000 -4.960000 1.414088 -3.385959 13.464366
3.200000 -7.040000 -4.920000 -5.922235 -10.988230 155.814072
3.200000 -7.040000 -4.880000 -3.747397 -23.675102 574.553406
3.200000 -7.040000 -4.840000 8.924672 -30.940014 1036.934204
3.200000 -7.040000 -4.800000 23.189735 -25.884861 1207.789795
3.200000 -7.000000 -5.200000 14.093591 -4.837828 222.033875
3.200000 -7.000000 -5.160000 7.985791 -2.124439 68.286102
3.200000 -7.000000 -5.120000 3.919964 -7.287619 68.475502
3.200000 -7.000000 -5.080000 8.014500 -13.298887 241.092606
3.200000 -7.000000 -5.040000 15.808958 -11.765724 388.355408
3.200000 -7.000000 -5.000000 17.501545 -3.858213 321.189880
3.200000 -7.000000 -4.960000 10.407000 0.309059 108.401161
3.200000 -7.000000 -4.920000 3.431688 -6.158949 49.709145
3.200000 -7.000000 -4.880000 7.371649 -17.525953 361.500244
3.200000 -7.000000 -4.840000 21.699814 -20.598701 895.188416
3.200000 -7.000000 -4.800000 33.582867 -9.518084 1218.402832
3.200000 -6.960000 -5.200000 17.951612 12.212065 471.394897
3.200000 -6.960000 -5.160000 2.774728 11.862512 148.418289
3.200000 -6.960000 -5.120000 -3.205009 -1.724430 13.245741
3.200000 -6.960000 -5.080000 6.381403 -12.925699 207.796005
3.200000 -6.960000 -5.040000 20.393291 -9.642430 508.862793
3.200000 -6.960000 -5.000000 23.677467 3.195453 570.833374
3.200000 -6.960000 -4.960000 14.664505 10.249481 320.099579
3.200000 -6.960000 -4.920000 6.518999 4.238811 60.464855
3.200000 -6.960000 -4.880000 10.911539 -5.578694 150.183502
3.200000 -6.960000 -4.840000 23.777550 -4.772140 588.145203
3.200000 -6.960000 -4.800000 29.973185 8.651546 973.241028
3.200000 -6.920000 -5.200000 5.127554 27.113625 761.440430
3.200000 -6.920000 -5.160000 -13.403142 15.722016 426.825989
3.200000 -6.920000 -5.120000 -12.610350 -6.140175 196.722672
3.200000 -6.920000 -5.080000 6.403027 -16.383028 309.402344
3.200000 -6.920000 -5.040000 24.174177 -6.002058 620.415588
3.200000 -6.920000 -5.000000 24.558607 12.495101 759.252747
3.200000 -6.920000 -4.960000 11.266001 20.352499 541.146973
3.200000 -6.920000 -4.920000 1.445732 13.192116 176.122055
3.200000 -6.920000 -4.880000 5.254241 3.828389 42.263611
3.200000 -6.920000 -4.840000 15.355245 5.598945 267.131714
3.200000 -6.920000 -4.800000 17.464214 16.749290 585.537476
3.200000 -6.880000 -5.200000 -14.947148 25.683372 883.052856
3.200000 -6.880000 -5.160000 -26.504738 3.947165 718.081238
3.200000 -6.880000 -5.120000 -13.920488 -18.428335 533.383545
3.200000 -6.880000 -5.080000 11.747704 -20.506990 558.545166
3.200000 -6.880000 -5.040000 27.380417 -1.533421 752.038635
3.200000 -6.880000 -5.000000 21.426767 19.727970 848.299194
3.200000 -6.880000 -4.960000 3.828835 25.388710 659.246582
3.200000 -6.880000 -4.920000 -6.870962 15.625831 291.376709
3.200000 -6.880000 -4.880000 -3.229870 5.151783 36.972931
3.200000 -6.880000 -4.840000 5.997862 5.462304 65.811111
3.200000 -6.880000 -4.800000 8.604832 13.719622 262.271149
3.200000 -6.840000 -5.200000 -24.222134 9.305695 673.307678
3.200000 -6.840000 -5.160000 -23.791031 -13.456918 747.101746
3.200000 -6.840000 -5.120000 -3.043602 -27.582802 770.074463
3.200000 -6.840000 -5.080000 21.756926 -19.273655 844.837585
3.200000 -6.840000 -5.040000 30.371693 4.838139 945.847290
3.200000 -6.840000 -5.000000 17.867788 24.674828 928.104980
3.200000 -6.840000 -4.960000 -2.177670 26.252048 693.912292
3.200000 -6.840000 -4.920000 -12.267675 13.398597 330.018250
3.200000 -6.840000 -4.880000 -7.156285 1.294682 52.888618
3.200000 -6.840000 -4.840000 4.105159 0.765843 17.438845
3.200000 -6.840000 -4.800000 9.525492 9.912818 188.998962
3.200000 -6.800000 -5.200000 -14.794785 -4.610828 240.145386
3.200000 -6.800000 -5.160000 -7.730784 -19.304407 432.425140
3.200000 -6.800000 -5.120000 11.955820 -23.313604 686.465820
3.200000 -6.800000 -5.080000 29.745667 -9.159328 968.697998
3.200000 -6.800000 -5.040000 30.842411 14.520214 1162.090942
3.200000 -6.800000 -5.000000 14.279864 30.274050 1120.432617
3.200000 -6.800000 -4.960000 -6.074252 27.664188 802.203857
3.200000 -6.800000 -4.920000 -14.295727 12.222278 353.751862
3.200000 -6.800000 -4.880000 -6.316388 -0.448144 40.097591
3.200000 -6.800000 -4.840000 7.668782 1.061777 59.937592
3.200000 -6.800000 -4.800000 13.315962 14.759585 395.160217
