#kx 	ky 	kz 	real 	imag 	intensity
6.800000 0.800000 4.983333 -26.464457 -43.444138 2587.760498
6.800000 0.800000 4.991667 -74.930740 -10.151527 5717.669434
6.800000 0.800000 5.000000 16.812424 -147.173203 21942.609375
6.800000 0.800000 5.008333 70.600365 11.901146 5126.048828
6.800000 0.800000 5.016667 -8.162774 -15.201996 297.731567
6.800000 0.900000 4.983333 -3.241829 15.299738 244.591446
6.800000 0.900000 4.991667 13.420191 30.644075 1119.160889
6.800000 0.900000 5.000000 2.672493 64.446541 4160.498535
6.800000 0.900000 5.008333 -84.240135 44.719505 9096.234375
6.800000 0.900000 5.016667 -29.007164 -84.617332 8001.508301
6.800000 1.000000 4.983333 -9.820833 -29.391594 960.314575
6.800000 1.000000 4.991667 -31.901884 19.337334 1391.662720
6.800000 1.000000 5.000000 -55.034710 -14.143794 3228.866211
6.800000 1.000000 5.008333 -36.777931 -85.935280 8737.488281
6.800000 1.000000 5.016667 119.045776 2.051350 14176.104492
6.800000 1.100000 4.983333 16.435757 12.141373 417.547028
6.800000 1.100000 4.991667 43.720470 57.308231 5195.712891
6.800000 1.100000 5.000000 -101.446518 57.196449 13562.830078
6.800000 1.100000 5.008333 5.434978 -52.102272 2744.185791
6.800000 1.100000 5.016667 -99.366760 93.573715 18629.792969
6.800000 1.200000 4.983333 7.054852 -21.574856 515.245300
6.800000 1.200000 4.991667 -56.188217 117.237320 16901.705078
6.800000 1.200000 5.000000 -136.213196 -140.410767 38269.218750
6.800000 1.200000 5.008333 64.824089 -58.030457 7569.696289
6.800000 1.200000 5.016667 -25.103199 -135.274933 18929.476562
6.900000 0.800000 4.983333 -78.886124 35.973038 7517.080078
6.900000 0.800000 4.991667 -60.492928 -209.006073 47342.933594
6.900000 0.800000 5.000000 145.520721 40.702240 22832.953125
6.900000 0.800000 5.008333 -135.710419 -21.562904 18882.277344
6.900000 0.800000 5.016667 77.359718 -88.001694 13728.824219
6.900000 0.900000 4.983333 106.225983 -551.343628 315263.750000
6.900000 0.900000 4.991667 -73.621033 441.981232 200767.468750
6.900000 0.900000 5.000000 -738.563110 -435.249115 734917.250000
6.900000 0.900000 5.008333 89.617790 -723.737305 531827.062500
6.900000 0.900000 5.016667 419.896210 -411.875366 345954.125000
6.900000 1.000000 4.983333 825.137634 96.061340 690079.875000
6.900000 1.000000 4.991667 -792.747314 -95.282043 637527.000000
6.900000 1.000000 5.000000 532.355652 -1173.252319 1659923.500000
6.900000 1.000000 5.008333 935.751038 -73.335403 881008.062500
6.900000 1.000000 5.016667 772.357361 450.522247 799506.187500
6.900000 1.100000 4.983333 50.327209 509.963379 262595.468750
6.900000 1.100000 4.991667 -83.873413 -439.074585 199821.234375
6.900000 1.100000 5.000000 682.077576 109.991905 477328.031250
6.900000 1.100000 5.008333 214.262619 489.288147 285311.375000
6.900000 1.100000 5.016667 -199.875732 526.699585 317362.750000
6.900000 1.200000 4.983333 46.070438 127.938690 18490.792969
6.900000 1.200000 4.991667 -192.862442 -78.642174 43380.511719
6.900000 1.200000 5.000000 168.244629 -143.192963 48810.480469
6.900000 1.200000 5.008333 44.881199 132.251877 19504.880859
6.900000 1.200000 5.016667 0.091999 -26.569490 705.946289
7.000000 0.800000 4.983333 -121.247551 -129.367065 31436.806641
7.000000 0.800000 4.991667 215.771683 -125.641479 62343.199219
7.000000 0.800000 5.000000 -28.856802 101.628220 11161.009766
7.000000 0.800000 5.008333 29.379375 -206.774536 43618.855469
7.000000 0.800000 5.016667 200.439178 41.712654 41915.808594
7.000000 0.900000 4.983333 831.935303 3.991623 692132.312500
7.000000 0.900000 4.991667 -646.974854 -2.216675 418581.375000
7.000000 0.900000 5.000000 492.051605 -1164.675415 1598583.625000
7.000000 0.900000 5.008333 1078.661865 1.017593 1163512.375000
7.000000 0.900000 5.016667 695.326050 528.826660 763135.937500
7.000000 1.000000 4.983333 49.277542 1200.065430 1442585.250000
7.000000 1.000000 4.991667 -40.008362 -1154.135498 1333629.375000
7.000000 1.000000 5.000000 1839.450195 517.052002 3650919.750000
7.000000 1.000000 5.008333 275.602814 1375.324707 1967474.875000
7.000000 1.000000 5.016667 -445.668671 1219.149780 1684946.750000
7.000000 1.100000 4.983333 -736.919678 183.037048 576553.187500
7.000000 1.100000 4.991667 666.983826 -182.908630 478323.000000
7.000000 1.100000 5.000000 -86.051926 1102.611572 1223157.125000
7.000000 1.100000 5.008333 -723.303284 359.953491 652734.125000
7.000000 1.100000 5.016667 -872.097107 -125.746223 776365.500000
7.000000 1.200000 4.983333 -165.425110 29.931566 28261.365234
7.000000 1.200000 4.991667 75.001457 -196.157684 44103.054688
7.000000 1.200000 5.000000 135.522217 98.913101 28150.074219
7.000000 1.200000 5.008333 -96.233017 33.952621 10413.574219
7.000000 1.200000 5.016667 42.849533 -113.614838 14744.414062
7.100000 0.800000 4.983333 75.553741 -78.220642 11826.835938
7.100000 0.800000 4.991667 51.331562 112.989311 15401.513672
7.100000 0.800000 5.000000 -76.519905 8.445811 5926.627441
7.100000 0.800000 5.008333 96.053307 -62.464207 13128.014648
7.100000 0.800000 5.016667 78.103004 182.569000 39431.519531
7.100000 0.900000 4.983333 74.189598 462.120270 219059.234375
7.100000 0.900000 4.991667 -28.206055 -421.000702 178037.171875
7.100000 0.900000 5.000000 768.523193 162.724487 617107.125000
7.100000 0.900000 5.008333 154.441910 671.077271 474197.000000
7.100000 0.900000 5.016667 -307.958344 499.966614 344804.937500
7.100000 1.000000 4.983333 -664.062683 97.888672 450561.437500
7.100000 1.000000 4.991667 693.962402 -99.118134 491408.218750
7.100000 1.000000 5.000000 -110.841507 1168.251465 1377097.375000
7.100000 1.000000 5.008333 -855.079102 318.024994 832300.125000
7.100000 1.000000 5.016667 -757.469055 -199.624557 613609.312500
7.100000 1.100000 4.983333 -129.361206 -459.798218 228148.734375
7.100000 1.100000 4.991667 180.409836 356.907440 159930.625000
7.100000 1.100000 5.000000 -638.591309 33.000416 408887.906250
7.100000 1.100000 5.008333 -249.821533 -436.833435 253234.250000
7.100000 1.100000 5.016667 39.775352 -534.435120 287203.000000
7.100000 1.200000 4.983333 75.332466 -96.286499 14946.070312
7.100000 1.200000 4.991667 155.311600 65.882133 28462.148438
7.100000 1.200000 5.000000 34.892609 137.314590 20072.791016
7.100000 1.200000 5.008333 -21.349771 28.297638 1256.569092
7.100000 1.200000 5.016667 110.922363 77.096405 18247.625000
7.200000 0.800000 4.983333 -33.138855 32.561527 2158.436768
7.200000 0.800000 4.991667 -38.444626 -90.544281 9676.255859
7.200000 0.800000 5.000000 -1.155973 -77.940247 6076.018555
7.200000 0.800000 5.008333 119.884987 -50.152836 16887.716797
7.200000 0.800000 5.016667 -36.261913 124.390732 16787.980469
7.200000 0.900000 4.983333 71.420036 -57.680195 8427.826172
7.200000 0.900000 4.991667 99.653656 56.087753 13076.687500
7.200000 0.900000 5.000000 64.851730 46.388004 6357.593750
7.200000 0.900000 5.008333 -16.083191 114.257050 13313.342773
7.200000 0.900000 5.016667 -33.759827 -61.505478 4922.649902
7.200000 1.000000 4.983333 116.085945 69.668762 18329.683594
7.200000 1.000000 4.991667 -46.790276 42.032074 3956.024902
7.200000 1.000000 5.000000 -4.120547 45.636452 2099.664795
7.200000 1.000000 5.008333 -51.570145 -49.317577 5091.703125
7.200000 1.000000 5.016667 79.975922 35.808903 7678.425293
7.200000 1.100000 4.983333 80.998596 68.728828 11284.423828
7.200000 1.100000 4.991667 78.404251 42.590969 7961.217285
7.200000 1.100000 5.000000 28.916246 98.704353 10578.699219
7.200000 1.100000 5.008333 23.490307 56.291939 3720.576904
7.200000 1.100000 5.016667 -16.254078 81.641190 6929.478516
7.200000 1.200000 4.983333 47.414421 174.720932 32775.531250
7.200000 1.200000 4.991667 -70.944778 115.777496 18437.589844
7.200000 1.200000 5.000000 -106.368469 116.749138 24944.613281
7.200000 1.200000 5.008333 -126.388840 2.203362 15978.993164
7.200000 1.200000 5.016667 -86.300133 31.310764 8428.077148
