#kx 	ky 	kz 	real 	imag 	intensity
6.800000 0.800000 4.800000 -32.547829 11.955343 1202.291504
6.800000 0.800000 4.840000 -32.596375 -1.010529 1063.544800
6.800000 0.800000 4.880000 -26.579060 -12.173123 854.631348
6.800000 0.800000 4.920000 -15.960563 -19.035683 617.096802
6.800000 0.800000 4.960000 -3.178472 -19.556952 392.577057
6.800000 0.800000 5.000000 7.923441 -13.009958 232.039932
6.800000 0.800000 5.040000 13.217935 -1.481750 176.909378
6.800000 0.800000 5.080000 10.920330 10.314098 225.634232
6.800000 0.800000 5.120000 3.120804 17.848572 328.310913
6.800000 0.800000 5.160000 -5.975754 19.823032 428.662231
6.800000 0.800000 5.200000 -13.614489 18.111931 513.396362
6.800000 0.840000 4.800000 -30.979721 -14.344045 1165.494751
6.800000 0.840000 4.840000 -23.332699 -21.009361 985.808105
6.800000 0.840000 4.880000 -13.904476 -24.235462 780.692078
6.800000 0.840000 4.920000 -3.759676 -22.442202 517.787598
6.800000 0.840000 4.960000 3.296830 -14.922443 233.548416
6.800000 0.840000 5.000000 3.153108 -5.301423 38.047180
6.800000 0.840000 5.040000 -3.480814 -0.224348 12.166398
6.800000 0.840000 5.080000 -9.901039 -3.069950 107.455170
6.800000 0.840000 5.120000 -9.301756 -9.438526 175.608429
6.800000 0.840000 5.160000 -2.378878 -10.686985 119.870705
6.800000 0.840000 5.200000 2.189423 -3.183102 14.925708
6.800000 0.880000 4.800000 -10.414095 -32.020309 1133.753540
6.800000 0.880000 4.840000 -1.494479 -28.872486 835.853943
6.800000 0.880000 4.880000 4.871223 -23.471649 574.647156
6.800000 0.880000 4.920000 7.531460 -15.347891 292.280640
6.800000 0.880000 4.960000 3.201722 -7.357623 64.385635
6.800000 0.880000 5.000000 -7.020923 -6.696642 94.138367
6.800000 0.880000 5.040000 -13.979341 -17.405483 498.372803
6.800000 0.880000 5.080000 -7.206861 -32.469139 1106.183838
6.800000 0.880000 5.120000 12.932774 -36.828640 1523.605347
6.800000 0.880000 5.160000 31.597832 -21.429161 1457.631958
6.800000 0.880000 5.200000 31.191500 5.361744 1001.657959
6.800000 0.920000 4.800000 16.081829 -29.022131 1100.909302
6.800000 0.920000 4.840000 19.021849 -18.113266 689.921143
6.800000 0.920000 4.880000 16.741266 -8.821007 358.080139
6.800000 0.920000 4.920000 8.995125 -2.453950 86.934143
6.800000 0.920000 4.960000 -3.206353 -4.266125 28.480520
6.800000 0.920000 5.000000 -11.310184 -18.715759 478.199890
6.800000 0.920000 5.040000 -2.890916 -39.515656 1569.844482
6.800000 0.920000 5.080000 24.648685 -48.751160 2984.233154
6.800000 0.920000 5.120000 55.280842 -31.266407 4033.559570
6.800000 0.920000 5.160000 63.894516 7.938982 4145.536621
6.800000 0.920000 5.200000 38.749161 42.859581 3338.441162
6.800000 0.960000 4.800000 30.602642 -8.305724 1005.506775
6.800000 0.960000 4.840000 23.796745 3.622086 579.404602
6.800000 0.960000 4.880000 12.645834 8.788093 237.147690
6.800000 0.960000 4.920000 -0.336210 5.312435 28.335005
6.800000 0.960000 4.960000 -8.803288 -9.600414 169.665833
6.800000 0.960000 5.000000 -1.677860 -31.638205 1003.791199
6.800000 0.960000 5.040000 26.252541 -44.536697 2672.713379
6.800000 0.960000 5.080000 62.298359 -30.068342 4785.190430
6.800000 0.960000 5.120000 79.463776 12.771482 6477.602539
6.800000 0.960000 5.160000 58.072021 59.737438 6940.920898
6.800000 0.960000 5.200000 6.497562 77.325233 6021.410156
6.800000 1.000000 4.800000 24.624165 14.370477 812.860107
6.800000 1.000000 4.840000 10.292473 19.779238 497.153229
6.800000 1.000000 4.880000 -3.395767 15.036537 237.628677
6.800000 1.000000 4.920000 -11.255880 0.881721 127.472275
6.800000 1.000000 4.960000 -5.850261 -18.918425 392.132355
6.800000 1.000000 5.000000 17.792233 -32.245953 1356.364990
6.800000 1.000000 5.040000 51.663937 -22.581112 3179.068848
6.800000 1.000000 5.080000 72.758018 15.605947 5537.274902
6.800000 1.000000 5.120000 58.518486 64.673828 7607.117188
6.800000 1.000000 5.160000 8.876762 91.693336 8486.464844
6.800000 1.000000 5.200000 -47.643219 74.337265 7795.905273
6.800000 1.040000 4.800000 5.140300 23.394375 573.719421
6.800000 1.040000 4.840000 -9.730494 18.600702 440.668640
6.800000 1.040000 4.880000 -17.077990 5.099549 317.663116
6.800000 1.040000 4.920000 -12.530011 -11.562209 290.685852
6.800000 1.040000 4.960000 5.930879 -22.510254 541.886841
6.800000 1.040000 5.000000 32.826004 -16.118568 1337.354736
6.800000 1.040000 5.040000 51.784000 13.395916 2861.033203
6.800000 1.040000 5.080000 43.517883 55.328785 4955.080566
6.800000 1.040000 5.120000 2.942145 83.640900 7004.456543
6.800000 1.040000 5.160000 -50.608955 74.916954 8173.816406
6.800000 1.040000 5.200000 -83.884674 29.485054 7906.006836
6.800000 1.080000 4.800000 -12.472786 15.233062 387.616577
6.800000 1.080000 4.840000 -20.505424 2.661033 427.553528
6.800000 1.080000 4.880000 -16.602604 -11.963611 418.774414
6.800000 1.080000 4.920000 -1.773946 -20.128658 408.309753
6.800000 1.080000 4.960000 17.861086 -14.595273 532.040405
6.800000 1.080000 5.000000 30.902225 7.122825 1005.682190
6.800000 1.080000 5.040000 24.622723 37.670288 2025.329102
6.800000 1.080000 5.080000 -5.448267 59.522190 3572.574707
6.800000 1.080000 5.120000 -47.537514 54.771442 5259.726074
6.800000 1.080000 5.160000 -77.555473 20.095526 6418.681641
6.800000 1.080000 5.200000 -75.772171 -26.899708 6465.016113
6.800000 1.120000 4.800000 -17.625122 -1.008022 311.661041
6.800000 1.120000 4.840000 -15.592436 -14.706153 459.394989
6.800000 1.120000 4.880000 -3.046678 -21.982250 492.501587
6.800000 1.120000 4.920000 12.175724 -16.675081 426.306610
6.800000 1.120000 4.960000 19.877163 0.378666 395.244995
6.800000 1.120000 5.000000 12.501434 21.189020 605.260437
6.800000 1.120000 5.040000 -10.212809 33.514050 1227.493042
6.800000 1.120000 5.080000 -38.993229 27.122421 2256.097656
6.800000 1.120000 5.120000 -58.424332 1.210938 3414.868896
6.800000 1.120000 5.160000 -56.200344 -32.671684 4225.917969
6.800000 1.120000 5.200000 -32.502884 -56.642700 4264.833008
6.800000 1.160000 4.800000 -11.430000 -13.575365 314.935455
6.800000 1.160000 4.840000 -1.636809 -22.132175 492.512329
6.800000 1.160000 4.880000 11.990430 -18.838829 498.671906
6.800000 1.160000 4.920000 18.176079 -4.543880 351.016693
6.800000 1.160000 4.960000 10.233543 11.200544 230.177612
6.800000 1.160000 5.000000 -8.878736 16.798510 361.021851
6.800000 1.160000 5.040000 -28.330624 6.572230 845.818420
6.800000 1.160000 5.080000 -36.460884 -15.344638 1564.854004
6.800000 1.160000 5.120000 -28.294390 -37.633797 2216.875000
6.800000 1.160000 5.160000 -8.593725 -49.099525 2484.615479
6.800000 1.160000 5.200000 11.580627 -45.807243 2232.414307
6.800000 1.200000 4.800000 -2.237665 -18.120052 333.343445
6.800000 1.200000 4.840000 10.185587 -19.314476 476.795166
6.800000 1.200000 4.880000 18.577972 -8.690647 420.668396
6.800000 1.200000 4.920000 13.776085 5.498152 220.010193
6.800000 1.200000 4.960000 -2.493764 10.264010 111.568771
6.800000 1.200000 5.000000 -18.082561 -0.819255 327.650208
6.800000 1.200000 5.040000 -20.239803 -21.565495 874.720215
6.800000 1.200000 5.080000 -6.250900 -37.919647 1476.973389
6.800000 1.200000 5.120000 14.403302 -39.371529 1757.572388
6.800000 1.200000 5.160000 28.057991 -27.142475 1523.964844
6.800000 1.200000 5.200000 27.907515 -12.426177 933.239258
6.840000 0.800000 4.800000 -43.733238 5.534756 1943.229614
6.840000 0.800000 4.840000 -41.168568 -11.493162 1826.943726
6.840000 0.800000 4.880000 -29.173458 -24.961491 1474.166626
6.840000 0.800000 4.920000 -11.625667 -29.305004 993.939392
6.840000 0.800000 4.960000 4.521631 -22.884247 544.133911
6.840000 0.800000 5.000000 12.947997 -9.256983 253.342377
6.840000 0.800000 5.040000 11.609861 4.852442 158.335068
6.840000 0.800000 5.080000 3.527557 13.741529 201.273300
6.840000 0.800000 5.120000 -5.970497 15.921377 289.137085
6.840000 0.800000 5.160000 -13.315577 13.756936 366.557861
6.840000 0.800000 5.200000 -18.450260 10.059570 441.607056
6.840000 0.840000 4.800000 -30.812542 -23.915237 1521.351318
6.840000 0.840000 4.840000 -17.127880 -30.562202 1227.412476
6.840000 0.840000 4.880000 -1.714779 -27.748693 772.930481
6.840000 0.840000 4.920000 7.773329 -15.912755 313.640411
6.840000 0.840000 4.960000 6.014242 -2.180731 40.926697
6.840000 0.840000 5.000000 -4.436317 4.052582 36.104328
6.840000 0.840000 5.040000 -14.019430 -0.892477 197.340927
6.840000 0.840000 5.080000 -14.082081 -11.026348 319.885376
6.840000 0.840000 5.120000 -5.044479 -15.662862 270.772003
6.840000 0.840000 5.160000 3.540131 -9.524055 103.240158
6.840000 0.840000 5.200000 1.943874 1.643738 6.480521
6.840000 0.880000 4.800000 0.526653 -33.331776 1111.284668
6.840000 0.880000 4.840000 14.442639 -22.626858 720.564514
6.840000 0.880000 4.880000 17.953749 -3.950487 337.943451
6.840000 0.880000 4.920000 5.760834 12.478089 188.889923
6.840000 0.880000 4.960000 -16.460764 13.441826 451.639435
6.840000 0.880000 5.000000 -32.293812 -5.351435 1071.528076
6.840000 0.880000 5.040000 -26.657352 -31.960659 1732.098145
6.840000 0.880000 5.080000 -0.306213 -45.259644 2048.529053
6.840000 0.880000 5.120000 27.941614 -32.642822 1846.287598
6.840000 0.880000 5.160000 35.880226 -2.477936 1293.530762
6.840000 0.880000 5.200000 17.355490 21.653875 770.103333
6.840000 0.920000 4.800000 26.956358 -15.277514 960.047729
6.840000 0.920000 4.840000 27.018250 8.526110 802.680298
6.840000 0.920000 4.880000 8.133305 28.690680 889.305725
6.840000 0.920000 4.920000 -23.986658 28.928919 1412.242065
6.840000 0.920000 4.960000 -49.012123 1.522249 2404.505371
6.840000 0.920000 5.000000 -44.534184 -40.441666 3618.821777
6.840000 0.920000 5.040000 -6.482918 -67.534706 4602.964844
6.840000 0.920000 5.080000 42.160393 -56.330505 4950.624512
6.840000 0.920000 5.120000 66.536377 -11.193850 4552.391602
6.840000 0.920000 5.160000 48.459736 36.175674 3657.025391
6.840000 0.920000 5.200000 2.692169 51.845467 2695.200195
6.840000 0.960000 4.800000 28.564949 15.253915 1048.638184
6.840000 0.960000 4.840000 8.441143 37.368340 1467.645752
6.840000 0.960000 4.880000 -27.393412 40.075176 2356.418701
6.840000 0.960000 4.920000 -59.660255 11.979177 3702.846924
6.840000 0.960000 4.960000 -61.857815 -37.871140 5260.612305
6.840000 0.960000 5.000000 -22.277187 -78.284103 6624.673828
6.840000 0.960000 5.040000 39.684788 -76.523773 7430.770020
6.840000 0.960000 5.080000 82.488647 -27.007509 7533.782715
6.840000 0.960000 5.120000 74.213501 39.026474 7030.708984
6.840000 0.960000 5.160000 20.293459 75.717163 6144.913086
6.840000 0.960000 5.200000 -39.312946 59.547737 5091.440918
6.840000 1.000000 4.800000 6.098806 33.586300 1165.234985
6.840000 1.000000 4.840000 -26.450039 38.953129 2216.950684
6.840000 1.000000 4.880000 -59.800926 16.426392 3845.977295
6.840000 1.000000 4.920000 -69.187607 -30.895248 5741.441406
6.840000 1.000000 4.960000 -37.409134 -77.309387 7376.184570
6.840000 1.000000 5.000000 25.192020 -87.668457 8320.396484
6.840000 1.000000 5.040000 80.145599 -45.821915 8522.964844
6.840000 1.000000 5.080000 87.153702 26.346209 8289.890625
6.840000 1.000000 5.120000 37.866402 80.790947 7961.041504
6.840000 1.000000 5.160000 -33.987244 80.231133 7592.167480
6.840000 1.000000 5.200000 -78.286987 28.630831 6948.577148
6.840000 1.040000 4.800000 -20.545950 26.654013 1132.572510
6.840000 1.040000 4.840000 -48.679943 11.713722 2506.947998
6.840000 1.040000 4.880000 -61.137711 -25.237709 4374.761719
6.840000 1.040000 4.920000 -40.886551 -67.348068 6207.472168
6.840000 1.040000 4.960000 10.413515 -85.239136 7374.151855
6.840000 1.040000 5.000000 65.050278 -57.948380 7589.553223
6.840000 1.040000 5.040000 84.525734 5.430676 7174.091797
6.840000 1.040000 5.080000 49.885914 65.762894 6813.362793
6.840000 1.040000 5.120000 -19.004253 81.242325 6961.477051
6.840000 1.040000 5.160000 -75.622337 41.166756 7413.439453
6.840000 1.040000 5.200000 -82.909325 -24.369804 7467.843262
6.840000 1.080000 4.800000 -30.666142 2.807256 948.292908
6.840000 1.080000 4.840000 -41.356663 -21.783752 2184.905273
6.840000 1.080000 4.880000 -30.322372 -52.406265 3665.863037
6.840000 1.080000 4.920000 4.374026 -69.584488 4861.133301
6.840000 1.080000 4.960000 46.886845 -55.559425 5285.226074
6.840000 1.080000 5.000000 69.179947 -10.588737 4897.986816
6.840000 1.080000 5.040000 50.764118 40.781464 4240.123535
6.840000 1.080000 5.080000 -1.982862 63.839687 4079.437256
6.840000 1.080000 5.120000 -56.028748 40.348545 4767.225586
6.840000 1.080000 5.160000 -75.198318 -14.891653 5876.548340
6.840000 1.080000 5.200000 -48.554386 -64.208969 6480.319824
6.840000 1.120000 4.800000 -19.939075 -18.121223 725.945496
6.840000 1.120000 4.840000 -13.484375 -36.564102 1518.761963
6.840000 1.120000 4.880000 6.961972 -47.188377 2275.211914
6.840000 1.120000 4.920000 32.701950 -39.884003 2660.151123
6.840000 1.120000 4.960000 48.013973 -13.534225 2488.516846
6.840000 1.120000 5.000000 39.380665 19.355309 1925.464722
6.840000 1.120000 5.040000 7.100689 37.761349 1476.339233
6.840000 1.120000 5.080000 -31.005167 26.580847 1667.861816
6.840000 1.120000 5.120000 -50.084866 -10.111830 2610.742676
6.840000 1.120000 5.160000 -36.783127 -49.648792 3818.000977
6.840000 1.120000 5.200000 -0.303442 -67.078743 4499.649902
6.840000 1.160000 4.800000 -0.819330 -23.370323 546.843323
6.840000 1.160000 4.840000 11.352999 -27.325335 875.564453
6.840000 1.160000 4.880000 23.901062 -20.937071 1009.621704
6.840000 1.160000 4.920000 28.810080 -6.474174 871.935608
6.840000 1.160000 4.960000 21.652363 8.433876 539.955078
6.840000 1.160000 5.000000 4.701736 14.519043 232.908936
6.840000 1.160000 5.040000 -13.185215 6.282465 213.319275
6.840000 1.160000 5.080000 -20.973444 -13.633709 625.763367
6.840000 1.160000 5.120000 -12.551773 -34.712936 1362.534912
6.840000 1.160000 5.160000 8.302277 -44.821701 2077.912598
6.840000 1.160000 5.200000 29.837646 -38.690929 2387.273193
6.840000 1.200000 4.800000 11.983820 -16.200293 406.061432
6.840000 1.200000 4.840000 18.500065 -9.480379 432.130005
6.840000 1.200000 4.880000 16.986622 0.343960 288.663635
6.840000 1.200000 4.920000 7.708680 5.308416 87.603035
6.840000 1.200000 4.960000 -2.676540 0.738167 7.708759
6.840000 1.200000 5.000000 -6.338966 -11.029997 161.843323
6.840000 1.200000 5.040000 -0.170925 -22.586060 510.159302
6.840000 1.200000 5.080000 12.329432 -27.044859 883.439270
6.840000 1.200000 5.120000 24.088120 -22.695694 1095.332031
6.840000 1.200000 5.160000 29.699026 -13.489592 1064.001221
6.840000 1.200000 5.200000 28.830713 -5.495710 861.412842
6.880000 0.800000 4.800000 -48.701572 -11.606738 2506.559570
6.880000 0.800000 4.840000 -39.695717 -30.226597 2489.396973
6.880000 0.800000 4.880000 -20.155888 -40.558800 2051.276123
6.880000 0.800000 4.920000 1.555435 -36.995808 1371.109253
6.880000 0.800000 4.960000 15.439007 -21.922295 718.949951
6.880000 0.800000 5.000000 16.611607 -4.079117 292.584656
6.880000 0.800000 5.040000 8.066579 7.714870 124.588921
6.880000 0.800000 5.080000 -2.594711 10.372692 114.325272
6.880000 0.800000 5.120000 -9.405430 7.195149 140.232285
6.880000 0.800000 5.160000 -11.814778 3.447594 151.474884
6.880000 0.800000 5.200000 -13.063635 1.222836 172.153885
6.880000 0.840000 4.800000 -21.875381 -34.688087 1681.795776
6.880000 0.840000 4.840000 -3.161016 -34.561623 1204.497803
6.880000 0.840000 4.880000 10.603874 -21.174755 560.812378
6.880000 0.840000 4.920000 9.990402 -2.854542 107.956543
6.880000 0.840000 4.960000 -3.670444 6.960144 61.915768
6.880000 0.840000 5.000000 -18.173912 1.308041 332.002045
6.880000 0.840000 5.040000 -20.673332 -13.624376 613.010254
6.880000 0.840000 5.080000 -9.158428 -23.726700 646.833130
6.880000 0.840000 5.120000 5.745138 -19.702648 421.200958
6.880000 0.840000 5.160000 10.649965 -5.470135 143.344131
6.880000 0.840000 5.200000 1.772116 5.719543 35.853569
6.880000 0.880000 4.800000 12.758623 -27.217350 903.566589
6.880000 0.880000 4.840000 21.859232 -3.887578 492.939270
6.880000 0.880000 4.880000 8.294491 21.836056 545.611877
6.880000 0.880000 4.920000 -23.969015 28.466980 1384.882568
6.880000 0.880000 4.960000 -52.368439 5.274551 2770.274170
6.880000 0.880000 5.000000 -52.665707 -34.634544 3973.228516
6.880000 0.880000 5.040000 -20.836033 -62.088806 4289.160156
6.880000 0.880000 5.080000 21.135986 -55.811077 3561.606201
6.880000 0.880000 5.120000 42.747505 -21.132292 2273.923096
6.880000 0.880000 5.160000 30.681160 14.409840 1148.977051
6.880000 0.880000 5.200000 -0.783321 24.933340 622.285034
6.880000 0.920000 4.800000 26.420076 4.563705 718.847839
6.880000 0.920000 4.840000 8.401184 36.670990 1415.341309
6.880000 0.920000 4.880000 -36.412815 46.820160 3518.020508
6.880000 0.920000 4.920000 -81.198669 15.263615 6826.202148
6.880000 0.920000 4.960000 -89.029495 -46.716106 10108.645508
6.880000 0.920000 5.000000 -45.159382 -98.702927 11781.637695
6.880000 0.920000 5.040000 25.373665 -101.790283 11005.084961
6.880000 0.920000 5.080000 74.565994 -52.308353 8296.250977
6.880000 0.920000 5.120000 70.356812 13.255629 5125.792969
6.880000 0.920000 5.160000 22.762539 48.355972 2856.433105
6.880000 0.920000 5.200000 -26.678024 34.625214 1910.622314
6.880000 0.960000 4.800000 8.222929 32.796268 1143.211792
6.880000 0.960000 4.840000 -36.175987 48.880482 3698.003418
6.880000 0.960000 4.880000 -90.086105 21.547188 8579.788086
6.880000 0.960000 4.920000 -111.004471 -48.343891 14659.124023
6.880000 0.960000 4.960000 -69.906639 -120.804192 19480.589844
6.880000 0.960000 5.000000 17.508392 -142.953064 20742.121094
6.880000 0.960000 5.040000 95.849442 -93.433151 17916.869141
6.880000 0.960000 5.080000 112.415817 -4.358336 12656.311523
6.880000 0.960000 5.120000 60.742775 62.473824 7592.663086
6.880000 0.960000 5.160000 -14.692255 65.785233 4543.559082
6.880000 0.960000 5.200000 -57.351742 16.396988 3558.083496
6.880000 1.000000 4.800000 -24.710960 33.163078 1710.421387
6.880000 1.000000 4.840000 -74.466965 17.844091 5863.740234
6.880000 1.000000 4.880000 -104.864441 -42.293480 12785.289062
6.880000 1.000000 4.920000 -78.553802 -119.632408 20482.613281
6.880000 1.000000 4.960000 5.410656 -160.147949 25676.640625
6.880000 1.000000 5.000000 99.986374 -125.983826 25869.199219
6.880000 1.000000 5.040000 141.866608 -32.048775 21153.257812
6.880000 1.000000 5.080000 102.887459 60.131172 14201.586914
6.880000 1.000000 5.120000 14.848341 90.289375 8372.644531
6.880000 1.000000 5.160000 -56.609859 47.649048 5475.107910
6.880000 1.000000 5.200000 -66.243774 -23.903622 4959.621094
6.880000 1.040000 4.800000 -43.420082 6.522728 1927.849609
6.880000 1.040000 4.840000 -73.313560 -32.950928 6460.641602
6.880000 1.040000 4.880000 -63.936607 -96.781540 13454.555664
6.880000 1.040000 4.920000 -1.037385 -143.662857 20640.091797
6.880000 1.040000 4.960000 87.625519 -130.918411 24817.863281
6.880000 1.040000 5.000000 145.223572 -53.452026 23947.005859
6.880000 1.040000 5.040000 129.450409 43.921127 18686.472656
6.880000 1.040000 5.080000 49.829460 97.599960 12008.726562
6.880000 1.040000 5.120000 -37.013371 75.753975 7108.654297
6.880000 1.040000 5.160000 -72.658997 3.467212 5291.351074
6.880000 1.040000 5.200000 -42.895950 -60.566944 5508.416992
6.880000 1.080000 4.800000 -33.410553 -23.616241 1673.991943
6.880000 1.080000 4.840000 -34.191654 -63.627159 5217.484375
6.880000 1.080000 4.880000 1.977991 -101.593307 10325.112305
6.880000 1.080000 4.920000 65.932838 -104.052277 15174.015625
6.880000 1.080000 4.960000 120.331017 -54.991058 17503.570312
6.880000 1.080000 5.000000 124.765244 24.001774 16142.451172
6.880000 1.080000 5.040000 70.131073 83.956024 11966.980469
6.880000 1.080000 5.080000 -9.268963 85.343918 7369.498047
6.880000 1.080000 5.120000 -60.278419 30.688187 4575.252441
6.880000 1.080000 5.160000 -52.752003 -37.102932 4159.401367
6.880000 1.080000 5.200000 -1.890405 -70.276199 4942.317871
6.880000 1.120000 4.800000 -5.607603 -34.021523 1188.909180
6.880000 1.120000 4.840000 10.274060 -54.647045 3091.855957
6.880000 1.120000 4.880000 44.141075 -60.171959 5569.099121
6.880000 1.120000 4.920000 79.238091 -36.926872 7642.268555
6.880000 1.120000 4.960000 90.371246 10.207611 8271.158203
6.880000 1.120000 5.000000 63.461697 55.462746 7103.502930
6.880000 1.120000 5.040000 10.614365 68.768173 4841.726074
6.880000 1.120000 5.080000 -35.155590 39.875614 2825.979980
6.880000 1.120000 5.120000 -44.256676 -11.319096 2086.775146
6.880000 1.120000 5.160000 -13.885750 -49.318977 2625.175537
6.880000 1.120000 5.200000 30.519218 -50.900818 3522.315918
6.880000 1.160000 4.800000 16.992682 -21.689297 759.176819
6.880000 1.160000 4.840000 28.764515 -21.733452 1299.740234
6.880000 1.160000 4.880000 40.839397 -12.461443 1823.143921
6.880000 1.160000 4.920000 45.358597 5.521343 2087.887695
6.880000 1.160000 4.960000 36.004478 24.779293 1910.335938
6.880000 1.160000 5.000000 14.135651 33.662952 1333.010986
6.880000 1.160000 5.040000 -9.134254 24.331059 675.435059
6.880000 1.160000 5.080000 -19.068008 0.424191 363.768890
6.880000 1.160000 5.120000 -8.407162 -23.484518 622.202942
6.880000 1.160000 5.160000 16.070665 -31.977169 1280.805664
6.880000 1.160000 5.200000 38.201088 -20.600430 1883.700806
6.880000 1.200000 4.800000 21.625904 -2.372802 473.309906
6.880000 1.200000 4.840000 18.839062 3.946651 370.486298
6.880000 1.200000 4.880000 12.701177 6.231110 200.146606
6.880000 1.200000 4.920000 7.597589 3.656912 71.096367
6.880000 1.200000 4.960000 6.334900 -0.948634 41.030865
6.880000 1.200000 5.000000 8.281353 -4.362061 87.608383
6.880000 1.200000 5.040000 11.175716 -5.683491 157.198700
6.880000 1.200000 5.080000 13.883989 -5.961575 228.305542
6.880000 1.200000 5.120000 17.016878 -5.867468 324.001312
6.880000 1.200000 5.160000 21.187057 -4.495750 469.103180
6.880000 1.200000 5.200000 25.445213 -0.495554 647.704407
6.920000 0.800000 4.800000 -38.528675 -29.880245 2377.287842
6.920000 0.800000 4.840000 -23.068333 -44.347664 2498.863281
6.920000 0.800000 4.880000 -0.347599 -46.427017 2155.588867
6.920000 0.800000 4.920000 18.669453 -34.072704 1509.497681
6.920000 0.800000 4.960000 25.153858 -14.243454 835.592529
6.920000 0.800000 5.000000 18.579180 2.172512 349.905731
6.920000 0.800000 5.040000 6.386032 8.258427 108.983017
6.920000 0.800000 5.080000 -2.437504 5.347806 34.540447
6.920000 0.800000 5.120000 -4.222870 0.373594 17.972202
6.920000 0.800000 5.160000 -2.219475 -0.926720 5.784878
6.920000 0.800000 5.200000 -1.993743 1.280842 5.615567
6.920000 0.840000 4.800000 -5.290910 -36.407433 1353.494873
6.920000 0.840000 4.840000 10.602772 -26.358364 807.182129
6.920000 0.840000 4.880000 13.379906 -7.343865 232.954239
6.920000 0.840000 4.920000 0.314690 5.936550 35.341656
6.920000 0.840000 4.960000 -17.347935 2.484146 307.121826
6.920000 0.840000 5.000000 -23.740070 -14.449162 772.369202
6.920000 0.840000 5.040000 -12.571533 -29.726654 1041.717407
6.920000 0.840000 5.080000 7.172081 -29.704145 933.774963
6.920000 0.840000 5.120000 19.445885 -14.171701 578.979553
6.920000 0.840000 5.160000 15.370564 4.097282 253.041946
6.920000 0.840000 5.200000 0.339338 11.232515 126.284554
6.920000 0.880000 4.800000 18.179216 -12.614035 489.597778
6.920000 0.880000 4.840000 10.774956 16.021542 372.789459
6.920000 0.880000 4.880000 -22.572104 30.309563 1428.169434
6.920000 0.880000 4.920000 -60.273460 10.285309 3738.677734
6.920000 0.880000 4.960000 -70.366089 -36.872169 6310.943359
6.920000 0.880000 5.000000 -39.167801 -78.574074 7708.001953
6.920000 0.880000 5.040000 14.130547 -83.252213 7130.603027
6.920000 0.880000 5.080000 52.227680 -47.763958 5009.125977
6.920000 0.880000 5.120000 51.040123 0.060051 2605.097900
6.920000 0.880000 5.160000 18.733240 26.029797 1028.484619
6.920000 0.880000 5.200000 -14.321661 18.084690 532.166016
6.920000 0.920000 4.800000 10.373312 19.420061 484.744354
6.920000 0.920000 4.840000 -30.793081 40.726765 2606.883301
6.920000 0.920000 4.880000 -86.451523 17.832073 7791.848633
6.920000 0.920000 4.920000 -110.800003 -50.811237 14858.421875
6.920000 0.920000 4.960000 -72.514389 -124.076996 20653.437500
6.920000 0.920000 5.000000 12.432564 -148.093597 22086.281250
6.920000 0.920000 5.040000 88.716141 -102.608170 18398.990234
6.920000 0.920000 5.080000 106.406616 -20.272022 11733.323242
6.920000 0.920000 5.120000 62.120369 40.586838 5506.231445
6.920000 0.920000 5.160000 -1.252850 44.859718 2013.963867
6.920000 0.920000 5.200000 -34.542038 6.209913 1231.715332
6.920000 0.960000 4.800000 -21.318419 29.245090 1309.750244
6.920000 0.960000 4.840000 -80.371216 17.078764 6751.216309
6.920000 0.960000 4.880000 -120.287872 -51.849167 17157.507812
6.920000 0.960000 4.920000 -92.516235 -144.740204 29508.980469
6.920000 0.960000 4.960000 4.991211 -195.292938 38164.246094
6.920000 0.960000 5.000000 115.563110 -158.667999 38530.367188
6.920000 0.960000 5.040000 165.854828 -54.106380 30435.324219
6.920000 0.960000 5.080000 126.741562 47.365795 18306.941406
6.920000 0.960000 5.120000 36.904671 81.390244 7986.326172
6.920000 0.960000 5.160000 -32.876389 41.626762 2813.644287
6.920000 0.960000 5.200000 -40.350044 -22.215996 2121.676514
6.920000 1.000000 4.800000 -47.106167 6.890675 2266.472412
6.920000 1.000000 4.840000 -92.138931 -42.074535 10259.849609
6.920000 1.000000 4.880000 -84.611130 -130.451004 24176.507812
6.920000 1.000000 4.920000 -0.656231 -198.919891 39569.554688
6.920000 1.000000 4.960000 121.333359 -185.932709 49292.757812
6.920000 1.000000 5.000000 202.474365 -84.715607 48172.601562
6.920000 1.000000 5.040000 186.997375 43.004990 36817.449219
6.920000 1.000000 5.080000 90.542664 114.400597 21285.468750
6.920000 1.000000 5.120000 -12.859850 93.034981 8820.883789
6.920000 1.000000 5.160000 -53.907059 14.990770 3130.694092
6.920000 1.000000 5.200000 -22.734661 -48.700779 2888.630615
6.920000 1.040000 4.800000 -42.932777 -28.041996 2629.576904
6.920000 1.040000 4.840000 -51.885063 -90.338242 10853.057617
6.920000 1.040000 4.880000 1.116184 -156.379868 24455.908203
6.920000 1.040000 4.920000 104.503639 -167.092041 38840.761719
6.920000 1.040000 4.960000 196.398682 -93.143509 47248.156250
6.920000 1.040000 5.000000 210.321930 30.865341 45187.980469
6.920000 1.040000 5.040000 132.630737 127.144577 33756.656250
6.920000 1.040000 5.080000 17.645184 136.626984 18978.285156
6.920000 1.040000 5.120000 -56.237980 66.804810 7625.593262
6.920000 1.040000 5.160000 -50.401478 -18.308828 2875.522217
6.920000 1.040000 5.200000 8.081301 -55.506012 3146.224854
6.920000 1.080000 4.800000 -12.304792 -45.658051 2236.065430
6.920000 1.080000 4.840000 9.571186 -90.798294 8335.937500
6.920000 1.080000 4.880000 74.779388 -111.698730 18068.562500
6.920000 1.080000 4.920000 150.434143 -73.297966 28003.023438
6.920000 1.080000 4.960000 181.891693 18.330219 33420.585938
6.920000 1.080000 5.000000 137.874710 111.388168 31416.759766
6.920000 1.080000 5.040000 41.460350 146.054092 23050.759766
6.920000 1.080000 5.080000 -44.592545 103.513321 12703.502930
6.920000 1.080000 5.120000 -67.845169 21.581739 5068.738281
6.920000 1.080000 5.160000 -27.033817 -38.070602 2180.197998
6.920000 1.080000 5.200000 32.554955 -40.832432 2727.112549
6.920000 1.120000 4.800000 19.110273 -33.497139 1487.260864
6.920000 1.120000 4.840000 46.367653 -48.861801 4537.434570
6.920000 1.120000 4.880000 88.804024 -36.748409 9236.600586
6.920000 1.120000 4.920000 117.154327 11.359497 13854.174805
6.920000 1.120000 4.960000 103.003777 74.506561 16161.005859
6.920000 1.120000 5.000000 45.271023 113.345413 14896.648438
6.920000 1.120000 5.040000 -23.617706 100.806229 10719.691406
6.920000 1.120000 5.080000 -60.899113 45.843594 5810.336914
6.920000 1.120000 5.120000 -47.271286 -12.455887 2389.723633
6.920000 1.120000 5.160000 -1.191614 -36.322865 1320.770386
6.920000 1.120000 5.200000 38.872135 -18.282757 1845.302002
6.920000 1.160000 4.800000 28.943205 -5.401708 866.887573
6.920000 1.160000 4.840000 39.770584 -3.051218 1591.009277
6.920000 1.160000 4.880000 50.565971 10.982693 2677.537109
6.920000 1.160000 4.920000 49.688248 35.043266 3696.952393
6.920000 1.160000 4.960000 29.944954 56.699806 4111.568359
6.920000 1.160000 5.000000 -2.604050 60.304245 3643.383057
6.920000 1.160000 5.040000 -30.071281 40.080303 2510.712646
6.920000 1.160000 5.080000 -35.512505 6.984493 1309.921143
6.920000 1.160000 5.120000 -16.629786 -18.274286 610.499268
6.920000 1.160000 5.160000 12.011086 -20.981667 584.496521
6.920000 1.160000 5.200000 30.706734 -3.226587 953.314392
6.920000 1.200000 4.800000 17.250124 15.136875 526.691772
6.920000 1.200000 4.840000 10.431558 14.265829 312.331299
6.920000 1.200000 4.880000 7.395388 10.072332 156.143646
6.920000 1.200000 4.920000 8.789810 7.418893 132.300735
6.920000 1.200000 4.960000 10.483124 9.137780 193.394897
6.920000 1.200000 5.000000 7.974487 12.635456 223.247208
6.920000 1.200000 5.040000 1.659683 12.351032 155.302551
6.920000 1.200000 5.080000 -2.824478 5.805660 41.683369
6.920000 1.200000 5.120000 0.090214 -3.001303 9.015957
6.920000 1.200000 5.160000 10.082902 -6.549393 144.559448
6.920000 1.200000 5.200000 20.393215 -0.454288 416.089630
6.960000 0.800000 4.800000 -17.279865 -34.831932 1511.857300
6.960000 0.800000 4.840000 -0.936539 -41.496971 1722.875732
6.960000 0.800000 4.880000 17.637413 -36.274429 1626.912598
6.960000 0.800000 4.920000 29.223022 -20.595833 1278.173340
6.960000 0.800000 4.960000 28.617010 -2.431900 824.847412
6.960000 0.800000 5.000000 18.374386 9.141586 421.186646
6.960000 0.800000 5.040000 6.777134 10.426460 154.640625
6.960000 0.800000 5.080000 1.323441 5.446234 31.412958
6.960000 0.800000 5.120000 2.936560 2.001488 12.629335
6.960000 0.800000 5.160000 5.951968 4.626463 56.830086
6.960000 0.800000 5.200000 4.001954 10.737388 131.307129
6.960000 0.840000 4.800000 7.500669 -24.381607 650.722839
6.960000 0.840000 4.840000 12.514446 -10.234188 261.349976
6.960000 0.840000 4.880000 3.314877 2.410374 16.798307
6.960000 0.840000 4.920000 -12.776882 1.406952 165.228226
6.960000 0.840000 4.960000 -20.910702 -13.664932 623.987793
6.960000 0.840000 5.000000 -12.204155 -30.279034 1065.761230
6.960000 0.840000 5.040000 7.979118 -33.751991 1202.863281
6.960000 0.840000 5.080000 24.592239 -19.973419 1003.715698
6.960000 0.840000 5.120000 25.735773 1.523766 664.651855
6.960000 0.840000 5.160000 11.996326 16.209154 406.648499
6.960000 0.840000 5.200000 -5.453636 16.475588 301.187164
6.960000 0.880000 4.800000 9.903437 1.942325 101.850677
6.960000 0.880000 4.840000 -14.397923 19.668747 594.159790
6.960000 0.880000 4.880000 -51.712070 8.083206 2739.476318
6.960000 0.880000 4.920000 -69.709641 -35.838585 6143.838379
6.960000 0.880000 4.960000 -45.669708 -84.357117 9201.845703
6.960000 0.880000 5.000000 10.180710 -100.503891 10204.678711
6.960000 0.880000 5.040000 60.682270 -70.401382 8638.692383
6.960000 0.880000 5.080000 72.659660 -15.764290 5527.938965
6.960000 0.880000 5.120000 44.068054 25.175600 2575.804199
6.960000 0.880000 5.160000 2.703514 29.949406 904.275879
6.960000 0.880000 5.200000 -20.401720 7.432767 471.476227
6.960000 0.920000 4.800000 -13.235220 16.495926 447.286621
6.960000 0.920000 4.840000 -62.477997 9.557739 3994.850342
6.960000 0.920000 4.880000 -97.594734 -47.304031 11762.404297
6.960000 0.920000 4.920000 -74.883934 -126.064529 21499.869141
6.960000 0.920000 4.960000 7.665909 -168.844696 28567.296875
6.960000 0.920000 5.000000 100.812218 -137.515442 29073.599609
6.960000 0.920000 5.040000 142.499969 -49.783844 22784.673828
6.960000 0.920000 5.080000 110.117584 34.014584 13282.875000
6.960000 0.920000 5.120000 37.673325 61.974648 5260.136230
6.960000 0.920000 5.160000 -17.155903 31.739231 1301.703857
6.960000 0.920000 5.200000 -23.211636 -15.090366 766.499207
6.960000 0.960000 4.800000 -39.138905 2.053572 1536.071045
6.960000 0.960000 4.840000 -85.388176 -43.989590 9226.224609
6.960000 0.960000 4.880000 -79.464684 -132.427109 23851.574219
6.960000 0.960000 4.920000 4.623447 -201.727295 40715.277344
6.960000 0.960000 4.960000 127.150398 -188.527710 51709.921875
6.960000 0.960000 5.000000 207.720947 -87.291161 50767.738281
6.960000 0.960000 5.040000 192.121674 38.376415 38383.488281
6.960000 0.960000 5.080000 99.117424 107.164047 21308.396484
6.960000 0.960000 5.120000 2.538963 87.388077 7643.122070
6.960000 0.960000 5.160000 -33.778496 17.865650 1460.168213
6.960000 0.960000 5.200000 -6.319639 -34.217216 1210.755737
6.960000 1.000000 4.800000 -40.791550 -30.488541 2593.501709
6.960000 1.000000 4.840000 -54.239098 -101.243500 13192.125977
6.960000 1.000000 4.880000 5.876616 -179.395599 32217.316406
6.960000 1.000000 4.920000 126.737320 -192.897842 53271.925781
6.960000 1.000000 4.960000 234.040222 -106.828194 66187.085938
6.960000 1.000000 5.000000 250.008774 36.375755 63827.582031
6.960000 1.000000 5.040000 161.774979 145.630600 47379.414062
6.960000 1.000000 5.080000 34.667557 156.258270 25618.486328
6.960000 1.000000 5.120000 -43.839638 82.093353 8661.232422
6.960000 1.000000 5.160000 -36.926933 -3.141071 1373.464722
6.960000 1.000000 5.200000 19.254347 -34.564911 1565.462891
6.960000 1.040000 4.800000 -13.335844 -52.151314 2897.604248
6.960000 1.040000 4.840000 12.608097 -115.004478 13384.994141
6.960000 1.040000 4.880000 101.267990 -146.477463 31710.851562
6.960000 1.040000 4.920000 206.157959 -95.153770 51555.343750
6.960000 1.040000 4.960000 249.888672 29.935989 63340.511719
6.960000 1.040000 5.000000 190.669464 155.647812 60581.085938
6.960000 1.040000 5.040000 63.328514 201.576752 44643.687500
6.960000 1.040000 5.080000 -46.816780 147.368240 23909.208984
6.960000 1.040000 5.120000 -75.037064 47.519279 7888.643066
6.960000 1.040000 5.160000 -27.342625 -19.374592 1122.993896
6.960000 1.040000 5.200000 34.818069 -17.541075 1519.987305
6.960000 1.080000 4.800000 21.456018 -43.615120 2362.639404
6.960000 1.080000 4.840000 65.617111 -74.706009 9886.593750
6.960000 1.080000 4.880000 139.894775 -57.845787 22916.683594
6.960000 1.080000 4.920000 190.657715 23.291176 36892.843750
6.960000 1.080000 4.960000 167.700165 130.334625 45110.460938
6.960000 1.080000 5.000000 71.949394 194.746552 43102.933594
6.960000 1.080000 5.040000 -38.968582 174.180542 31857.412109
6.960000 1.080000 5.080000 -96.235428 89.090775 17198.423828
6.960000 1.080000 5.120000 -75.796700 4.612602 5766.415527
6.960000 1.080000 5.160000 -13.504686 -25.283510 821.632446
6.960000 1.080000 5.200000 32.184120 0.914639 1036.654175
6.960000 1.120000 4.800000 36.527420 -12.626158 1493.672363
6.960000 1.120000 4.840000 69.905197 -14.669418 5101.928711
6.960000 1.120000 4.880000 105.045502 19.914326 11431.137695
6.960000 1.120000 4.920000 106.085922 83.605026 18244.023438
6.960000 1.120000 4.960000 56.089691 138.450180 22314.505859
6.960000 1.120000 5.000000 -22.929581 144.776932 21486.125000
6.960000 1.120000 5.040000 -83.850693 95.560226 16162.695312
6.960000 1.120000 5.080000 -91.967651 24.129284 9040.271484
6.960000 1.120000 5.120000 -52.449997 -23.038223 3281.761963
6.960000 1.120000 5.160000 -2.977634 -23.637787 567.611328
6.960000 1.120000 5.200000 20.128765 6.726721 450.415955
6.960000 1.160000 4.800000 24.419025 15.505945 836.723145
6.960000 1.160000 4.840000 34.572929 20.434158 1612.842285
6.960000 1.160000 4.880000 39.780685 39.815159 3167.749756
6.960000 1.160000 4.920000 26.506157 65.108437 4941.684570
6.960000 1.160000 4.960000 -6.456207 77.862946 6104.320801
6.960000 1.160000 5.000000 -43.570061 64.514290 6060.443848
6.960000 1.160000 5.040000 -63.072945 29.100525 4825.037109
6.960000 1.160000 5.080000 -54.113873 -8.287674 2996.996826
6.960000 1.160000 5.120000 -25.325422 -26.764175 1357.698120
6.960000 1.160000 5.160000 2.680202 -20.135548 412.623749
6.960000 1.160000 5.200000 13.630339 0.504519 186.040665
6.960000 1.200000 4.800000 1.060320 22.976353 529.037048
6.960000 1.200000 4.840000 -2.055347 16.340734 271.244049
6.960000 1.200000 4.880000 0.113857 12.054571 145.325653
6.960000 1.200000 4.920000 2.880112 13.623609 193.897751
6.960000 1.200000 4.960000 0.204308 18.662567 348.333160
6.960000 1.200000 5.000000 -9.205741 20.023880 485.701447
6.960000 1.200000 5.040000 -19.371559 12.120987 522.175598
6.960000 1.200000 5.080000 -21.318199 -3.062939 463.847198
6.960000 1.200000 5.120000 -11.002619 -16.180958 382.881012
6.960000 1.200000 5.160000 6.140930 -17.617001 348.069733
6.960000 1.200000 5.200000 18.527056 -5.650078 375.175171
7.000000 0.800000 4.800000 -0.863232 -21.687263 471.082581
7.000000 0.800000 4.840000 9.684385 -23.583595 649.973267
7.000000 0.800000 4.880000 20.950748 -18.119553 767.252075
7.000000 0.800000 4.920000 27.320505 -5.971588 782.069824
7.000000 0.800000 4.960000 24.936573 7.704353 681.189758
7.000000 0.800000 5.000000 15.334625 16.023195 491.893524
7.000000 0.800000 5.040000 5.221935 15.847515 278.412354
7.000000 0.800000 5.080000 1.092678 10.956900 121.247597
7.000000 0.800000 5.120000 3.127302 8.856857 88.223946
7.000000 0.800000 5.160000 4.792307 13.364504 201.576172
7.000000 0.800000 5.200000 -0.558916 20.323267 413.347565
7.000000 0.840000 4.800000 5.166862 -7.138008 77.647629
7.000000 0.840000 4.840000 -0.202852 -0.040401 0.042781
7.000000 0.840000 4.880000 -10.939455 -1.907669 123.310875
7.000000 0.840000 4.920000 -16.020718 -14.152443 456.955017
7.000000 0.840000 4.960000 -8.003151 -27.677954 830.119507
7.000000 0.840000 5.000000 9.668678 -30.722179 1037.335693
7.000000 0.840000 5.040000 25.292774 -19.019875 1001.480042
7.000000 0.840000 5.080000 28.427011 0.925411 808.951355
7.000000 0.840000 5.120000 17.558308 17.476227 613.712646
7.000000 0.840000 5.160000 -0.092310 22.608612 511.157867
7.000000 0.840000 5.200000 -14.953822 16.406559 492.791962
7.000000 0.880000 4.800000 -7.906334 3.703445 76.225624
7.000000 0.880000 4.840000 -34.528072 -0.104527 1192.198730
7.000000 0.880000 4.880000 -52.968914 -32.512489 3862.767822
7.000000 0.880000 4.920000 -37.826180 -76.476974 7279.547363
7.000000 0.880000 4.960000 10.824203 -98.220840 9764.497070
7.000000 0.880000 5.000000 63.519451 -76.982735 9961.062500
7.000000 0.880000 5.040000 85.108528 -24.578171 7847.547852
7.000000 0.880000 5.080000 64.174622 24.112701 4699.804199
7.000000 0.880000 5.120000 20.823269 40.513512 2074.953125
7.000000 0.880000 5.160000 -12.969449 23.965485 742.551086
7.000000 0.880000 5.200000 -20.455919 -2.925629 427.003937
7.000000 0.920000 4.800000 -26.537523 -5.765787 737.484436
7.000000 0.920000 4.840000 -58.657524 -38.576721 4928.868652
7.000000 0.920000 4.880000 -52.482910 -102.501137 13260.939453
7.000000 0.920000 4.920000 11.019829 -151.167114 22972.933594
7.000000 0.920000 4.960000 101.056885 -138.020767 29262.226562
7.000000 0.920000 5.000000 157.786163 -60.980995 28615.154297
7.000000 0.920000 5.040000 143.042175 31.405388 21447.363281
7.000000 0.920000 5.080000 73.148262 80.096252 11766.078125
7.000000 0.920000 5.120000 2.813864 64.510696 4169.547852
7.000000 0.920000 5.160000 -23.457415 14.742254 767.584351
7.000000 0.920000 5.200000 -5.719114 -21.528429 496.181519
7.000000 0.960000 4.800000 -28.362507 -31.490086 1796.057373
7.000000 0.960000 4.840000 -39.322948 -90.794106 9789.863281
7.000000 0.960000 4.880000 13.658527 -157.052155 24851.933594
7.000000 0.960000 4.920000 119.126030 -166.248596 41829.605469
7.000000 0.960000 4.960000 210.829666 -88.560059 52292.031250
7.000000 0.960000 5.000000 221.284149 36.739288 50316.449219
7.000000 0.960000 5.040000 142.126587 129.430939 36952.335938
7.000000 0.960000 5.080000 32.714844 135.751602 19498.759766
7.000000 0.960000 5.120000 -32.108120 71.631577 6162.013672
7.000000 0.960000 5.160000 -24.893803 2.016328 623.766968
7.000000 0.960000 5.200000 19.561783 -20.701632 811.220947
7.000000 1.000000 4.800000 -5.215487 -50.831940 2611.087402
7.000000 1.000000 4.840000 19.847610 -112.311646 13007.833008
7.000000 1.000000 4.880000 108.858803 -142.848434 32255.914062
7.000000 1.000000 4.920000 213.847549 -89.144547 53677.523438
7.000000 1.000000 4.960000 255.284058 38.340302 66639.929688
7.000000 1.000000 5.000000 192.478241 163.504852 63781.710938
7.000000 1.000000 5.040000 64.126038 205.980301 46540.031250
7.000000 1.000000 5.080000 -42.623962 149.657104 24214.050781
7.000000 1.000000 5.120000 -66.623749 53.179802 7266.815430
7.000000 1.000000 5.160000 -20.093769 -6.260056 442.947845
7.000000 1.000000 5.200000 33.315384 0.119699 1109.929077
7.000000 1.040000 4.800000 27.175486 -44.204498 2692.544678
7.000000 1.040000 4.840000 77.830139 -80.956680 12611.514648
7.000000 1.040000 4.880000 165.283966 -60.690605 31002.138672
7.000000 1.040000 4.920000 223.910034 36.330261 51455.589844
7.000000 1.040000 4.960000 193.849319 162.180054 63879.929688
7.000000 1.040000 5.000000 79.410110 234.451950 61273.683594
7.000000 1.040000 5.040000 -48.040909 206.395386 44906.984375
7.000000 1.040000 5.080000 -109.118576 107.724274 23511.382812
7.000000 1.040000 5.120000 -82.495346 16.615707 7081.563477
7.000000 1.040000 5.160000 -16.083374 -9.610489 351.036438
7.000000 1.040000 5.200000 23.838070 21.504211 1030.684692
7.000000 1.080000 4.800000 43.388554 -14.441570 2091.125488
7.000000 1.080000 4.840000 92.999504 -18.737122 8999.988281
7.000000 1.080000 4.880000 144.955673 32.494633 22068.046875
7.000000 1.080000 4.920000 144.566528 125.909271 36752.625000
7.000000 1.080000 4.960000 69.330612 202.744690 45912.144531
7.000000 1.080000 5.000000 -43.632149 206.383453 44497.894531
7.000000 1.080000 5.040000 -124.453911 133.012207 33181.023438
7.000000 1.080000 5.080000 -128.884796 36.176208 17920.009766
7.000000 1.080000 5.120000 -73.403030 -19.916111 5784.656250
7.000000 1.080000 5.160000 -14.988859 -13.663551 411.358521
7.000000 1.080000 5.200000 2.270695 23.486452 556.769470
7.000000 1.120000 4.800000 32.145309 15.879511 1285.479736
7.000000 1.120000 4.840000 60.535500 28.834352 4495.966309
7.000000 1.120000 4.880000 72.540581 75.185432 10914.984375
7.000000 1.120000 4.920000 40.127220 129.311829 18331.742188
7.000000 1.120000 4.960000 -31.069824 149.265289 23245.460938
7.000000 1.120000 5.000000 -101.048080 113.439941 23079.335938
7.000000 1.120000 5.040000 -127.242996 41.573479 17919.134766
7.000000 1.120000 5.080000 -99.910355 -20.912102 10419.395508
7.000000 1.120000 5.120000 -48.092941 -40.789413 3976.707031
7.000000 1.120000 5.160000 -11.865891 -21.658468 609.888611
7.000000 1.120000 5.200000 -8.699297 5.833942 109.712646
7.000000 1.160000 4.800000 5.669420 26.131069 714.975098
7.000000 1.160000 4.840000 13.390112 34.551468 1373.098999
7.000000 1.160000 4.880000 8.250362 54.507790 3039.167480
7.000000 1.160000 4.920000 -17.325500 69.605354 5145.078125
7.000000 1.160000 4.960000 -53.370533 62.611149 6768.569824
7.000000 1.160000 5.000000 -78.742149 31.008644 7161.862305
7.000000 1.160000 5.040000 -77.985550 -9.682854 6175.503906
7.000000 1.160000 5.080000 -53.420799 -37.985836 4296.705566
7.000000 1.160000 5.120000 -22.090397 -42.723366 2313.271729
7.000000 1.160000 5.160000 -1.535263 -29.287693 860.126038
7.000000 1.160000 5.200000 2.179546 -12.220304 154.086243
7.000000 1.200000 4.800000 -14.144275 15.800225 449.707642
7.000000 1.200000 4.840000 -12.015192 10.287305 250.193481
7.000000 1.200000 4.880000 -9.233231 9.380722 173.250488
7.000000 1.200000 4.920000 -10.061661 11.718365 238.557083
7.000000 1.200000 4.960000 -16.428486 12.530685 426.913208
7.000000 1.200000 5.000000 -25.400539 6.520409 687.703125
7.000000 1.200000 5.040000 -29.889942 -7.600891 951.182190
7.000000 1.200000 5.080000 -23.378700 -24.351818 1139.574707
7.000000 1.200000 5.120000 -5.887894 -33.844994 1180.150879
7.000000 1.200000 5.160000 13.975962 -28.923489 1031.895630
7.000000 1.200000 5.200000 24.092167 -11.865992 721.234253
7.040000 0.800000 4.800000 -2.827608 -1.953758 11.812539
7.040000 0.800000 4.840000 0.962849 -6.899443 48.529388
7.040000 0.800000 4.880000 9.622660 -7.657314 151.230042
7.040000 0.800000 4.920000 17.769680 -0.295250 315.848694
7.040000 0.800000 4.960000 18.103504 12.188513 476.296722
7.040000 0.800000 5.000000 9.216370 21.199448 534.358032
7.040000 0.800000 5.040000 -1.933701 20.905096 440.762238
7.040000 0.800000 5.080000 -6.845866 14.572184 259.214417
7.040000 0.800000 5.120000 -4.660117 11.156097 146.175201
7.040000 0.800000 5.160000 -3.207346 15.149733 239.801468
7.040000 0.800000 5.200000 -10.071693 20.961590 540.827271
7.040000 0.840000 4.800000 -10.910004 -0.200937 119.068558
7.040000 0.840000 4.840000 -16.365475 -6.400551 308.795807
7.040000 0.840000 4.880000 -15.242899 -18.337200 568.598877
7.040000 0.840000 4.920000 -3.740295 -27.693020 780.893127
7.040000 0.840000 4.960000 12.837852 -26.144394 848.339844
7.040000 0.840000 5.000000 24.400391 -13.079037 766.440308
7.040000 0.840000 5.040000 24.443878 4.209179 615.220337
7.040000 0.840000 5.080000 14.208623 16.973812 489.995239
7.040000 0.840000 5.120000 -0.198345 21.013615 441.611328
7.040000 0.840000 5.160000 -13.179888 17.265263 471.798737
7.040000 0.840000 5.200000 -22.047649 8.564582 559.450928
7.040000 0.880000 4.800000 -20.406269 -11.413224 546.677490
7.040000 0.880000 4.840000 -31.307116 -30.604568 1916.775146
7.040000 0.880000 4.880000 -21.311226 -61.376320 4221.221191
7.040000 0.880000 4.920000 15.190880 -79.615128 6569.331055
7.040000 0.880000 4.960000 59.379333 -65.186272 7775.155273
7.040000 0.880000 5.000000 82.021751 -21.866531 7205.712891
7.040000 0.880000 5.040000 68.264275 24.051239 5238.473145
7.040000 0.880000 5.080000 29.759216 45.346066 2941.876465
7.040000 0.880000 5.120000 -6.580673 35.193352 1281.877319
7.040000 0.880000 5.160000 -21.404202 9.180815 542.427185
7.040000 0.880000 5.200000 -15.830361 -11.526041 383.449951
7.040000 0.920000 4.800000 -16.167641 -32.043823 1288.199219
7.040000 0.920000 4.840000 -17.928654 -67.956314 4939.497070
7.040000 0.920000 4.880000 19.779545 -105.382385 11496.677734
7.040000 0.920000 4.920000 87.340988 -104.482910 18545.126953
7.040000 0.920000 4.960000 141.580383 -49.395313 22484.902344
7.040000 0.920000 5.000000 141.624023 31.780586 21067.369141
7.040000 0.920000 5.040000 86.012077 87.759201 15099.754883
7.040000 0.920000 5.080000 14.830589 87.230858 7829.168945
7.040000 0.920000 5.120000 -25.393358 43.483826 2535.665771
7.040000 0.920000 5.160000 -20.076996 -1.731200 406.082794
7.040000 0.920000 5.200000 7.302899 -17.346870 354.246246
7.040000 0.960000 4.800000 6.881794 -44.977280 2070.314697
7.040000 0.960000 4.840000 27.550621 -86.284760 8204.096680
7.040000 0.960000 4.880000 94.082077 -104.030251 19673.730469
7.040000 0.960000 4.920000 169.905273 -59.023205 32351.541016
7.040000 0.960000 4.960000 195.520447 38.917900 39742.847656
7.040000 0.960000 5.000000 142.638657 131.044281 37518.390625
7.040000 0.960000 5.040000 43.528328 157.939575 26839.625000
7.040000 0.960000 5.080000 -35.112976 110.943909 13541.471680
7.040000 0.960000 5.120000 -49.562515 37.182251 3838.962646
7.040000 0.960000 5.160000 -12.832071 -5.625404 196.307220
7.040000 0.960000 5.200000 25.579166 0.649309 654.715393
7.040000 1.000000 4.800000 35.490368 -35.226055 2500.441162
7.040000 1.000000 4.840000 77.470833 -62.824944 9948.703125
7.040000 1.000000 4.880000 150.336685 -42.254326 24386.546875
7.040000 1.000000 4.920000 196.977356 43.586468 40699.859375
7.040000 1.000000 4.960000 165.848297 151.795456 50547.519531
7.040000 1.000000 5.000000 63.079323 210.133545 48135.105469
7.040000 1.000000 5.040000 -46.709408 180.164780 34641.117188
7.040000 1.000000 5.080000 -94.955429 91.857254 17454.289062
7.040000 1.000000 5.120000 -67.366158 15.335453 4773.375488
7.040000 1.000000 5.160000 -10.135778 -2.262804 107.854286
7.040000 1.000000 5.200000 18.977661 26.726574 1074.461426
7.040000 1.040000 4.800000 48.242573 -5.782343 2360.781494
7.040000 1.040000 4.840000 95.293884 -8.414221 9151.723633
7.040000 1.040000 4.880000 144.653244 44.102592 22869.599609
7.040000 1.040000 4.920000 140.373322 137.912170 38724.437500
7.040000 1.040000 4.960000 60.782391 212.096649 48679.488281
7.040000 1.040000 5.000000 -53.531464 209.919373 46931.761719
7.040000 1.040000 5.040000 -130.359497 131.491272 34283.554688
7.040000 1.040000 5.080000 -128.110016 35.232224 17653.484375
7.040000 1.040000 5.120000 -69.702713 -14.371246 5065.000977
7.040000 1.040000 5.160000 -16.160780 -1.768436 264.298187
7.040000 1.040000 5.200000 -8.232254 34.267021 1241.998779
7.040000 1.080000 4.800000 35.182812 23.207434 1776.415161
7.040000 1.080000 4.840000 68.909744 39.993210 6348.009766
7.040000 1.080000 4.880000 81.279945 97.588394 16129.924805
7.040000 1.080000 4.920000 37.888332 162.248917 27760.236328
7.040000 1.080000 4.960000 -51.048038 181.232574 35451.148438
7.040000 1.080000 5.000000 -132.780457 131.200851 34844.312500
7.040000 1.080000 5.040000 -156.184235 42.410442 26192.162109
7.040000 1.080000 5.080000 -116.175964 -26.698483 14209.663086
7.040000 1.080000 5.120000 -55.333805 -40.368126 4691.415527
7.040000 1.080000 5.160000 -22.388746 -12.659382 661.515869
7.040000 1.080000 5.200000 -29.696859 13.330997 1059.618896
7.040000 1.120000 4.800000 7.301897 32.255524 1093.736572
7.040000 1.120000 4.840000 21.251080 52.115425 3167.625977
7.040000 1.120000 4.880000 8.353661 89.450462 8071.168945
7.040000 1.120000 4.920000 -40.265003 111.926727 14148.862305
7.040000 1.120000 4.960000 -100.370354 91.735352 18489.582031
7.040000 1.120000 5.000000 -133.047577 32.997765 18790.509766
7.040000 1.120000 5.040000 -118.504562 -29.719196 14926.561523
7.040000 1.120000 5.080000 -72.630493 -61.048019 9002.048828
7.040000 1.120000 5.120000 -30.782232 -53.848511 3847.208008
7.040000 1.120000 5.160000 -16.014690 -30.475649 1185.235474
7.040000 1.120000 5.200000 -22.841026 -17.830940 839.654907
7.040000 1.160000 4.800000 -14.103804 19.778637 590.111755
7.040000 1.160000 4.840000 -12.232733 29.780998 1036.547607
7.040000 1.160000 4.880000 -26.645290 41.380379 2422.307129
7.040000 1.160000 4.920000 -53.178120 38.099354 4279.473145
7.040000 1.160000 4.960000 -74.954468 13.757683 5807.446289
7.040000 1.160000 5.000000 -76.683044 -21.431065 6339.579590
7.040000 1.160000 5.040000 -57.164017 -49.523468 5720.298828
7.040000 1.160000 5.080000 -28.728666 -59.267570 4337.981445
7.040000 1.160000 5.120000 -5.792699 -52.811871 2822.649170
7.040000 1.160000 5.160000 5.550369 -40.309574 1655.668457
7.040000 1.160000 5.200000 8.209051 -30.069996 971.593140
7.040000 1.200000 4.800000 -17.389088 1.529938 304.721069
7.040000 1.200000 4.840000 -15.707327 0.480175 246.950699
7.040000 1.200000 4.880000 -16.490063 -0.708344 272.423920
7.040000 1.200000 4.920000 -18.457062 -3.579357 353.474915
7.040000 1.200000 4.960000 -20.532970 -8.663582 496.660522
7.040000 1.200000 5.000000 -21.400387 -16.797085 740.118652
7.040000 1.200000 5.040000 -17.945095 -28.026871 1107.531982
7.040000 1.200000 5.080000 -6.560822 -38.711597 1541.632202
7.040000 1.200000 5.120000 12.074265 -41.555637 1872.658813
7.040000 1.200000 5.160000 30.036720 -31.345985 1884.775391
7.040000 1.200000 5.200000 36.517799 -11.788975 1472.529541
7.080000 0.800000 4.800000 -20.859818 6.032408 471.521942
7.080000 0.800000 4.840000 -17.246515 -7.136017 348.365021
7.080000 0.800000 4.880000 -2.945210 -13.126348 180.975281
7.080000 0.800000 4.920000 11.304007 -4.779194 150.621262
7.080000 0.800000 4.960000 13.051521 11.874535 311.346802
7.080000 0.800000 5.000000 1.120098 22.700094 516.548889
7.080000 0.800000 5.040000 -12.961775 19.719995 556.885864
7.080000 0.800000 5.080000 -17.199207 9.039946 377.533356
7.080000 0.800000 5.120000 -11.735425 3.389046 149.205826
7.080000 0.800000 5.160000 -7.760849 7.638218 118.573151
7.080000 0.800000 5.200000 -14.052505 13.445902 378.265167
7.080000 0.840000 4.800000 -26.076061 -11.131197 803.864563
7.080000 0.840000 4.840000 -20.202562 -25.385950 1052.589966
7.080000 0.840000 4.880000 -3.286030 -33.364250 1123.971191
7.080000 0.840000 4.920000 16.012039 -26.954247 982.916870
7.080000 0.840000 4.960000 25.370880 -8.932938 723.478943
7.080000 0.840000 5.000000 19.975775 9.098438 481.813171
7.080000 0.840000 5.040000 5.988853 17.271584 334.173950
7.080000 0.840000 5.080000 -6.620420 15.100353 271.850616
7.080000 0.840000 5.120000 -13.376055 8.942974 258.895630
7.080000 0.840000 5.160000 -16.867760 3.502365 296.787903
7.080000 0.840000 5.200000 -20.376091 -2.422250 421.052368
7.080000 0.880000 4.800000 -14.930864 -32.329163 1268.105469
7.080000 0.880000 4.840000 -4.779373 -48.396484 2365.062012
7.080000 0.880000 4.880000 20.894955 -56.755856 3657.826172
7.080000 0.880000 4.920000 51.231964 -43.758034 4539.479492
7.080000 0.880000 4.960000 66.521667 -10.681694 4539.230957
7.080000 0.880000 5.000000 55.218681 24.692451 3658.819824
7.080000 0.880000 5.040000 24.433750 41.999626 2360.976807
7.080000 0.880000 5.080000 -6.123409 34.486801 1226.835571
7.080000 0.880000 5.120000 -20.451023 12.549281 575.728821
7.080000 0.880000 5.160000 -17.288429 -7.327041 352.575317
7.080000 0.880000 5.200000 -6.929209 -16.450504 318.633026
7.080000 0.920000 4.800000 12.715516 -40.788662 1825.399292
7.080000 0.920000 4.840000 30.316456 -56.074749 4063.464844
7.080000 0.920000 4.880000 67.217514 -55.542328 7603.144531
7.080000 0.920000 4.920000 102.330200 -22.649185 10984.455078
7.080000 0.920000 4.960000 106.327965 32.756630 12378.632812
7.080000 0.920000 5.000000 69.417488 78.060234 10912.187500
7.080000 0.920000 5.040000 13.081791 84.727219 7349.834961
7.080000 0.920000 5.080000 -26.913296 53.022240 3535.683350
7.080000 0.920000 5.120000 -30.558174 10.700687 1048.306763
7.080000 0.920000 5.160000 -8.041126 -12.583587 223.006363
7.080000 0.920000 5.200000 13.897279 -9.877171 290.692841
7.080000 0.960000 4.800000 41.128654 -25.170732 2325.131836
7.080000 0.960000 4.840000 66.136696 -33.760277 5513.818848
7.080000 0.960000 4.880000 106.271477 -14.408766 11501.239258
7.080000 0.960000 4.920000 127.573395 41.750809 18018.101562
7.080000 0.960000 4.960000 100.388100 107.085480 21545.070312
7.080000 0.960000 5.000000 31.434128 137.304855 19840.726562
7.080000 0.960000 5.040000 -37.036240 111.153343 13726.748047
7.080000 0.960000 5.080000 -62.773369 50.865185 6527.762695
7.080000 0.960000 5.120000 -39.879456 2.238907 1595.383667
7.080000 0.960000 5.160000 -0.595729 -6.340235 40.553471
7.080000 0.960000 5.200000 17.926298 14.203886 523.102539
7.080000 1.000000 4.800000 49.902248 7.874842 2552.247559
7.080000 1.000000 4.840000 76.773331 10.771194 6010.163086
7.080000 1.000000 4.880000 104.877426 49.001808 13400.451172
7.080000 1.000000 4.920000 95.685112 113.695709 22082.355469
7.080000 1.000000 4.960000 34.485626 161.874542 27392.625000
7.080000 1.000000 5.000000 -48.342533 153.699463 25960.525391
7.080000 1.000000 5.040000 -100.009842 91.558716 18384.966797
7.080000 1.000000 5.080000 -91.995728 20.531286 8884.748047
7.080000 1.000000 5.120000 -44.723980 -11.925495 2142.451904
7.080000 1.000000 5.160000 -5.712088 2.508202 38.919022
7.080000 1.000000 5.200000 -3.899532 30.934759 972.165710
7.080000 1.040000 4.800000 31.852570 36.768524 2366.510498
7.080000 1.040000 4.840000 52.513802 50.181351 5275.867188
7.080000 1.040000 4.880000 57.633469 94.518372 12255.339844
7.080000 1.040000 4.920000 18.693678 143.416107 20917.632812
7.080000 1.040000 4.960000 -55.730881 153.470734 26659.197266
7.080000 1.040000 5.000000 -120.779533 106.312569 25890.058594
7.080000 1.040000 5.040000 -133.970245 29.897751 18841.902344
7.080000 1.040000 5.080000 -94.266022 -24.708458 9496.590820
7.080000 1.040000 5.120000 -41.954369 -29.212414 2613.534180
7.080000 1.040000 5.160000 -19.400372 -0.986021 377.346649
7.080000 1.040000 5.200000 -32.671204 18.870611 1423.507568
7.080000 1.080000 4.800000 0.377941 42.624557 1816.995728
7.080000 1.080000 4.840000 9.937993 59.893913 3686.044434
7.080000 1.080000 4.880000 -5.417221 93.279861 8730.479492
7.080000 1.080000 4.920000 -54.612720 110.865128 15273.625000
7.080000 1.080000 4.960000 -112.348907 85.358864 19908.414062
7.080000 1.080000 5.000000 -138.883530 23.407101 19836.527344
7.080000 1.080000 5.040000 -116.741592 -37.049545 15001.268555
7.080000 1.080000 5.080000 -67.218384 -60.482620 8176.458496
7.080000 1.080000 5.120000 -29.660677 -45.044788 2908.788574
7.080000 1.080000 5.160000 -24.681965 -20.395683 1025.183350
7.080000 1.080000 5.200000 -38.456161 -15.782869 1727.975342
7.080000 1.120000 4.800000 -21.848824 25.377529 1121.390137
7.080000 1.120000 4.840000 -22.086281 38.880856 1999.524780
7.080000 1.120000 4.880000 -44.044575 52.339745 4679.373535
7.080000 1.120000 4.920000 -80.007477 43.223995 8269.509766
7.080000 1.120000 4.960000 -104.580620 5.703529 10969.636719
7.080000 1.120000 5.000000 -97.832520 -41.301971 11277.054688
7.080000 1.120000 5.040000 -64.146194 -70.407776 9071.989258
7.080000 1.120000 5.080000 -27.615421 -70.203484 5691.140625
7.080000 1.120000 5.120000 -9.149044 -53.313492 2926.033447
7.080000 1.120000 5.160000 -8.887205 -41.176430 1774.480835
7.080000 1.120000 5.200000 -10.779943 -42.607803 1931.632080
7.080000 1.160000 4.800000 -22.705688 2.716820 522.929382
7.080000 1.160000 4.840000 -27.335102 8.529184 819.954834
7.080000 1.160000 4.880000 -41.649361 6.083523 1771.678467
7.080000 1.160000 4.920000 -53.883774 -10.796391 3020.023193
7.080000 1.160000 4.960000 -52.293358 -35.363876 3985.198975
7.080000 1.160000 5.000000 -35.928024 -54.445969 4255.186523
7.080000 1.160000 5.040000 -14.210186 -60.428967 3853.589355
7.080000 1.160000 5.080000 3.027782 -56.225185 3170.438965
7.080000 1.160000 5.120000 13.645885 -49.381145 2624.707764
7.080000 1.160000 5.160000 21.572123 -43.368404 2346.175049
7.080000 1.160000 5.200000 29.260160 -36.016243 2153.326660
7.080000 1.200000 4.800000 -9.982367 -7.277785 152.613800
7.080000 1.200000 4.840000 -13.704597 -8.694359 263.407867
7.080000 1.200000 4.880000 -15.012384 -15.896999 478.086273
7.080000 1.200000 4.920000 -10.269272 -23.433788 654.600403
7.080000 1.200000 4.960000 -2.876137 -26.529390 712.080688
7.080000 1.200000 5.000000 2.267647 -26.934359 730.601868
7.080000 1.200000 5.040000 6.104000 -29.645363 916.106323
7.080000 1.200000 5.080000 14.662861 -34.528526 1407.218628
7.080000 1.200000 5.120000 30.237968 -34.038109 2072.927734
7.080000 1.200000 5.160000 45.380272 -21.381718 2516.546875
7.080000 1.200000 5.200000 48.571213 -0.356769 2359.289795
7.120000 0.800000 4.800000 -38.175125 -5.920828 1492.396362
7.120000 0.800000 4.840000 -26.464754 -24.292519 1290.509766
7.120000 0.800000 4.880000 -3.093158 -27.530327 767.486511
7.120000 0.800000 4.920000 14.023016 -11.385273 326.269409
7.120000 0.800000 4.960000 11.394129 10.526972 240.643311
7.120000 0.800000 5.000000 -6.297710 19.541693 421.538910
7.120000 0.800000 5.040000 -21.091488 10.380533 552.606323
7.120000 0.800000 5.080000 -20.282572 -4.491451 431.555847
7.120000 0.800000 5.120000 -8.731786 -9.077068 158.637253
7.120000 0.800000 5.160000 -2.015097 -0.920305 4.907578
7.120000 0.800000 5.200000 -8.539619 7.366394 127.188858
7.120000 0.840000 4.800000 -25.763678 -31.456909 1653.304199
7.120000 0.840000 4.840000 -6.494793 -41.315838 1749.180786
7.120000 0.840000 4.880000 16.863815 -34.224236 1455.686646
7.120000 0.840000 4.920000 28.507025 -12.046666 957.772583
7.120000 0.840000 4.960000 20.697598 10.393698 536.419495
7.120000 0.840000 5.000000 1.283807 18.402000 340.281769
7.120000 0.840000 5.040000 -14.057837 10.444540 306.711212
7.120000 0.840000 5.080000 -16.627541 -2.277676 281.662903
7.120000 0.840000 5.120000 -11.116840 -8.453428 195.044586
7.120000 0.840000 5.160000 -7.854057 -7.544741 118.609329
7.120000 0.840000 5.200000 -10.421186 -7.754121 168.727509
7.120000 0.880000 4.800000 6.049150 -41.546425 1762.697632
7.120000 0.880000 4.840000 25.294483 -40.143166 2251.284668
7.120000 0.880000 4.880000 43.338188 -24.809738 2493.721680
7.120000 0.880000 4.920000 48.180271 1.112043 2322.575195
7.120000 0.880000 4.960000 34.532688 24.514332 1793.458984
7.120000 0.880000 5.000000 9.786745 32.366554 1143.374268
7.120000 0.880000 5.040000 -11.293396 22.317200 625.598206
7.120000 0.880000 5.080000 -18.346577 3.888870 351.720184
7.120000 0.880000 5.120000 -12.476617 -10.474020 265.371063
7.120000 0.880000 5.160000 -2.638041 -15.425385 244.901779
7.120000 0.880000 5.200000 3.857534 -14.599102 228.014343
7.120000 0.920000 4.800000 38.358284 -23.480743 2022.703247
7.120000 0.920000 4.840000 50.648197 -14.269012 2768.844727
7.120000 0.920000 4.880000 60.567795 5.297606 3696.522461
7.120000 0.920000 4.920000 56.901249 32.969555 4324.743652
7.120000 0.920000 4.960000 33.928185 55.240704 4202.657227
7.120000 0.920000 5.000000 0.377972 57.199802 3271.960205
7.120000 0.920000 5.040000 -24.925642 36.455971 1950.325439
7.120000 0.920000 5.080000 -28.119747 6.927638 838.712341
7.120000 0.920000 5.120000 -11.894645 -12.284680 292.395935
7.120000 0.920000 5.160000 7.772518 -12.722425 222.272141
7.120000 0.920000 5.200000 16.540184 -2.053750 277.795593
7.120000 0.960000 4.800000 47.564465 14.484402 2472.176025
7.120000 0.960000 4.840000 50.886734 24.760170 3202.525879
7.120000 0.960000 4.880000 52.181984 44.377632 4692.333984
7.120000 0.960000 4.920000 38.089088 69.800995 6322.957520
7.120000 0.960000 4.960000 4.519892 83.714912 7028.615723
7.120000 0.960000 5.000000 -33.584637 70.756027 6134.343262
7.120000 0.960000 5.040000 -52.403030 34.998226 3970.953613
7.120000 0.960000 5.080000 -40.909599 -0.328197 1673.703003
7.120000 0.960000 5.120000 -12.027780 -12.682564 305.514893
7.120000 0.960000 5.160000 9.132544 -0.346707 83.523560
7.120000 0.960000 5.200000 8.739193 17.573023 385.184631
7.120000 1.000000 4.800000 25.608450 47.132874 2877.300537
7.120000 1.000000 4.840000 23.090065 53.376179 3382.167480
7.120000 1.000000 4.880000 16.874905 69.370178 5096.983887
7.120000 1.000000 4.920000 -6.624060 86.073547 7452.533691
7.120000 1.000000 4.960000 -44.541046 83.515053 8958.668945
7.120000 1.000000 5.000000 -74.677338 52.721504 8356.261719
7.120000 1.000000 5.040000 -75.124435 9.276297 5729.730469
7.120000 1.000000 5.080000 -46.889069 -18.243259 2531.401367
7.120000 1.000000 5.120000 -14.780819 -14.822900 438.190979
7.120000 1.000000 5.160000 -4.082720 6.820473 63.187447
7.120000 1.000000 5.200000 -16.548176 19.823601 666.817261
7.120000 1.040000 4.800000 -11.808872 52.404751 2885.707275
7.120000 1.040000 4.840000 -15.549214 54.008041 3158.646729
7.120000 1.040000 4.880000 -26.818680 63.417252 4740.989258
7.120000 1.040000 4.920000 -53.381828 65.953232 7199.448242
7.120000 1.040000 4.960000 -83.200127 45.780197 9018.087891
7.120000 1.040000 5.000000 -93.359085 6.115890 8753.323242
7.120000 1.040000 5.040000 -73.598198 -29.548431 6289.804688
7.120000 1.040000 5.080000 -39.009083 -38.835922 3029.937500
7.120000 1.040000 5.120000 -16.744083 -22.664307 794.035095
7.120000 1.040000 5.160000 -19.574863 -4.194587 400.769836
7.120000 1.040000 5.200000 -34.054062 -4.840756 1183.112061
7.120000 1.080000 4.800000 -37.871449 29.898380 2328.159668
7.120000 1.080000 4.840000 -40.806232 29.338972 2525.923828
7.120000 1.080000 4.880000 -53.400078 30.454023 3779.015869
7.120000 1.080000 4.920000 -73.393127 19.129221 5752.478516
7.120000 1.080000 4.960000 -84.727707 -9.380255 7266.773438
7.120000 1.080000 5.000000 -73.757538 -41.799259 7187.352539
7.120000 1.080000 5.040000 -45.065628 -58.008606 5395.909180
7.120000 1.080000 5.080000 -18.772896 -51.088623 2962.468994
7.120000 1.080000 5.120000 -10.987452 -34.529446 1313.006714
7.120000 1.080000 5.160000 -17.996807 -28.173420 1117.626709
7.120000 1.080000 5.200000 -21.300652 -37.549625 1863.692139
7.120000 1.120000 4.800000 -37.338348 0.398369 1394.310913
7.120000 1.120000 4.840000 -40.785881 -0.748024 1664.047607
7.120000 1.120000 4.880000 -50.270111 -7.577215 2584.498291
7.120000 1.120000 4.920000 -56.454742 -25.457886 3835.241943
7.120000 1.120000 4.960000 -49.043232 -47.851734 4695.027344
7.120000 1.120000 5.000000 -28.481981 -61.484039 4591.510254
7.120000 1.120000 5.040000 -6.718352 -59.581856 3595.133789
7.120000 1.120000 5.080000 4.517207 -48.777897 2399.688477
7.120000 1.120000 5.120000 5.315747 -41.799530 1775.457886
7.120000 1.120000 5.160000 6.425307 -43.830273 1962.377319
7.120000 1.120000 5.200000 16.614113 -47.376450 2520.556885
7.120000 1.160000 4.800000 -18.338377 -13.367491 514.985901
7.120000 1.160000 4.840000 -23.844212 -16.849800 852.462219
7.120000 1.160000 4.880000 -26.337908 -28.817850 1524.153809
7.120000 1.160000 4.920000 -18.559227 -42.938000 2188.116699
7.120000 1.160000 4.960000 -2.633764 -49.464268 2453.650635
7.120000 1.160000 5.000000 11.959053 -45.528893 2215.899170
7.120000 1.160000 5.040000 18.598381 -37.836697 1777.515381
7.120000 1.160000 5.080000 20.360592 -34.613495 1612.647705
7.120000 1.160000 5.120000 25.643141 -35.989113 1952.786865
7.120000 1.160000 5.160000 37.570717 -33.935390 2563.169434
7.120000 1.160000 5.200000 49.464462 -21.931406 2927.719482
7.120000 1.200000 4.800000 -2.544600 -6.557783 49.479500
7.120000 1.200000 4.840000 -8.171391 -15.642187 311.449646
7.120000 1.200000 4.880000 -1.836533 -27.949772 784.562622
7.120000 1.200000 4.920000 13.190876 -31.132393 1143.225098
7.120000 1.200000 4.960000 24.525768 -22.767035 1119.851196
7.120000 1.200000 5.000000 24.949913 -12.867538 788.071716
7.120000 1.200000 5.040000 20.778790 -11.833746 571.795654
7.120000 1.200000 5.080000 24.206400 -17.641230 897.162720
7.120000 1.200000 5.120000 38.175545 -17.539270 1764.998169
7.120000 1.200000 5.160000 51.440903 -2.924621 2654.719971
7.120000 1.200000 5.200000 50.301826 19.573952 2913.413330
7.160000 0.800000 4.800000 -39.020611 -28.418076 2330.195068
7.160000 0.800000 4.840000 -17.223127 -43.159508 2159.379395
7.160000 0.800000 4.880000 10.085921 -36.334724 1421.937988
7.160000 0.800000 4.920000 22.251326 -11.724711 632.590332
7.160000 0.800000 4.960000 11.257868 10.527266 237.562897
7.160000 0.800000 5.000000 -9.974871 13.015426 268.899353
7.160000 0.800000 5.040000 -20.430771 -2.182634 422.180298
7.160000 0.800000 5.080000 -11.829254 -16.628515 416.438782
7.160000 0.800000 5.120000 4.235905 -15.040753 244.167145
7.160000 0.800000 5.160000 9.808228 -0.462683 96.415398
7.160000 0.800000 5.200000 -0.286316 10.463648 109.569901
7.160000 0.840000 4.800000 -9.358355 -44.585770 2075.469727
7.160000 0.840000 4.840000 14.436224 -41.694084 1946.801147
7.160000 0.840000 4.880000 30.425842 -21.029305 1367.963501
7.160000 0.840000 4.920000 26.190302 4.754766 708.539673
7.160000 0.840000 4.960000 5.370664 17.414862 332.121429
7.160000 0.840000 5.000000 -14.785210 9.717416 313.030579
7.160000 0.840000 5.040000 -19.229553 -8.248685 437.816528
7.160000 0.840000 5.080000 -8.429625 -19.496187 451.159882
7.160000 0.840000 5.120000 4.023099 -16.480539 287.793518
7.160000 0.840000 5.160000 6.281668 -6.693444 84.261543
7.160000 0.840000 5.200000 -0.363035 -2.755168 7.722745
7.160000 0.880000 4.800000 26.227533 -31.650520 1689.638916
7.160000 0.880000 4.840000 37.253654 -14.898520 1609.800537
7.160000 0.880000 4.880000 34.870667 6.883482 1263.345703
7.160000 0.880000 4.920000 18.236891 21.820955 808.738281
7.160000 0.880000 4.960000 -3.271885 21.075218 454.870056
7.160000 0.880000 5.000000 -16.530224 6.434424 314.650085
7.160000 0.880000 5.040000 -14.924404 -10.912580 341.822266
7.160000 0.880000 5.080000 -3.032058 -19.654156 395.479187
7.160000 0.880000 5.120000 8.492365 -17.146465 366.121552
7.160000 0.880000 5.160000 12.597263 -9.757549 253.900818
7.160000 0.880000 5.200000 10.811962 -5.330903 145.317047
7.160000 0.920000 4.800000 41.020565 6.319254 1722.619751
7.160000 0.920000 4.840000 32.829533 22.547367 1586.161987
7.160000 0.920000 4.880000 17.280678 31.850943 1313.104370
7.160000 0.920000 4.920000 -0.546518 31.113867 968.371399
7.160000 0.920000 4.960000 -14.364899 20.561806 629.138184
7.160000 0.920000 5.000000 -18.803436 4.423455 373.136169
7.160000 0.920000 5.040000 -12.300238 -10.037795 252.053192
7.160000 0.920000 5.080000 1.107950 -16.052498 258.910217
7.160000 0.920000 5.120000 13.576669 -11.756916 322.551025
7.160000 0.920000 5.160000 18.581377 -1.727151 348.250641
7.160000 0.920000 5.200000 15.644106 6.437550 286.180084
7.160000 0.960000 4.800000 21.500454 43.759899 2377.198242
7.160000 0.960000 4.840000 1.343540 45.585205 2079.816162
7.160000 0.960000 4.880000 -14.219514 37.912441 1639.547729
7.160000 0.960000 4.920000 -23.133270 26.162977 1219.649658
7.160000 0.960000 4.960000 -26.315197 13.099626 864.089722
7.160000 0.960000 5.000000 -23.394419 -0.097091 547.308228
7.160000 0.960000 5.040000 -13.364771 -10.008967 278.796509
7.160000 0.960000 5.080000 0.954643 -11.335762 129.410843
7.160000 0.960000 5.120000 11.766731 -2.479001 144.601410
7.160000 0.960000 5.160000 12.098215 10.357206 253.638519
7.160000 0.960000 5.200000 3.216696 17.071487 301.782806
7.160000 1.000000 4.800000 -19.391010 53.608482 3249.880615
7.160000 1.000000 4.840000 -36.854450 38.433506 2835.384766
7.160000 1.000000 4.880000 -41.727322 20.419266 2158.115723
7.160000 1.000000 4.920000 -38.924370 6.716262 1560.214722
7.160000 1.000000 4.960000 -33.701736 -3.045691 1145.083252
7.160000 1.000000 5.000000 -26.081856 -10.946383 800.086487
7.160000 1.000000 5.040000 -14.560804 -14.720827 428.719788
7.160000 1.000000 5.080000 -2.688996 -10.093302 109.105438
7.160000 1.000000 5.120000 1.627088 1.513572 4.938315
7.160000 1.000000 5.160000 -5.176764 10.799211 143.421829
7.160000 1.000000 5.200000 -16.031128 8.814337 334.689606
7.160000 1.040000 4.800000 -51.978897 30.237797 3616.129883
7.160000 1.040000 4.840000 -56.968925 7.376023 3299.864258
7.160000 1.040000 4.880000 -49.972980 -10.355579 2604.536865
7.160000 1.040000 4.920000 -39.248791 -19.715153 1929.154785
7.160000 1.040000 4.960000 -29.356951 -24.000988 1437.877930
7.160000 1.040000 5.000000 -19.627693 -25.473871 1034.164429
7.160000 1.040000 5.040000 -10.023502 -22.440510 604.047058
7.160000 1.040000 5.080000 -4.841731 -14.239565 226.207565
7.160000 1.040000 5.120000 -8.147263 -6.281970 105.841034
7.160000 1.040000 5.160000 -16.497650 -6.678934 316.780609
7.160000 1.040000 5.200000 -19.416945 -16.720661 656.598267
7.160000 1.080000 4.800000 -54.801964 -6.007172 3039.341309
7.160000 1.080000 4.840000 -49.284195 -25.050673 3056.468018
7.160000 1.080000 4.880000 -36.665329 -36.926937 2707.944824
7.160000 1.080000 4.920000 -22.809570 -41.123077 2211.384033
7.160000 1.080000 4.960000 -10.718986 -39.713531 1692.061157
7.160000 1.080000 5.000000 -1.806452 -34.147720 1169.330078
7.160000 1.080000 5.040000 1.889900 -26.170391 688.461060
7.160000 1.080000 5.080000 -0.750731 -20.087067 404.053833
7.160000 1.080000 5.120000 -6.210133 -21.003292 479.704010
7.160000 1.080000 5.160000 -6.649716 -29.114212 891.856079
7.160000 1.080000 5.200000 3.401166 -36.773491 1363.857544
7.160000 1.120000 4.800000 -32.056835 -27.193356 1767.119141
7.160000 1.120000 4.840000 -25.178005 -39.124310 2164.643555
7.160000 1.120000 4.880000 -12.536762 -47.131855 2378.582275
7.160000 1.120000 4.920000 2.881479 -47.704479 2284.020264
7.160000 1.120000 4.960000 15.433499 -40.010292 1839.016357
7.160000 1.120000 5.000000 19.731846 -28.181969 1183.569092
7.160000 1.120000 5.040000 15.365940 -19.978603 635.256714
7.160000 1.120000 5.080000 8.861994 -21.040546 521.239502
7.160000 1.120000 5.120000 9.385564 -29.208160 941.205444
7.160000 1.120000 5.160000 20.711317 -35.021690 1655.477417
7.160000 1.120000 5.200000 36.844307 -29.330919 2217.805664
7.160000 1.160000 4.800000 -7.632912 -22.077309 545.668884
7.160000 1.160000 4.840000 -4.967087 -32.923721 1108.643433
7.160000 1.160000 4.880000 8.169907 -41.159485 1760.850586
7.160000 1.160000 4.920000 25.710285 -37.670906 2080.115967
7.160000 1.160000 4.960000 35.647453 -23.032505 1801.237305
7.160000 1.160000 5.000000 31.882156 -8.510275 1088.896729
7.160000 1.160000 5.040000 21.278952 -5.566767 483.782684
7.160000 1.160000 5.080000 17.592299 -14.021147 506.081512
7.160000 1.160000 5.120000 27.712400 -21.547531 1232.273193
7.160000 1.160000 5.160000 44.293446 -15.679585 2207.758789
7.160000 1.160000 5.200000 52.663338 3.738527 2787.403809
7.160000 1.200000 4.800000 -2.059334 -3.738006 18.213541
7.160000 1.200000 4.840000 0.226219 -20.275909 411.163666
7.160000 1.200000 4.880000 17.978151 -28.228794 1120.078735
7.160000 1.200000 4.920000 36.196018 -18.000816 1634.181152
7.160000 1.200000 4.960000 39.100895 1.729331 1531.870605
7.160000 1.200000 5.000000 26.925148 13.010567 894.238464
7.160000 1.200000 5.040000 15.591145 7.895109 305.416534
7.160000 1.200000 5.080000 19.262377 -3.004592 380.066711
7.160000 1.200000 5.120000 34.759453 -2.218421 1213.140991
7.160000 1.200000 5.160000 44.936886 15.409081 2256.763428
7.160000 1.200000 5.200000 37.186634 37.125336 2761.136230
7.200000 0.800000 4.800000 -22.763771 -44.043648 2458.032227
7.200000 0.800000 4.840000 2.930185 -48.713680 2381.608643
7.200000 0.800000 4.880000 25.392193 -32.165031 1679.352661
7.200000 0.800000 4.920000 27.923956 -5.316504 808.012512
7.200000 0.800000 4.960000 10.730587 11.187696 240.310059
7.200000 0.800000 5.000000 -8.496677 6.495005 114.378616
7.200000 0.800000 5.040000 -11.615449 -10.036344 235.646851
7.200000 0.800000 5.080000 2.393020 -18.581909 351.013885
7.200000 0.800000 5.120000 17.276247 -8.882755 377.372070
7.200000 0.800000 5.160000 16.717854 10.052182 380.532990
7.200000 0.800000 5.200000 0.789682 20.145102 406.448700
7.200000 0.840000 4.800000 10.034220 -41.778183 1846.102173
7.200000 0.840000 4.840000 27.438772 -28.832317 1584.188721
7.200000 0.840000 4.880000 30.371830 -5.908486 957.358276
7.200000 0.840000 4.920000 15.474621 11.228407 365.541016
7.200000 0.840000 4.960000 -5.524324 10.289429 136.390503
7.200000 0.840000 5.000000 -15.534172 -5.850595 275.539978
7.200000 0.840000 5.040000 -7.565933 -21.448330 517.274170
7.200000 0.840000 5.080000 9.197508 -22.514040 591.476135
7.200000 0.840000 5.120000 18.796761 -9.422684 442.105164
7.200000 0.840000 5.160000 13.794985 4.790624 213.251678
7.200000 0.840000 5.200000 1.196815 8.058707 66.375130
7.200000 0.880000 4.800000 31.035603 -12.535405 1120.344971
7.200000 0.880000 4.840000 27.467426 5.143361 780.913696
7.200000 0.880000 4.880000 11.836765 15.692417 386.360962
7.200000 0.880000 4.920000 -6.592780 11.606447 178.174347
7.200000 0.880000 4.960000 -15.556554 -4.501031 262.265656
7.200000 0.880000 5.000000 -9.311015 -21.204874 536.341675
7.200000 0.880000 5.040000 6.804078 -27.023323 776.555481
7.200000 0.880000 5.080000 20.917469 -19.239502 807.698975
7.200000 0.880000 5.120000 24.316544 -5.158689 617.906372
7.200000 0.880000 5.160000 17.682430 4.928162 336.955109
7.200000 0.880000 5.200000 8.805632 6.323761 117.529099
7.200000 0.920000 4.800000 21.221882 24.651882 1058.083496
7.200000 0.920000 4.840000 -0.524373 28.001389 784.352722
7.200000 0.920000 4.880000 -18.488335 15.006105 567.001709
7.200000 0.920000 4.920000 -22.140665 -6.246231 529.224426
7.200000 0.920000 4.960000 -10.719593 -23.170881 651.799377
7.200000 0.920000 5.000000 7.667288 -27.515083 815.867126
7.200000 0.920000 5.040000 22.757439 -19.548250 900.035095
7.200000 0.920000 5.080000 28.589684 -5.738550 850.300964
7.200000 0.920000 5.120000 25.399073 6.590626 688.549255
7.200000 0.920000 5.160000 17.389019 13.200478 476.630615
7.200000 0.920000 5.200000 9.394239 13.746896 277.228882
7.200000 0.960000 4.800000 -15.019201 41.571018 1953.725952
7.200000 0.960000 4.840000 -37.653404 21.019361 1859.592407
7.200000 0.960000 4.880000 -38.981731 -9.475284 1609.356445
7.200000 0.960000 4.920000 -19.715702 -31.012863 1350.506592
7.200000 0.960000 4.960000 6.195916 -33.328300 1149.165039
7.200000 0.960000 5.000000 24.185631 -20.136543 990.425171
7.200000 0.960000 5.040000 28.889114 -2.497156 840.816711
7.200000 0.960000 5.080000 23.877321 11.014730 691.450745
7.200000 0.960000 5.120000 15.031605 18.040554 551.410706
7.200000 0.960000 5.160000 5.968543 19.563160 418.340729
7.200000 0.960000 5.200000 -1.277125 16.613808 277.649658
7.200000 1.000000 4.800000 -51.522831 24.731091 3266.229004
7.200000 1.000000 4.840000 -57.238647 -11.904057 3417.969238
7.200000 1.000000 4.880000 -35.281796 -41.810974 2992.962646
7.200000 1.000000 4.920000 -0.894572 -47.524471 2259.375732
7.200000 1.000000 4.960000 24.666756 -30.304216 1526.794434
7.200000 1.000000 5.000000 30.791210 -5.392387 977.176453
7.200000 1.000000 5.040000 21.779726 12.601653 633.158142
7.200000 1.000000 5.080000 8.275806 19.146387 435.073120
7.200000 1.000000 5.120000 -2.632258 17.665558 319.000702
7.200000 1.000000 5.160000 -9.301575 12.329758 238.542206
7.200000 1.000000 5.200000 -11.432018 5.218228 157.920944
7.200000 1.040000 4.800000 -61.943527 -12.528183 3993.955811
7.200000 1.040000 4.840000 -46.606834 -47.460968 4424.740234
7.200000 1.040000 4.880000 -10.847647 -61.792858 3936.028809
7.200000 1.040000 4.920000 22.878580 -48.187298 2845.445068
7.200000 1.040000 4.960000 36.306904 -18.877338 1674.545166
7.200000 1.040000 5.000000 27.757259 6.675008 815.021179
7.200000 1.040000 5.040000 9.012664 16.948154 368.468048
7.200000 1.040000 5.080000 -6.881538 13.112199 219.285339
7.200000 1.040000 5.120000 -13.987431 2.878250 203.932526
7.200000 1.040000 5.160000 -12.845467 -7.096186 215.361877
7.200000 1.040000 5.200000 -5.982616 -13.101486 207.440643
7.200000 1.080000 4.800000 -41.995358 -41.654293 3498.690186
7.200000 1.080000 4.840000 -16.411488 -62.691280 4199.533203
7.200000 1.080000 4.880000 17.806496 -60.376152 3962.351074
7.200000 1.080000 4.920000 40.451599 -36.238407 2949.554199
7.200000 1.080000 4.960000 40.430771 -6.238423 1673.565186
7.200000 1.080000 5.000000 22.490274 12.264732 656.236084
7.200000 1.080000 5.040000 1.173808 12.354694 154.016296
7.200000 1.080000 5.080000 -10.632219 -0.539340 113.334976
7.200000 1.080000 5.120000 -8.819971 -15.286581 311.471466
7.200000 1.080000 5.160000 2.478378 -22.836090 527.629333
7.200000 1.080000 5.200000 15.529181 -19.819561 633.970459
7.200000 1.120000 4.800000 -11.791898 -43.784927 2056.168701
7.200000 1.120000 4.840000 10.394665 -53.087738 2926.356934
7.200000 1.120000 4.880000 35.464741 -44.020512 3195.553223
7.200000 1.120000 4.920000 47.991653 -19.827232 2696.317871
7.200000 1.120000 4.960000 40.620712 5.041151 1675.455444
7.200000 1.120000 5.000000 19.932468 15.698837 643.756775
7.200000 1.120000 5.040000 1.326115 7.908304 64.299850
7.200000 1.120000 5.080000 -2.651566 -9.407354 95.529114
7.200000 1.120000 5.120000 8.933735 -21.639450 548.077454
7.200000 1.120000 5.160000 26.001434 -19.454361 1054.546753
7.200000 1.120000 5.200000 35.894424 -4.566217 1309.260010
7.200000 1.160000 4.800000 3.545704 -24.833464 629.272949
7.200000 1.160000 4.840000 18.709591 -33.188099 1451.498779
7.200000 1.160000 4.880000 38.597858 -26.028555 2167.280273
7.200000 1.160000 4.920000 47.696171 -4.655988 2296.603027
7.200000 1.160000 4.960000 37.967308 16.406036 1710.674561
7.200000 1.160000 5.000000 17.314030 21.756165 773.106323
7.200000 1.160000 5.040000 3.281211 9.375252 98.661690
7.200000 1.160000 5.080000 7.277541 -7.211221 104.964310
7.200000 1.160000 5.120000 24.350830 -11.248570 719.493286
7.200000 1.160000 5.160000 38.242661 2.206192 1467.368408
7.200000 1.160000 5.200000 36.428082 22.808435 1847.229858
7.200000 1.200000 4.800000 -3.778301 -7.299280 67.555054
7.200000 1.200000 4.840000 11.846322 -20.928841 578.351685
7.200000 1.200000 4.880000 33.896145 -14.830213 1368.883789
7.200000 1.200000 4.920000 42.381680 7.624156 1854.334473
7.200000 1.200000 4.960000 29.894680 27.284897 1638.157471
7.200000 1.200000 5.000000 9.191645 28.135492 876.092285
7.200000 1.200000 5.040000 0.207291 13.251271 175.639160
7.200000 1.200000 5.080000 9.865352 1.103829 98.543602
7.200000 1.200000 5.120000 25.701817 6.333199 700.692749
7.200000 1.200000 5.160000 29.444195 25.288197 1506.453491
7.200000 1.200000 5.200000 15.558401 40.979832 1921.410400
