#kx 	ky 	kz 	real 	imag 	intensity
3.800000 3.800000 5.983333 -59.084023 -66.392723 7898.915039
3.800000 3.800000 5.991667 -16.349888 -44.984474 2290.921875
3.800000 3.800000 6.000000 -30.578981 -53.526051 3800.112305
3.800000 3.800000 6.008333 -4.532415 -106.706970 11406.920898
3.800000 3.800000 6.016667 99.340881 -25.411665 10514.363281
3.800000 3.900000 5.983333 -24.882391 -53.610626 3493.232666
3.800000 3.900000 5.991667 66.726089 7.259632 4505.073242
3.800000 3.900000 6.000000 -17.094872 12.738407 454.501648
3.800000 3.900000 6.008333 24.309113 -26.090450 1271.644531
3.800000 3.900000 6.016667 45.710381 -6.548492 2132.321777
3.800000 4.000000 5.983333 34.719189 -70.729744 6208.119141
3.800000 4.000000 5.991667 47.175320 28.849380 3057.797363
3.800000 4.000000 6.000000 -6.873432 26.214466 734.442322
3.800000 4.000000 6.008333 15.935162 -47.935150 2551.708008
3.800000 4.000000 6.016667 118.430016 103.934113 24827.968750
3.800000 4.100000 5.983333 11.141365 7.562160 181.316284
3.800000 4.100000 5.991667 70.492859 95.382721 14067.106445
3.800000 4.100000 6.000000 -130.559021 63.312386 21054.117188
3.800000 4.100000 6.008333 47.470997 -19.963839 2652.050537
3.800000 4.100000 6.016667 -162.078995 127.030525 42406.351562
3.800000 4.200000 5.983333 23.178131 -74.135956 6033.365723
3.800000 4.200000 5.991667 -40.098351 131.964981 19022.632812
3.800000 4.200000 6.000000 -94.273895 -148.051270 30806.746094
3.800000 4.200000 6.008333 60.324551 15.763428 3887.537109
3.800000 4.200000 6.016667 -38.528442 -144.155670 22265.298828
3.900000 3.800000 5.983333 -81.596260 -22.144711 7148.337891
3.900000 3.800000 5.991667 4.800390 -186.080048 34648.828125
3.900000 3.800000 6.000000 70.093918 30.433815 5839.374512
3.900000 3.800000 6.008333 -31.118832 -119.109848 15155.538086
3.900000 3.800000 6.016667 133.746613 32.602280 18951.064453
3.900000 3.900000 5.983333 356.620941 -578.557068 461906.781250
3.900000 3.900000 5.991667 -114.277954 529.518433 293449.218750
3.900000 3.900000 6.000000 -608.911621 -451.146149 574306.250000
3.900000 3.900000 6.008333 13.796097 -533.879150 285217.281250
3.900000 3.900000 6.016667 300.393494 -549.036438 391677.250000
3.900000 4.000000 5.983333 911.863770 398.532684 990323.875000
3.900000 4.000000 5.991667 -827.933167 -148.520721 707531.687500
3.900000 4.000000 6.000000 549.119751 -950.870361 1205687.000000
3.900000 4.000000 6.008333 718.752014 -233.024933 570905.062500
3.900000 4.000000 6.016667 1031.630859 346.151520 1184083.125000
3.900000 4.100000 5.983333 -83.353241 604.597351 372485.718750
3.900000 4.100000 5.991667 -45.520027 -417.481293 176362.703125
3.900000 4.100000 6.000000 539.316284 170.535095 319944.281250
3.900000 4.100000 6.008333 268.949463 384.928986 220504.140625
3.900000 4.100000 6.016667 -146.117950 684.094360 489335.562500
3.900000 4.200000 5.983333 17.335701 172.053848 29903.054688
3.900000 4.200000 5.991667 -220.049835 -82.490242 55226.570312
3.900000 4.200000 6.000000 114.002090 -125.169830 28663.962891
3.900000 4.200000 6.008333 -14.180042 56.478722 3390.919434
3.900000 4.200000 6.016667 20.681856 -52.512142 3185.264404
4.000000 3.800000 5.983333 -56.750046 -167.271454 31200.308594
4.000000 3.800000 5.991667 233.756577 -79.677040 60990.566406
4.000000 3.800000 6.000000 -30.215858 61.007027 4634.855469
4.000000 3.800000 6.008333 121.881149 -165.490372 42242.078125
4.000000 3.800000 6.016667 147.773071 130.759811 38935.007812
4.000000 3.900000 5.983333 945.663757 345.907776 1013932.125000
4.000000 3.900000 5.991667 -765.250610 -65.324493 589875.812500
4.000000 3.900000 6.000000 541.153564 -1022.536682 1338428.500000
4.000000 3.900000 6.008333 864.120789 -144.302582 767528.000000
4.000000 3.900000 6.016667 972.599365 371.169769 1083716.500000
4.000000 4.000000 5.983333 -370.962830 1408.438599 2121312.750000
4.000000 4.000000 5.991667 66.110443 -1265.519653 1605910.625000
4.000000 4.000000 6.000000 1596.630615 605.203918 2915501.000000
4.000000 4.000000 6.008333 529.162842 1037.138306 1355669.250000
4.000000 4.000000 6.016667 -174.280502 1682.166260 2860057.000000
4.000000 4.100000 5.983333 -922.726746 -11.971947 851567.937500
4.000000 4.100000 5.991667 701.466980 -117.238312 505800.750000
4.000000 4.100000 6.000000 -197.658829 942.318604 927033.375000
4.000000 4.100000 6.008333 -511.282104 457.626740 470831.625000
4.000000 4.100000 6.016667 -1120.881714 58.479588 1259795.750000
4.000000 4.200000 5.983333 -203.242264 -23.746193 41871.300781
4.000000 4.200000 5.991667 81.838028 -208.188644 50039.976562
4.000000 4.200000 6.000000 118.455139 27.194939 14771.184570
4.000000 4.200000 6.008333 -3.501282 -15.280375 245.748825
4.000000 4.200000 6.016667 83.066399 -70.201942 11828.338867
4.100000 3.800000 5.983333 113.020767 -37.538578 14182.837891
4.100000 3.800000 5.991667 48.294731 120.487907 16849.716797
4.100000 3.800000 6.000000 -45.443604 19.409496 2441.849609
4.100000 3.800000 6.008333 104.967789 -11.147358 11142.500000
4.100000 3.800000 6.016667 21.109674 199.645233 40303.835938
4.100000 3.900000 5.983333 -141.355865 628.247986 414677.000000
4.100000 3.900000 5.991667 -19.461319 -506.782043 257206.796875
4.100000 3.900000 6.000000 697.267334 225.223816 536907.500000
4.100000 3.900000 6.008333 226.569824 544.560364 347879.875000
4.100000 3.900000 6.016667 -199.574219 693.708740 521061.687500
4.100000 4.000000 5.983333 -899.703308 -141.009766 829349.812500
4.100000 4.000000 5.991667 787.982605 -83.379395 627868.687500
4.100000 4.000000 6.000000 -188.335693 1053.742432 1145843.500000
4.100000 4.000000 6.008333 -630.460754 440.873901 591850.562500
4.100000 4.000000 6.016667 -1038.123169 22.098850 1078188.125000
4.100000 4.100000 5.983333 -13.722916 -600.494873 360782.406250
4.100000 4.100000 5.991667 155.641968 399.632050 183930.203125
4.100000 4.100000 6.000000 -568.810242 -31.028397 324507.843750
4.100000 4.100000 6.008333 -301.214752 -308.671936 186008.687500
4.100000 4.100000 6.016667 -82.686020 -652.575623 432691.906250
4.100000 4.200000 5.983333 86.315620 -70.777634 12459.859375
4.100000 4.200000 5.991667 133.765350 63.927494 21979.894531
4.100000 4.200000 6.000000 46.175594 112.732368 14840.772461
4.100000 4.200000 6.008333 32.343685 48.065399 3356.396729
4.100000 4.200000 6.016667 67.415863 147.442291 26284.126953
4.200000 3.800000 5.983333 -56.912846 37.497231 4645.114258
4.200000 3.800000 5.991667 -12.613636 -82.399559 6948.791504
4.200000 3.800000 6.000000 -18.955727 -48.200443 2682.602295
4.200000 3.800000 6.008333 118.823502 -45.106106 16153.584961
4.200000 3.800000 6.016667 -53.897686 129.804565 19754.185547
4.200000 3.900000 5.983333 -17.106354 -83.230331 7219.915527
4.200000 3.900000 5.991667 104.837860 10.502320 11101.275391
4.200000 3.900000 6.000000 45.982952 38.313374 3582.346436
4.200000 3.900000 6.008333 -2.755180 98.081749 9627.620117
4.200000 3.900000 6.016667 -60.933800 -53.216827 6544.958984
4.200000 4.000000 5.983333 115.292145 -20.934427 13730.528320
4.200000 4.000000 5.991667 16.821709 23.433266 832.087769
4.200000 4.000000 6.000000 13.548336 43.304306 2058.820312
4.200000 4.000000 6.008333 -25.359543 -41.852871 2394.769287
4.200000 4.000000 6.016667 93.835663 27.456064 9558.966797
4.200000 4.100000 5.983333 87.846771 99.460014 17609.349609
4.200000 4.100000 5.991667 81.631798 39.606697 8232.441406
4.200000 4.100000 6.000000 22.715813 107.564400 12086.107422
4.200000 4.100000 6.008333 57.299351 45.738693 5375.243652
4.200000 4.100000 6.016667 -19.745249 165.063065 27635.689453
4.200000 4.200000 5.983333 -44.152992 160.804535 27807.583984
4.200000 4.200000 5.991667 -55.978271 72.060318 8326.255859
4.200000 4.200000 6.000000 -100.078972 77.177895 15972.228516
4.200000 4.200000 6.008333 -60.939030 43.956917 5645.775879
4.200000 4.200000 6.016667 -181.412628 40.907242 34583.945312
