#kx 	ky 	kz 	real 	imag 	intensity
3.800000 3.800000 5.800000 -14.422037 -7.386555 262.556335
3.800000 3.800000 5.840000 -12.471241 -6.621447 199.375397
3.800000 3.800000 5.880000 -13.673254 -8.475304 258.788635
3.800000 3.800000 5.920000 -12.423280 -14.902597 376.425293
3.800000 3.800000 5.960000 -4.098776 -21.119122 462.817261
3.800000 3.800000 6.000000 9.087855 -19.933575 479.936523
3.800000 3.800000 6.040000 19.181814 -9.198549 452.555298
3.800000 3.800000 6.080000 19.725220 5.502419 419.360901
3.800000 3.800000 6.120000 11.573849 15.955566 388.534058
3.800000 3.800000 6.160000 1.209124 18.651043 349.323364
3.800000 3.800000 6.200000 -6.212770 16.518122 311.446869
3.800000 3.840000 5.800000 -8.649240 -17.029470 364.812195
3.800000 3.840000 5.840000 -8.083708 -13.413577 245.270386
3.800000 3.840000 5.880000 -9.730064 -15.324064 329.501099
3.800000 3.840000 5.920000 -6.265156 -20.682388 467.013367
3.800000 3.840000 5.960000 3.172964 -21.824284 486.367035
3.800000 3.840000 6.000000 11.660918 -14.634351 350.141235
3.800000 3.840000 6.040000 12.194431 -3.622610 161.827454
3.800000 3.840000 6.080000 5.578093 2.913411 39.603081
3.800000 3.840000 6.120000 -0.684958 2.118279 4.956273
3.800000 3.840000 6.160000 -1.280609 -0.591991 1.990414
3.800000 3.840000 6.200000 0.606792 1.394062 2.311606
3.800000 3.880000 5.800000 3.354589 -22.478767 516.548279
3.800000 3.880000 5.840000 1.743442 -17.847946 321.588776
3.800000 3.880000 5.880000 0.484860 -19.534290 381.823578
3.800000 3.880000 5.920000 4.569207 -21.933395 501.951477
3.800000 3.880000 5.960000 10.537133 -19.169746 478.510376
3.800000 3.880000 6.000000 11.942025 -12.810064 306.709717
3.800000 3.880000 6.040000 8.381652 -9.650984 163.393585
3.800000 3.880000 6.080000 6.653957 -12.330820 196.324265
3.800000 3.880000 6.120000 12.042184 -14.635880 359.223206
3.800000 3.880000 6.160000 20.089241 -8.181356 470.512207
3.800000 3.880000 6.200000 19.605164 6.388296 425.172760
3.800000 3.920000 5.800000 18.280376 -18.862209 689.955078
3.800000 3.920000 5.840000 14.623476 -14.171413 414.675018
3.800000 3.920000 5.880000 13.037788 -14.822253 389.683105
3.800000 3.920000 5.920000 14.877205 -15.062091 448.197815
3.800000 3.920000 5.960000 16.119755 -13.213595 434.445618
3.800000 3.920000 6.000000 15.430600 -13.056479 408.575073
3.800000 3.920000 6.040000 17.665306 -16.466728 583.216187
3.800000 3.920000 6.080000 27.243185 -17.542042 1049.914307
3.800000 3.920000 6.120000 39.350800 -7.441767 1603.865356
3.800000 3.920000 6.160000 41.009056 13.973249 1876.994385
3.800000 3.920000 6.200000 23.707455 33.365875 1675.324951
3.800000 3.960000 5.800000 28.566219 -4.811959 839.183838
3.800000 3.960000 5.840000 22.453558 -0.691455 504.640381
3.800000 3.960000 5.880000 18.863174 -1.240611 357.358459
3.800000 3.960000 5.920000 17.746037 -2.796767 322.743713
3.800000 3.960000 5.960000 18.160789 -5.511041 360.185852
3.800000 3.960000 6.000000 22.789684 -9.522820 610.053772
3.800000 3.960000 6.040000 34.380066 -9.530203 1272.813721
3.800000 3.960000 6.080000 48.026711 2.604664 2313.349121
3.800000 3.960000 6.120000 50.635376 27.516615 3321.105469
3.800000 3.960000 6.160000 31.964371 52.142376 3740.548340
3.800000 3.960000 6.200000 -2.636928 57.467289 3309.442627
3.800000 4.000000 5.800000 26.929470 14.154587 925.548706
3.800000 4.000000 5.840000 17.849157 15.929714 572.348206
3.800000 4.000000 5.880000 12.289454 12.557233 308.714783
3.800000 4.000000 5.920000 11.404678 6.907534 177.780701
3.800000 4.000000 5.960000 16.587826 1.425802 277.188873
3.800000 4.000000 6.000000 28.474197 1.367833 812.650879
3.800000 4.000000 6.040000 41.787201 13.526299 1929.130981
3.800000 4.000000 6.080000 44.360199 38.372604 3440.284180
3.800000 4.000000 6.120000 25.837406 63.999847 4763.551758
3.800000 4.000000 6.160000 -10.286270 71.586914 5230.493164
3.800000 4.000000 6.200000 -44.577652 50.810440 4568.868164
3.800000 4.040000 5.800000 12.557995 27.981686 940.677979
3.800000 4.040000 5.840000 1.790112 24.653273 610.988403
3.800000 4.040000 5.880000 -2.466908 16.258474 270.423615
3.800000 4.040000 5.920000 1.670036 7.964838 66.227669
3.800000 4.040000 5.960000 13.160412 6.125264 210.715302
3.800000 4.040000 6.000000 25.732418 16.539948 935.727173
3.800000 4.040000 6.040000 28.102430 38.850571 2299.113281
3.800000 4.040000 6.080000 11.003086 62.153622 3984.140625
3.800000 4.040000 6.120000 -22.897726 69.332611 5331.316406
3.800000 4.040000 6.160000 -56.475517 49.982399 5687.724609
3.800000 4.040000 6.200000 -68.729256 11.289064 4851.153320
3.800000 4.080000 5.800000 -7.303159 29.192833 905.557617
3.800000 4.080000 5.840000 -15.953248 19.307341 627.279541
3.800000 4.080000 5.880000 -14.280823 7.416320 258.943695
3.800000 4.080000 5.920000 -3.320353 1.943633 14.802450
3.800000 4.080000 5.960000 9.506567 9.177732 174.605591
3.800000 4.080000 6.000000 12.760573 28.113155 953.181702
3.800000 4.080000 6.040000 -1.862993 48.025536 2309.922852
3.800000 4.080000 6.080000 -31.470818 53.412529 3843.310547
3.800000 4.080000 6.120000 -60.653683 35.231445 4920.124023
3.800000 4.080000 6.160000 -70.872787 -0.137901 5022.971191
3.800000 4.080000 6.200000 -54.560276 -33.340294 4088.398926
3.800000 4.120000 5.800000 -22.614735 18.343689 847.917114
3.800000 4.120000 5.840000 -24.740915 3.834376 626.815369
3.800000 4.120000 5.880000 -15.086402 -6.422122 268.843170
3.800000 4.120000 5.920000 -0.884977 -3.828586 15.441253
3.800000 4.120000 5.960000 5.317569 11.652191 164.050110
3.800000 4.120000 6.000000 -5.458514 29.258541 885.857605
3.800000 4.120000 6.040000 -30.313671 33.717491 2055.787842
3.800000 4.120000 6.080000 -54.356041 16.897203 3240.094482
3.800000 4.120000 6.120000 -60.741444 -14.447570 3898.255127
3.800000 4.120000 6.160000 -43.749519 -42.294811 3702.871582
3.800000 4.120000 6.200000 -13.808640 -50.586956 2749.718506
3.800000 4.160000 5.800000 -27.938477 2.619791 787.421753
3.800000 4.160000 5.840000 -21.615467 -11.797564 606.410950
3.800000 4.160000 5.880000 -6.569100 -15.224062 274.925140
3.800000 4.160000 5.920000 4.273862 -4.004399 34.301109
3.800000 4.160000 5.960000 -0.619025 12.678737 161.133560
3.800000 4.160000 6.000000 -20.464748 18.813580 772.756714
3.800000 4.160000 6.040000 -40.855064 4.975879 1693.895630
3.800000 4.160000 6.080000 -44.737381 -22.474733 2506.546875
3.800000 4.160000 6.120000 -26.846024 -45.450691 2786.474365
3.800000 4.160000 6.160000 1.366323 -48.711269 2374.654785
3.800000 4.160000 6.200000 21.098061 -32.306469 1488.836060
3.800000 4.200000 5.800000 -25.022858 -10.846661 743.793457
3.800000 4.200000 5.840000 -11.972685 -20.620113 568.534302
3.800000 4.200000 5.880000 3.096051 -15.656427 254.709259
3.800000 4.200000 5.920000 6.005282 -0.396104 36.220314
3.800000 4.200000 5.960000 -7.386744 9.622667 147.159698
3.800000 4.200000 6.000000 -25.418301 1.706419 649.001892
3.800000 4.200000 6.040000 -30.051983 -21.071049 1347.110840
3.800000 4.200000 6.080000 -13.566945 -41.146805 1877.121582
3.800000 4.200000 6.120000 13.402339 -41.811565 1927.829712
3.800000 4.200000 6.160000 30.792229 -22.499363 1454.382690
3.800000 4.200000 6.200000 26.916660 0.584780 724.848572
3.840000 3.800000 5.800000 -14.911249 -5.287454 250.302521
3.840000 3.800000 5.840000 -13.514485 -7.438701 237.975586
3.840000 3.800000 5.880000 -12.012452 -11.290300 271.769897
3.840000 3.800000 5.920000 -7.241198 -16.275650 317.331726
3.840000 3.800000 5.960000 2.047192 -18.538057 347.850555
3.840000 3.800000 6.000000 12.841704 -14.174421 365.823608
3.840000 3.800000 6.040000 19.555180 -3.134075 392.227478
3.840000 3.800000 6.080000 18.296951 10.142589 437.650513
3.840000 3.800000 6.120000 9.693497 19.877964 489.097321
3.840000 3.800000 6.160000 -2.124161 22.800371 524.369019
3.840000 3.800000 6.200000 -12.798185 19.152117 530.597168
3.840000 3.840000 5.800000 -5.139028 -15.652602 271.413544
3.840000 3.840000 5.840000 -0.053119 -13.618919 185.477783
3.840000 3.840000 5.880000 3.480700 -10.265168 117.488953
3.840000 3.840000 5.920000 5.124260 -6.059322 62.973427
3.840000 3.840000 5.960000 4.433662 -2.109106 24.105690
3.840000 3.840000 6.000000 2.142718 -0.053501 4.594104
3.840000 3.840000 6.040000 0.480335 -0.343723 0.348868
3.840000 3.840000 6.080000 1.231993 -0.970255 2.459201
3.840000 3.840000 6.120000 3.262016 1.055482 11.754792
3.840000 3.840000 6.160000 2.681998 6.187508 45.478367
3.840000 3.840000 6.200000 -3.392044 10.493227 121.613777
3.840000 3.880000 5.800000 11.513768 -16.281258 397.646210
3.840000 3.880000 5.840000 16.716930 -6.237622 318.363678
3.840000 3.880000 5.880000 14.376481 5.943548 242.008972
3.840000 3.880000 5.920000 3.377930 13.782138 201.357742
3.840000 3.880000 5.960000 -10.883958 10.644729 231.770782
3.840000 3.880000 6.000000 -18.037954 -3.449055 337.263763
3.840000 3.880000 6.040000 -10.773522 -19.000935 477.104309
3.840000 3.880000 6.080000 7.342125 -23.118725 588.382263
3.840000 3.880000 6.120000 22.704370 -10.618900 628.249512
3.840000 3.880000 6.160000 22.360359 10.024488 600.476013
3.840000 3.880000 6.200000 5.572773 22.663738 544.700806
3.840000 3.920000 5.800000 25.060165 -3.075230 637.468933
3.840000 3.920000 5.840000 22.943693 14.437841 734.864380
3.840000 3.920000 5.880000 7.173868 28.158293 844.353882
3.840000 3.920000 5.920000 -16.956776 26.123882 969.989441
3.840000 3.920000 5.960000 -33.513908 4.172157 1140.588867
3.840000 3.920000 6.000000 -26.968334 -25.776510 1391.719482
3.840000 3.920000 6.040000 2.623621 -41.454441 1725.354126
3.840000 3.920000 6.080000 35.738903 -28.148396 2069.601318
3.840000 3.920000 6.120000 47.324356 6.904804 2287.270996
3.840000 3.920000 6.160000 27.885220 38.373943 2250.145020
3.840000 3.920000 6.200000 -7.681805 43.279865 1932.156860
3.840000 3.960000 5.800000 24.551468 17.786873 919.147461
3.840000 3.960000 5.840000 9.732155 35.030621 1321.859253
3.840000 3.960000 5.880000 -17.780174 37.778809 1743.373047
3.840000 3.960000 5.920000 -42.449944 16.459930 2072.927002
3.840000 3.960000 5.960000 -43.046383 -20.961069 2292.357422
3.840000 3.960000 6.000000 -11.808405 -48.899311 2530.581055
3.840000 3.960000 6.040000 33.530281 -42.867828 2961.930664
3.840000 3.960000 6.080000 59.962513 -2.189823 3600.298340
3.840000 3.960000 6.120000 45.902874 45.630516 4189.217773
3.840000 3.960000 6.160000 0.698448 65.843307 4335.829102
3.840000 3.960000 6.200000 -42.125221 45.197121 3817.313965
3.840000 4.000000 5.800000 7.911509 32.623951 1126.914062
3.840000 4.000000 5.840000 -16.582943 39.011147 1796.863525
3.840000 4.000000 5.880000 -43.438046 23.750536 2450.951660
3.840000 4.000000 5.920000 -52.023293 -11.712082 2843.595703
3.840000 4.000000 5.960000 -28.150665 -46.134865 2920.885742
3.840000 4.000000 6.000000 18.472286 -51.109604 2953.416992
3.840000 4.000000 6.040000 55.673592 -15.979443 3354.891357
3.840000 4.000000 6.080000 53.014137 38.265461 4274.744141
3.840000 4.000000 6.120000 8.869152 72.542961 5341.143066
3.840000 4.000000 6.160000 -45.627815 61.432953 5855.905273
3.840000 4.000000 6.200000 -71.520569 14.706502 5331.473145
3.840000 4.040000 5.800000 -14.872390 30.926409 1177.630737
3.840000 4.040000 5.840000 -37.982269 21.684557 1912.872803
3.840000 4.040000 5.880000 -50.123550 -5.742105 2545.342041
3.840000 4.040000 5.920000 -36.454704 -38.065720 2777.944336
3.840000 4.040000 5.960000 1.484139 -50.847313 2587.651855
3.840000 4.040000 6.000000 39.891308 -27.975679 2373.955078
3.840000 4.040000 6.040000 47.972618 20.218288 2710.151367
3.840000 4.040000 6.080000 14.375305 60.110748 3819.951416
3.840000 4.040000 6.120000 -39.709568 60.604752 5249.786133
3.840000 4.040000 6.160000 -75.566086 19.898092 6106.167480
3.840000 4.040000 6.200000 -68.543098 -32.046440 5725.130859
3.840000 4.080000 5.800000 -29.430555 14.237275 1068.857544
3.840000 4.080000 5.840000 -40.124474 -4.952545 1634.501099
3.840000 4.080000 5.880000 -33.433037 -29.684919 1998.962402
3.840000 4.080000 5.920000 -7.620103 -43.440006 1945.100098
3.840000 4.080000 5.960000 23.111284 -31.833294 1547.489990
3.840000 4.080000 6.000000 35.254150 2.586117 1249.543091
3.840000 4.080000 6.040000 14.777443 37.057667 1591.643433
3.840000 4.080000 6.080000 -27.923605 44.204613 2733.775391
3.840000 4.080000 6.120000 -62.963406 15.135281 4193.467285
3.840000 4.080000 6.160000 -64.330658 -31.079185 5104.349609
3.840000 4.080000 6.200000 -31.597263 -62.003021 4842.761719
3.840000 4.120000 5.800000 -28.811407 -5.657295 862.102173
3.840000 4.120000 5.840000 -24.604626 -23.031883 1135.855225
3.840000 4.120000 5.880000 -7.890471 -33.217064 1165.632812
3.840000 4.120000 5.920000 12.460170 -27.254011 898.036987
3.840000 4.120000 5.960000 21.712072 -6.130447 508.996490
3.840000 4.120000 6.000000 9.970679 16.416342 368.910706
3.840000 4.120000 6.040000 -17.718903 22.121796 803.333374
3.840000 4.120000 6.080000 -42.286789 2.941216 1796.823242
3.840000 4.120000 6.120000 -44.476715 -30.402359 2902.481689
3.840000 4.120000 6.160000 -20.835659 -55.301552 3492.386475
3.840000 4.120000 6.200000 12.652794 -55.095203 3195.574707
3.840000 4.160000 5.800000 -18.059776 -17.582378 635.295532
3.840000 4.160000 5.840000 -5.864084 -24.769241 647.902832
3.840000 4.160000 5.880000 7.554086 -20.281506 468.403687
3.840000 4.160000 5.920000 12.155747 -6.869053 194.946075
3.840000 4.160000 5.960000 3.326108 5.145441 37.538555
3.840000 4.160000 6.000000 -13.371342 4.869294 202.502808
3.840000 4.160000 6.040000 -25.084328 -10.346708 736.277893
3.840000 4.160000 6.080000 -21.113260 -31.608438 1444.863159
3.840000 4.160000 6.120000 -1.774323 -44.428123 1977.006348
3.840000 4.160000 6.160000 21.161892 -39.859982 2036.643799
3.840000 4.160000 6.200000 33.423882 -21.630539 1585.036133
3.840000 4.200000 5.800000 -7.431356 -20.105322 459.449036
3.840000 4.200000 5.840000 3.733328 -17.519045 320.854675
3.840000 4.200000 5.880000 7.295161 -7.429046 108.410095
3.840000 4.200000 5.920000 -0.206337 0.179129 0.074662
3.840000 4.200000 5.960000 -11.964130 -3.724720 157.013947
3.840000 4.200000 6.000000 -15.921625 -18.566021 598.195312
3.840000 4.200000 6.040000 -5.257519 -33.532352 1152.060181
3.840000 4.200000 6.080000 14.987573 -36.250477 1538.724365
3.840000 4.200000 6.120000 31.516159 -23.411367 1541.360352
3.840000 4.200000 6.160000 33.723652 -3.798951 1151.716675
3.840000 4.200000 6.200000 22.381317 9.070787 583.202576
3.880000 3.800000 5.800000 -17.561941 -7.488662 364.501831
3.880000 3.800000 5.840000 -13.267319 -11.826097 315.878326
3.880000 3.800000 5.880000 -7.813643 -14.589586 273.909058
3.880000 3.800000 5.920000 -1.256767 -15.735777 249.194138
3.880000 3.800000 5.960000 6.449284 -14.338768 247.193527
3.880000 3.800000 6.000000 14.070675 -8.864986 276.571869
3.880000 3.800000 6.040000 18.605148 1.097839 347.356812
3.880000 3.800000 6.080000 16.784485 13.207230 456.149841
3.880000 3.800000 6.120000 7.672031 22.660810 572.372375
3.880000 3.800000 6.160000 -5.736640 24.729799 644.472046
3.880000 3.800000 6.200000 -17.521353 17.865561 626.176025
3.880000 3.840000 5.800000 -1.720876 -15.056105 229.647705
3.880000 3.840000 5.840000 8.093760 -7.358139 119.651154
3.880000 3.840000 5.880000 8.589920 5.790120 107.312218
3.880000 3.840000 5.920000 -1.647785 14.246794 205.686325
3.880000 3.840000 5.960000 -14.315338 10.648060 318.310089
3.880000 3.840000 6.000000 -18.088409 -1.958927 331.027954
3.880000 3.840000 6.040000 -9.201393 -11.994312 228.529160
3.880000 3.840000 6.080000 4.452995 -9.774964 115.379089
3.880000 3.840000 6.120000 10.248629 3.253807 115.621643
3.880000 3.840000 6.160000 2.505627 15.574621 248.847000
3.880000 3.840000 6.200000 -12.159762 16.082439 406.504700
3.880000 3.880000 5.800000 16.033329 -6.231380 295.897736
3.880000 3.880000 5.840000 18.517027 17.754309 658.095764
3.880000 3.880000 5.880000 -2.120888 38.834496 1512.616211
3.880000 3.880000 5.920000 -36.251984 36.143776 2620.578857
3.880000 3.880000 5.960000 -58.337936 5.288406 3431.282227
3.880000 3.880000 6.000000 -48.472290 -33.734512 3487.580322
3.880000 3.880000 6.040000 -11.689648 -51.599014 2799.106201
3.880000 3.880000 6.080000 24.534336 -35.104904 1834.287842
3.880000 3.880000 6.120000 33.661133 0.959169 1133.991943
3.880000 3.880000 6.160000 12.727620 27.184088 900.966919
3.880000 3.880000 6.200000 -16.739418 25.455956 928.213806
3.880000 3.920000 5.800000 20.112307 15.440910 642.926575
3.880000 3.920000 5.840000 1.572931 45.905739 2109.811035
3.880000 3.920000 5.880000 -43.351547 53.116997 4700.771973
3.880000 3.920000 5.920000 -85.173141 18.371792 7591.986816
3.880000 3.920000 5.960000 -87.171326 -42.947235 9443.304688
3.880000 3.920000 6.000000 -39.630775 -88.204285 9350.593750
3.880000 3.920000 6.040000 26.894972 -82.524124 7533.570312
3.880000 3.920000 6.080000 65.003105 -30.228924 5139.191406
3.880000 3.920000 6.120000 50.537857 27.923246 3333.782715
3.880000 3.920000 6.160000 2.038433 50.010666 2505.221924
3.880000 3.920000 6.200000 -38.116787 27.749161 2222.905273
3.880000 3.960000 5.800000 3.869408 33.451168 1133.952881
3.880000 3.960000 5.840000 -36.208454 50.831490 3894.892578
3.880000 3.960000 5.880000 -87.314964 26.481770 8325.186523
3.880000 3.960000 5.920000 -106.603981 -39.075729 12891.322266
3.880000 3.960000 5.960000 -66.268074 -105.312454 15482.169922
3.880000 3.960000 6.000000 15.412840 -121.150146 14914.914062
3.880000 3.960000 6.040000 83.056763 -70.158798 11820.682617
3.880000 3.960000 6.080000 89.278824 11.712790 8107.897949
3.880000 3.960000 6.120000 35.161167 65.150536 5480.899902
3.880000 3.960000 6.160000 -32.100430 57.432594 4328.940430
3.880000 3.960000 6.200000 -61.720493 7.095648 3859.767334
3.880000 4.000000 5.800000 -22.231680 31.784946 1504.530396
3.880000 4.000000 5.840000 -67.219627 22.548012 5026.891602
3.880000 4.000000 5.880000 -97.276367 -29.222158 10316.625977
3.880000 4.000000 5.920000 -75.567215 -98.450027 15402.812500
3.880000 4.000000 5.960000 -0.959100 -133.741348 17887.667969
3.880000 4.000000 6.000000 81.248032 -100.463593 16694.175781
3.880000 4.000000 6.040000 112.460045 -15.581947 12890.058594
3.880000 4.000000 6.080000 70.726822 61.767670 8817.528320
3.880000 4.000000 6.120000 -9.266174 78.766472 6290.019043
3.880000 4.000000 6.160000 -66.178650 32.527905 5437.678223
3.880000 4.000000 6.200000 -64.178589 -31.324621 5100.123047
3.880000 4.040000 5.800000 -38.318127 9.846462 1565.231689
3.880000 4.040000 5.840000 -66.520737 -20.962116 4864.418457
3.880000 4.040000 5.880000 -61.876320 -75.200783 9483.836914
3.880000 4.040000 5.920000 -10.012499 -116.047920 13567.370117
3.880000 4.040000 5.960000 64.307663 -104.820877 15122.891602
3.880000 4.040000 6.000000 109.917770 -38.021591 13527.557617
3.880000 4.040000 6.040000 90.832039 42.462410 10053.515625
3.880000 4.040000 6.080000 19.552185 80.539429 6868.887695
3.880000 4.040000 6.120000 -50.980862 52.620041 5367.916992
3.880000 4.040000 6.160000 -71.529312 -13.139454 5289.087402
3.880000 4.040000 6.200000 -36.506935 -63.073353 5311.003906
3.880000 4.080000 5.800000 -32.546356 -16.300053 1324.957031
3.880000 4.080000 5.840000 -34.885399 -48.664200 3585.195312
3.880000 4.080000 5.880000 -6.954260 -79.910225 6434.005859
3.880000 4.080000 5.920000 43.602982 -81.966362 8619.704102
3.880000 4.080000 5.960000 85.077156 -42.123661 9012.525391
3.880000 4.080000 6.000000 84.410065 19.828060 7518.210938
3.880000 4.080000 6.040000 36.940506 62.252003 5239.912598
3.880000 4.080000 6.080000 -25.412848 54.776226 3646.247803
3.880000 4.080000 6.120000 -58.359840 4.798332 3428.894775
3.880000 4.080000 6.160000 -41.660645 -48.140366 4053.104004
3.880000 4.080000 6.200000 5.409777 -65.876724 4369.008301
3.880000 4.120000 5.800000 -11.393244 -28.424835 937.777222
3.880000 4.120000 5.840000 2.201262 -44.308701 1968.106567
3.880000 4.120000 5.880000 28.021469 -47.020645 2996.144043
3.880000 4.120000 5.920000 52.120968 -28.144051 3508.682861
3.880000 4.120000 5.960000 56.231167 5.969330 3197.576904
3.880000 4.120000 6.000000 32.801163 34.503967 2266.439941
3.880000 4.120000 6.040000 -5.394428 36.568630 1366.364624
3.880000 4.120000 6.080000 -32.326866 9.072603 1127.338379
3.880000 4.120000 6.120000 -28.887241 -28.597553 1652.292725
3.880000 4.120000 6.160000 1.068995 -49.253510 2427.051025
3.880000 4.120000 6.200000 33.936562 -39.917313 2745.082031
3.880000 4.160000 5.800000 7.510312 -22.354313 556.120117
3.880000 4.160000 5.840000 18.886070 -19.692751 744.488098
3.880000 4.160000 5.880000 25.704071 -9.461016 750.210083
3.880000 4.160000 5.920000 23.588329 3.051132 565.718689
3.880000 4.160000 5.960000 13.033606 10.688103 284.110413
3.880000 4.160000 6.000000 -0.248734 8.300867 68.966263
3.880000 4.160000 6.040000 -7.933037 -3.665947 76.372238
3.880000 4.160000 6.080000 -4.155519 -18.355114 354.178558
3.880000 4.160000 6.120000 9.884560 -26.197618 784.019714
3.880000 4.160000 6.160000 25.818138 -21.548815 1130.927612
3.880000 4.160000 6.200000 33.727016 -7.215309 1189.572266
3.880000 4.200000 5.800000 12.668476 -9.931496 259.124878
3.880000 4.200000 5.840000 12.138301 -0.614710 147.716217
3.880000 4.200000 5.880000 3.413323 3.566071 24.367632
3.880000 4.200000 5.920000 -5.359747 -2.455385 34.755802
3.880000 4.200000 5.960000 -5.340805 -14.563179 240.610382
3.880000 4.200000 6.000000 5.081467 -23.126560 560.659058
3.880000 4.200000 6.040000 19.141266 -21.371441 823.126587
3.880000 4.200000 6.080000 27.817490 -10.668543 887.630554
3.880000 4.200000 6.120000 27.125763 1.546107 738.197449
3.880000 4.200000 6.160000 20.233768 8.447096 480.758820
3.880000 4.200000 6.200000 13.508716 8.686680 257.943787
3.920000 3.800000 5.800000 -16.507797 -12.575681 430.655090
3.920000 3.800000 5.840000 -8.636816 -15.364300 310.656311
3.920000 3.800000 5.880000 -1.771503 -14.372688 209.712402
3.920000 3.800000 5.920000 3.347832 -12.161905 159.119919
3.920000 3.800000 5.960000 8.437374 -9.565655 162.691040
3.920000 3.800000 6.000000 14.294678 -4.551521 225.054169
3.920000 3.800000 6.040000 18.231451 4.989395 357.279877
3.920000 3.800000 6.080000 15.687527 17.337236 546.678284
3.920000 3.800000 6.120000 4.942167 26.485426 725.902832
3.920000 3.800000 6.160000 -9.749791 26.404705 792.266846
3.920000 3.800000 6.200000 -20.198254 16.436230 678.119141
3.920000 3.840000 5.800000 2.293183 -11.875285 146.281097
3.920000 3.840000 5.840000 8.724010 5.265934 103.838425
3.920000 3.840000 5.880000 -3.455181 21.814051 487.791077
3.920000 3.840000 5.920000 -26.052345 20.755722 1109.524658
3.920000 3.840000 5.960000 -38.938293 -0.044624 1516.192627
3.920000 3.840000 6.000000 -28.872787 -23.881561 1403.966797
3.920000 3.840000 6.040000 -2.986588 -29.936552 905.116821
3.920000 3.840000 6.080000 17.107243 -12.817440 456.944519
3.920000 3.840000 6.120000 15.249914 12.362089 385.381104
3.920000 3.840000 6.160000 -4.685667 24.383291 616.500366
3.920000 3.840000 6.200000 -23.521336 15.479547 792.869629
3.920000 3.880000 5.800000 12.574900 6.132418 195.734650
3.920000 3.880000 5.840000 -2.687305 38.191788 1465.834229
3.920000 3.880000 5.880000 -46.850636 46.702480 4376.103516
3.920000 3.880000 5.920000 -87.634720 12.098465 7826.217285
3.920000 3.880000 5.960000 -87.466858 -47.737617 9929.331055
3.920000 3.880000 6.000000 -39.561180 -88.856964 9460.646484
3.920000 3.880000 6.040000 22.672077 -79.523804 6838.058105
3.920000 3.880000 6.080000 53.894943 -29.070749 3749.773193
3.920000 3.880000 6.120000 36.462303 20.994274 1770.259033
3.920000 3.880000 6.160000 -6.454334 34.763969 1250.192017
3.920000 3.880000 6.200000 -35.384491 11.933283 1394.465454
3.920000 3.920000 5.800000 1.472170 26.600079 709.731506
3.920000 3.920000 5.840000 -44.584648 50.267780 4514.640625
3.920000 3.920000 5.880000 -106.103935 22.039600 11743.789062
3.920000 3.920000 5.920000 -128.538452 -56.650459 19731.408203
3.920000 3.920000 5.960000 -79.295868 -134.558685 24393.873047
3.920000 3.920000 6.000000 16.500576 -151.408890 23196.921875
3.920000 3.920000 6.040000 92.671196 -92.173187 17083.847656
3.920000 3.920000 6.080000 98.308914 -2.185955 9669.420898
3.920000 3.920000 6.120000 40.791775 52.722206 4443.600098
3.920000 3.920000 6.160000 -24.958557 42.939941 2466.768066
3.920000 3.920000 6.200000 -48.443951 -4.847401 2370.313721
3.920000 3.960000 5.800000 -24.838892 28.864510 1450.130493
3.920000 3.960000 5.840000 -86.578995 20.172932 7902.869629
3.920000 3.960000 5.880000 -129.366074 -50.447456 19280.525391
3.920000 3.960000 5.920000 -99.533829 -146.430634 31348.914062
3.920000 3.960000 5.960000 3.095104 -195.092773 38070.769531
3.920000 3.960000 6.000000 114.605667 -150.873703 35897.335938
3.920000 3.960000 6.040000 157.507278 -40.009331 26409.289062
3.920000 3.960000 6.080000 107.454910 58.882149 15013.665039
3.920000 3.960000 6.120000 12.757956 81.960648 6880.313477
3.920000 3.960000 6.160000 -51.237617 31.882473 3641.785645
3.920000 3.960000 6.200000 -47.834145 -33.028419 3378.981934
3.920000 4.000000 5.800000 -44.117188 6.446026 1987.877441
3.920000 4.000000 5.840000 -91.203140 -37.151657 9698.257812
3.920000 4.000000 5.880000 -87.125229 -122.713783 22649.478516
3.920000 4.000000 5.920000 -6.305024 -189.405518 35914.203125
3.920000 4.000000 5.960000 111.516663 -174.508575 42889.207031
3.920000 4.000000 6.000000 185.942520 -73.295380 39946.835938
3.920000 4.000000 6.040000 163.359909 49.268387 29113.832031
3.920000 4.000000 6.080000 64.643723 110.758820 16446.328125
3.920000 4.000000 6.120000 -33.186699 80.378738 7562.098633
3.920000 4.000000 6.160000 -64.272545 0.504481 4131.214355
3.920000 4.000000 6.200000 -26.334492 -57.180279 3963.089600
3.920000 4.040000 5.800000 -37.875786 -24.853086 2052.250977
3.920000 4.040000 5.840000 -49.524139 -80.202682 8885.110352
3.920000 4.040000 5.880000 -3.614607 -140.835449 19847.687500
3.920000 4.040000 5.920000 89.413208 -150.486115 30640.792969
3.920000 4.040000 5.960000 170.768921 -81.882736 35866.804688
3.920000 4.040000 6.000000 178.550812 30.786098 32828.175781
3.920000 4.040000 6.040000 102.830048 113.812210 23527.238281
3.920000 4.040000 6.080000 -2.418856 114.459335 13106.790039
3.920000 4.040000 6.120000 -64.146851 44.620628 6105.818848
3.920000 4.040000 6.160000 -50.872738 -32.918076 3671.635254
3.920000 4.040000 6.200000 6.754642 -61.234104 3795.240723
3.920000 4.080000 5.800000 -9.189482 -40.339531 1711.724243
3.920000 4.080000 5.840000 8.645531 -77.732910 6117.150391
3.920000 4.080000 5.880000 62.406143 -94.116211 12752.387695
3.920000 4.080000 5.920000 123.436371 -60.620689 18911.406250
3.920000 4.080000 5.960000 145.665070 15.914322 21471.578125
3.920000 4.080000 6.000000 104.577896 90.388153 19106.554688
3.920000 4.080000 6.040000 22.504814 113.085991 13294.908203
3.920000 4.080000 6.080000 -46.178520 71.334030 7221.000000
3.920000 4.080000 6.120000 -59.016388 0.531168 3483.216309
3.920000 4.080000 6.160000 -19.041615 -46.440918 2519.341797
3.920000 4.080000 6.200000 32.258354 -43.127075 2900.545898
3.920000 4.120000 5.800000 19.704350 -29.083107 1234.088501
3.920000 4.120000 5.840000 41.408913 -36.860725 3073.411133
3.920000 4.120000 5.880000 70.087273 -23.965662 5486.578613
3.920000 4.120000 5.920000 85.427574 12.136215 7445.158203
3.920000 4.120000 5.960000 70.176094 54.782887 7925.848633
3.920000 4.120000 6.000000 26.693127 77.029800 6646.113281
3.920000 4.120000 6.040000 -20.663559 62.456055 4327.741211
3.920000 4.120000 6.080000 -42.490448 20.169758 2212.257324
3.920000 4.120000 6.120000 -27.502392 -20.791033 1188.648560
3.920000 4.120000 6.160000 8.658920 -34.225109 1246.334961
3.920000 4.120000 6.200000 37.215683 -16.908432 1670.902100
3.920000 4.160000 5.800000 28.272724 -3.515002 811.702148
3.920000 4.160000 5.840000 32.533485 5.348747 1087.036743
3.920000 4.160000 5.880000 30.658367 16.073830 1198.303467
3.920000 4.160000 5.920000 22.884209 24.686428 1133.106689
3.920000 4.160000 5.960000 11.102615 28.213928 919.293823
3.920000 4.160000 6.000000 -1.466049 24.570896 605.878235
3.920000 4.160000 6.040000 -9.956663 13.651295 285.492981
3.920000 4.160000 6.080000 -9.524027 -0.710709 91.212189
3.920000 4.160000 6.120000 0.761158 -11.107480 123.955475
3.920000 4.160000 6.160000 15.399790 -11.034758 358.919403
3.920000 4.160000 6.200000 25.159145 -0.388844 633.133789
3.920000 4.200000 5.800000 16.384996 13.662399 455.129272
3.920000 4.200000 5.840000 3.116500 17.947144 331.812561
3.920000 4.200000 5.880000 -9.095552 8.613363 156.919098
3.920000 4.200000 5.920000 -8.434582 -7.454959 126.718582
3.920000 4.200000 5.960000 5.167068 -16.232231 290.183929
3.920000 4.200000 6.000000 19.723967 -10.435020 497.924500
3.920000 4.200000 6.040000 23.131916 3.562687 547.778259
3.920000 4.200000 6.080000 14.786360 12.714382 380.291931
3.920000 4.200000 6.120000 5.099653 10.494875 136.148865
3.920000 4.200000 6.160000 4.069743 2.572191 23.178976
3.920000 4.200000 6.200000 11.296910 -0.244677 127.680046
3.960000 3.800000 5.800000 -11.230680 -14.539854 337.535522
3.960000 3.800000 5.840000 -3.197144 -13.556770 194.007751
3.960000 3.800000 5.880000 1.419075 -10.099343 104.010506
3.960000 3.800000 5.920000 4.174301 -7.691414 76.582642
3.960000 3.800000 5.960000 8.410421 -5.697815 103.200287
3.960000 3.800000 6.000000 14.222012 -0.248978 202.327606
3.960000 3.800000 6.040000 17.030746 10.644150 403.344238
3.960000 3.800000 6.080000 11.757324 23.308575 681.524353
3.960000 3.800000 6.120000 -1.461205 30.343315 922.851929
3.960000 3.800000 6.160000 -15.970530 26.923073 979.909668
3.960000 3.800000 6.200000 -23.429932 15.475775 788.461304
3.960000 3.840000 5.800000 2.187927 -4.999733 29.784355
3.960000 3.840000 5.840000 -3.354267 15.087538 238.884903
3.960000 3.840000 5.880000 -27.476578 21.372425 1211.742920
3.960000 3.840000 5.920000 -49.177200 1.884460 2421.948242
3.960000 3.840000 5.960000 -45.733959 -30.771133 3038.457520
3.960000 3.840000 6.000000 -15.566460 -49.207623 2663.704834
3.960000 3.840000 6.040000 18.489929 -36.622051 1683.052124
3.960000 3.840000 6.080000 29.624630 -2.889221 885.966309
3.960000 3.840000 6.120000 11.382483 24.668743 738.107788
3.960000 3.840000 6.160000 -17.738785 26.549515 1019.541199
3.960000 3.840000 6.200000 -33.044987 7.496111 1148.162842
3.960000 3.880000 5.800000 -1.261747 13.061298 172.189529
3.960000 3.880000 5.840000 -37.548309 34.080803 2571.376465
3.960000 3.880000 5.880000 -87.356674 11.199371 7756.614258
3.960000 3.880000 5.920000 -103.626274 -53.174812 13565.964844
3.960000 3.880000 5.960000 -60.572220 -114.353760 16745.775391
3.960000 3.880000 6.000000 17.744339 -123.026749 15450.442383
3.960000 3.880000 6.040000 75.446716 -70.747604 10697.430664
3.960000 3.880000 6.080000 73.835983 1.557491 5454.178223
3.960000 3.880000 6.120000 24.239880 40.734810 2246.896484
3.960000 3.880000 6.160000 -26.182316 27.813652 1459.112915
3.960000 3.880000 6.200000 -39.655540 -10.561051 1684.097656
3.960000 3.920000 5.800000 -22.377962 19.302401 873.355835
3.960000 3.920000 5.840000 -83.289551 12.330727 7089.196289
3.960000 3.920000 5.880000 -125.186554 -57.959358 19030.960938
3.960000 3.920000 5.920000 -93.348984 -152.647324 32015.238281
3.960000 3.920000 5.960000 9.853119 -197.726196 39192.730469
3.960000 3.920000 6.000000 118.038742 -150.376389 36546.203125
3.960000 3.920000 6.040000 155.742828 -41.031788 25939.435547
3.960000 3.920000 6.080000 104.232574 51.600700 13527.062500
3.960000 3.920000 6.120000 15.067301 69.375893 5040.038086
3.960000 3.920000 6.160000 -40.127670 21.375675 2067.149414
3.960000 3.920000 6.200000 -32.873386 -33.875256 2228.192383
3.960000 3.960000 5.800000 -42.352123 1.516975 1796.003662
3.960000 3.960000 5.840000 -97.575546 -46.977455 11727.869141
3.960000 3.960000 5.880000 -92.652039 -145.892532 29869.031250
3.960000 3.960000 5.920000 2.097095 -221.848755 49221.269531
3.960000 3.960000 5.960000 137.752182 -202.123108 59829.414062
3.960000 3.960000 6.000000 220.618317 -84.825790 55867.855469
3.960000 3.960000 6.040000 192.848495 52.637779 39961.277344
3.960000 3.960000 6.080000 83.359192 118.647552 21025.996094
3.960000 3.960000 6.120000 -20.141109 84.903664 7614.296387
3.960000 3.960000 6.160000 -49.813210 3.374778 2492.745117
3.960000 3.960000 6.200000 -10.981720 -49.354153 2556.430420
3.960000 4.000000 5.800000 -39.119354 -29.830099 2420.158691
3.960000 4.000000 5.840000 -57.717503 -102.525215 13842.730469
3.960000 4.000000 5.880000 2.813183 -184.518768 34055.089844
3.960000 4.000000 5.920000 127.721497 -197.320023 55247.972656
3.960000 4.000000 5.960000 235.838379 -105.062119 66657.789062
3.960000 4.000000 6.000000 245.345825 43.714890 62105.566406
3.960000 4.000000 6.040000 147.146225 151.160950 44501.644531
3.960000 4.000000 6.080000 14.618164 152.595917 23499.205078
3.960000 4.000000 6.120000 -60.684021 68.890991 8428.519531
3.960000 4.000000 6.160000 -45.866726 -19.361935 2478.641113
3.960000 4.000000 6.200000 15.481082 -47.313385 2478.220215
3.960000 4.040000 5.800000 -9.420151 -48.814915 2471.635254
3.960000 4.040000 5.840000 13.372282 -109.957275 12269.420898
3.960000 4.040000 5.880000 97.787796 -139.877640 29128.207031
3.960000 4.040000 5.920000 196.453705 -88.703323 46462.339844
3.960000 4.040000 5.960000 233.447693 32.221794 55536.066406
3.960000 4.040000 6.000000 170.661530 149.606781 51507.546875
3.960000 4.040000 6.040000 45.683041 186.545410 36886.132812
3.960000 4.040000 6.080000 -57.480698 127.425621 19541.320312
3.960000 4.040000 6.120000 -78.888741 28.517565 7036.685059
3.960000 4.040000 6.160000 -28.625099 -34.496490 2009.404053
3.960000 4.040000 6.200000 32.169353 -30.580088 1970.009033
3.960000 4.080000 5.800000 25.943586 -37.776398 2100.125977
3.960000 4.080000 5.840000 64.966866 -63.015907 8191.698242
3.960000 4.080000 5.880000 127.468544 -45.127075 18284.681641
3.960000 4.080000 5.920000 166.294785 26.814507 28372.972656
3.960000 4.080000 5.960000 140.393402 117.084137 33419.000000
3.960000 4.080000 6.000000 54.088528 166.884735 30776.083984
3.960000 4.080000 6.040000 -41.110931 142.614655 22029.048828
3.960000 4.080000 6.080000 -86.958481 64.846069 11766.790039
3.960000 4.080000 6.120000 -65.237823 -9.490431 4346.041992
3.960000 4.080000 6.160000 -8.479092 -35.091270 1303.292236
3.960000 4.080000 6.200000 33.081219 -11.977980 1237.839111
3.960000 4.120000 5.800000 40.348869 -4.459314 1647.916748
3.960000 4.120000 5.840000 63.656715 0.341644 4052.294189
3.960000 4.120000 5.880000 82.609802 29.381237 7687.636719
3.960000 4.120000 5.920000 75.494942 73.556725 11110.078125
3.960000 4.120000 5.960000 35.022827 106.921959 12658.904297
3.960000 4.120000 6.000000 -21.661903 105.159592 11527.778320
3.960000 4.120000 6.040000 -63.006683 65.868530 8308.504883
3.960000 4.120000 6.080000 -66.499382 12.385864 4575.577637
3.960000 4.120000 6.120000 -35.815948 -23.514980 1835.736572
3.960000 4.120000 6.160000 3.361074 -25.538029 663.487732
3.960000 4.120000 6.200000 24.701599 -2.899040 618.573425
3.960000 4.160000 5.800000 25.791838 24.966663 1288.553223
3.960000 4.160000 5.840000 21.842182 33.352966 1589.501343
3.960000 4.160000 5.880000 13.252647 39.490452 1735.128418
3.960000 4.160000 5.920000 2.250923 41.808285 1752.999268
3.960000 4.160000 5.960000 -9.947449 39.908070 1691.605835
3.960000 4.160000 6.000000 -22.093819 32.305515 1531.783203
3.960000 4.160000 6.040000 -30.256624 17.708542 1229.055786
3.960000 4.160000 6.080000 -28.645237 -0.942013 821.437012
3.960000 4.160000 6.120000 -15.031891 -15.281088 459.469391
3.960000 4.160000 6.160000 4.667185 -16.696732 300.563477
3.960000 4.160000 6.200000 18.749542 -4.118346 368.506134
3.960000 4.200000 5.800000 -0.656397 30.490955 930.129211
3.960000 4.200000 5.840000 -17.742016 22.192650 807.292847
3.960000 4.200000 5.880000 -22.127518 1.759718 492.723663
3.960000 4.200000 5.920000 -8.233986 -13.968070 262.905518
3.960000 4.200000 5.960000 11.428032 -11.216270 256.404633
3.960000 4.200000 6.000000 18.232817 5.825485 366.371887
3.960000 4.200000 6.040000 6.676609 18.694572 394.064148
3.960000 4.200000 6.080000 -9.696941 13.651335 280.389618
3.960000 4.200000 6.120000 -12.340218 -3.928089 167.710861
3.960000 4.200000 6.160000 2.851688 -15.110430 236.457214
3.960000 4.200000 6.200000 21.187153 -7.111008 499.461884
4.000000 3.800000 5.800000 -7.632988 -10.606346 170.757080
4.000000 3.800000 5.840000 -3.080215 -8.355749 79.306267
4.000000 3.800000 5.880000 -0.910839 -6.526886 43.429867
4.000000 3.800000 5.920000 2.175678 -5.908371 39.642426
4.000000 3.800000 5.960000 7.753349 -3.228500 70.537643
4.000000 3.800000 6.000000 12.756264 4.781281 185.582901
4.000000 3.800000 6.040000 11.821800 16.883446 424.805725
4.000000 3.800000 6.080000 2.558475 27.163774 744.416443
4.000000 3.800000 6.120000 -11.527657 29.633934 1011.056885
4.000000 3.800000 6.160000 -23.398630 23.228880 1087.076782
4.000000 3.800000 6.200000 -27.880352 12.597281 936.005493
4.000000 3.840000 5.800000 -5.932558 -0.240757 35.253208
4.000000 3.840000 5.840000 -22.011419 10.410992 592.891357
4.000000 3.840000 5.880000 -44.528805 -1.125465 1984.081177
4.000000 3.840000 5.920000 -48.930897 -32.117943 3425.794922
4.000000 3.840000 5.960000 -23.921448 -58.270226 3967.654785
4.000000 3.840000 6.000000 15.249985 -55.494919 3312.248047
4.000000 3.840000 6.040000 39.042427 -23.071392 2056.600342
4.000000 3.840000 6.080000 30.104782 14.855259 1126.976562
4.000000 3.840000 6.120000 -1.720669 31.028461 965.726135
4.000000 3.840000 6.160000 -29.901171 18.685703 1243.235596
4.000000 3.840000 6.200000 -35.903233 -5.261872 1316.729370
4.000000 3.880000 5.800000 -18.676338 5.338531 377.305511
4.000000 3.880000 5.840000 -59.836082 0.271313 3580.430420
4.000000 3.880000 5.880000 -86.660011 -49.395615 9949.884766
4.000000 3.880000 5.920000 -60.595921 -114.092888 16689.052734
4.000000 3.880000 5.960000 13.964760 -140.724854 19998.498047
4.000000 3.880000 6.000000 87.589645 -101.542908 17982.908203
4.000000 3.880000 6.040000 107.814438 -22.057251 12110.475586
4.000000 3.880000 6.080000 65.504044 40.482590 5929.620117
4.000000 3.880000 6.120000 0.773413 47.547733 2261.385010
4.000000 3.880000 6.160000 -35.913021 9.915201 1388.056396
4.000000 3.880000 6.200000 -28.053778 -29.035162 1630.055176
4.000000 3.920000 5.800000 -33.977882 -7.081505 1204.644165
4.000000 3.920000 5.840000 -79.581108 -48.160839 8652.619141
4.000000 3.920000 5.880000 -72.683990 -132.058945 22722.527344
4.000000 3.920000 5.920000 11.036629 -193.821869 37688.726562
4.000000 3.920000 5.960000 126.612076 -171.769394 45535.343750
4.000000 3.920000 6.000000 192.820557 -68.066544 41812.820312
4.000000 3.920000 6.040000 163.417816 47.846302 28994.652344
4.000000 3.920000 6.080000 67.993500 98.904068 14405.130859
4.000000 3.920000 6.120000 -17.019703 66.054550 4652.874023
4.000000 3.920000 6.160000 -37.535339 -2.303450 1414.207642
4.000000 3.920000 6.200000 -3.673306 -42.178207 1792.494385
4.000000 3.960000 5.800000 -32.185719 -33.138115 2134.055176
4.000000 3.960000 5.840000 -50.170712 -104.676300 13474.228516
4.000000 3.960000 5.880000 11.911150 -185.142227 34419.519531
4.000000 3.960000 5.920000 137.392044 -194.448517 56686.800781
4.000000 3.960000 5.960000 242.659821 -98.752731 68635.890625
4.000000 3.960000 6.000000 247.206818 49.586044 63569.988281
4.000000 3.960000 6.040000 146.781036 152.152313 44695.000000
4.000000 3.960000 6.080000 17.965212 148.953751 22509.968750
4.000000 3.960000 6.120000 -50.593849 66.574081 6991.845703
4.000000 3.960000 6.160000 -33.119705 -14.043797 1294.143188
4.000000 3.960000 6.200000 22.500759 -34.555595 1700.373413
4.000000 4.000000 5.800000 -6.023705 -51.465530 2684.985840
4.000000 4.000000 5.840000 19.236004 -122.340988 15337.340820
4.000000 4.000000 5.880000 117.748695 -156.607208 38390.574219
4.000000 4.000000 5.920000 231.868469 -95.094940 62806.035156
4.000000 4.000000 5.960000 271.800964 46.259090 76015.671875
4.000000 4.000000 6.000000 196.152359 179.572845 70722.156250
4.000000 4.000000 6.040000 53.105999 217.679688 50204.691406
4.000000 4.000000 6.080000 -59.821419 148.586548 25656.564453
4.000000 4.000000 6.120000 -79.516312 41.018631 8005.372070
4.000000 4.000000 6.160000 -24.846291 -21.742798 1090.087402
4.000000 4.000000 6.200000 33.429184 -13.237974 1292.754395
4.000000 4.040000 5.800000 29.152409 -42.641304 2668.143555
4.000000 4.040000 5.840000 81.779060 -81.087303 13262.965820
4.000000 4.040000 5.880000 170.190079 -58.091129 32339.242188
4.000000 4.040000 5.920000 224.959000 42.376472 52402.316406
4.000000 4.040000 5.960000 187.844528 167.288544 63271.023438
4.000000 4.040000 6.000000 68.418480 233.230026 59077.335938
4.000000 4.040000 6.040000 -58.583099 197.395782 42397.074219
4.000000 4.040000 6.080000 -115.417496 93.991234 22155.550781
4.000000 4.040000 6.120000 -84.853119 1.692867 7202.917480
4.000000 4.040000 6.160000 -16.415844 -25.208132 904.929810
4.000000 4.040000 6.200000 25.901449 3.778172 685.159668
4.000000 4.080000 5.800000 47.072815 -8.698594 2291.515381
4.000000 4.080000 5.840000 93.023148 -8.755556 8729.965820
4.000000 4.080000 5.880000 135.497330 41.694767 20097.978516
4.000000 4.080000 5.920000 127.395332 125.191788 31902.554688
4.000000 4.080000 5.960000 54.099266 188.041229 38286.234375
4.000000 4.080000 6.000000 -47.693420 183.473465 35937.175781
4.000000 4.080000 6.040000 -116.908661 112.373108 26295.351562
4.000000 4.080000 6.080000 -117.553024 23.115341 14353.033203
4.000000 4.080000 6.120000 -65.489685 -29.407490 5153.699219
4.000000 4.080000 6.160000 -9.424314 -27.024446 819.138367
4.000000 4.080000 6.200000 13.044628 4.751974 192.743576
4.000000 4.120000 5.800000 34.208595 26.858913 1891.629272
4.000000 4.120000 5.840000 50.487190 42.715565 4373.575684
4.000000 4.120000 5.880000 49.798897 77.419235 8473.667969
4.000000 4.120000 5.920000 18.524040 110.660645 12588.917969
4.000000 4.120000 5.960000 -34.912056 116.589012 14811.849609
4.000000 4.120000 6.000000 -83.244537 84.624153 14090.900391
4.000000 4.120000 6.040000 -99.895523 29.331299 10839.440430
4.000000 4.120000 6.080000 -78.695709 -19.731308 6582.339355
4.000000 4.120000 6.120000 -37.274788 -39.657475 2962.125000
4.000000 4.120000 6.160000 -2.137621 -29.114695 852.234863
4.000000 4.120000 6.200000 10.804026 -5.213242 143.904846
4.000000 4.160000 5.800000 2.274561 39.776794 1587.366943
4.000000 4.160000 5.840000 -6.127350 43.319687 1914.139648
4.000000 4.160000 5.880000 -17.055244 42.513794 2098.304199
4.000000 4.160000 5.920000 -27.472588 37.448376 2157.124023
4.000000 4.160000 5.960000 -36.705757 29.128136 2195.760986
4.000000 4.160000 6.000000 -44.342220 16.462334 2237.240967
4.000000 4.160000 6.040000 -46.650154 -1.768867 2179.365723
4.000000 4.160000 6.080000 -37.854370 -21.860672 1910.842285
4.000000 4.160000 6.120000 -16.831696 -34.180565 1451.616943
4.000000 4.160000 6.160000 7.951131 -29.972712 961.583923
4.000000 4.160000 6.200000 22.431314 -10.483929 613.076660
4.000000 4.200000 5.800000 -23.065563 26.512352 1234.925049
4.000000 4.200000 5.840000 -33.397713 8.436514 1186.582031
4.000000 4.200000 5.880000 -25.343845 -13.230209 817.348938
4.000000 4.200000 5.920000 -3.519848 -19.835396 405.832275
4.000000 4.200000 5.960000 12.183722 -6.222748 187.165665
4.000000 4.200000 6.000000 7.049124 11.871796 190.629669
4.000000 4.200000 6.040000 -11.786980 13.290108 315.559875
4.000000 4.200000 6.080000 -21.539547 -5.773426 497.284546
4.000000 4.200000 6.120000 -7.542308 -26.353836 751.411072
4.000000 4.200000 6.160000 20.273977 -25.637566 1068.318970
4.000000 4.200000 6.200000 36.322002 -0.926403 1320.146118
4.040000 3.800000 5.800000 -11.202871 -5.579578 156.636017
4.040000 3.800000 5.840000 -9.158735 -6.916059 131.714310
4.040000 3.800000 5.880000 -5.320585 -8.593307 102.153564
4.040000 3.800000 5.920000 1.148918 -7.618160 59.356377
4.040000 3.800000 5.960000 7.240234 -1.292477 54.091488
4.040000 3.800000 6.000000 8.291901 9.217235 153.713028
4.040000 3.800000 6.040000 2.192322 19.125381 370.586487
4.040000 3.800000 6.080000 -8.782714 23.715240 639.548706
4.040000 3.800000 6.120000 -19.966196 21.593378 864.922974
4.040000 3.800000 6.160000 -27.717834 14.788198 986.969116
4.040000 3.800000 6.200000 -31.020702 6.406929 1003.332764
4.040000 3.840000 5.800000 -17.764214 -5.741823 348.535828
4.040000 3.840000 5.840000 -31.859947 -10.436504 1123.976807
4.040000 3.840000 5.880000 -37.816341 -31.938919 2450.170166
4.040000 3.840000 5.920000 -21.285248 -55.744705 3560.533936
4.040000 3.840000 5.960000 12.438522 -59.900093 3742.738037
4.040000 3.840000 6.000000 40.510963 -36.013039 2938.077148
4.040000 3.840000 6.040000 42.085068 1.439041 1773.223755
4.040000 3.840000 6.080000 16.722891 26.952934 1006.115784
4.040000 3.840000 6.120000 -15.846169 25.685204 910.830750
4.040000 3.840000 6.160000 -33.693275 4.485332 1155.354980
4.040000 3.840000 6.200000 -30.612965 -17.037146 1227.417969
4.040000 3.880000 5.800000 -25.221113 -16.989761 924.756531
4.040000 3.880000 5.840000 -47.952583 -42.796379 4130.980469
4.040000 3.880000 5.880000 -38.284775 -91.512985 9840.350586
4.040000 3.880000 5.920000 15.931358 -123.277817 15451.228516
4.040000 3.880000 5.960000 84.913101 -102.870422 17792.558594
4.040000 3.880000 6.000000 119.505325 -35.366287 15532.296875
4.040000 3.880000 6.040000 94.737556 34.744530 10182.387695
4.040000 3.880000 6.080000 32.201225 61.563118 4826.936523
4.040000 3.880000 6.120000 -20.317558 36.580250 1750.917725
4.040000 3.880000 6.160000 -31.357508 -8.390211 1053.688965
4.040000 3.880000 6.200000 -9.228321 -34.380299 1267.166748
4.040000 3.920000 5.800000 -19.991405 -36.876690 1759.546509
4.040000 3.920000 5.840000 -28.718002 -87.895096 8550.271484
4.040000 3.920000 5.880000 20.753647 -142.975830 20872.800781
4.040000 3.920000 5.920000 113.874527 -143.516113 33564.281250
4.040000 3.920000 5.960000 187.619995 -67.426071 39747.535156
4.040000 3.920000 6.000000 184.344238 43.290180 35856.835938
4.040000 3.920000 6.040000 105.029251 115.319046 24329.625000
4.040000 3.920000 6.080000 9.258026 107.377449 11615.627930
4.040000 3.920000 6.120000 -38.247215 43.239731 3332.523926
4.040000 3.920000 6.160000 -22.142443 -15.798928 739.893921
4.040000 3.920000 6.200000 19.217916 -28.927391 1206.122314
4.040000 3.960000 5.800000 3.712233 -49.817207 2495.534912
4.040000 3.960000 5.840000 27.658447 -107.680511 12360.082031
4.040000 3.960000 5.880000 113.461624 -132.676147 30476.500000
4.040000 3.960000 5.920000 209.636688 -74.646988 49519.714844
4.040000 3.960000 5.960000 238.582718 49.636024 59385.449219
4.040000 3.960000 6.000000 167.765167 162.105804 54423.441406
4.040000 3.960000 6.040000 42.980747 189.200592 37644.207031
4.040000 3.960000 6.080000 -50.615246 125.465759 18303.560547
4.040000 3.960000 6.120000 -62.402496 33.866699 5041.024902
4.040000 3.960000 6.160000 -13.987514 -15.181469 426.127533
4.040000 3.960000 6.200000 32.038059 -4.353641 1045.391479
4.040000 4.000000 5.800000 34.419674 -40.206978 2801.314941
4.040000 4.000000 5.840000 87.028481 -76.853058 13480.349609
4.040000 4.000000 5.880000 175.089661 -51.098930 33267.488281
4.040000 4.000000 5.920000 227.043854 52.190342 54272.742188
4.040000 4.000000 5.960000 185.083099 176.819977 65521.058594
4.040000 4.000000 6.000000 62.763985 238.192627 60675.042969
4.040000 4.000000 6.040000 -61.662064 197.105194 42652.667969
4.040000 4.000000 6.080000 -112.105888 93.339836 21280.054688
4.040000 4.000000 6.120000 -77.674561 7.058578 6083.161133
4.040000 4.000000 6.160000 -12.832781 -12.622700 324.012817
4.040000 4.000000 6.200000 20.529182 17.305992 720.944702
4.040000 4.040000 5.800000 50.498775 -8.548553 2623.204102
4.040000 4.040000 5.840000 106.168167 -9.910973 11369.907227
4.040000 4.040000 5.880000 158.183228 51.473236 27671.427734
4.040000 4.040000 5.920000 147.097290 152.972961 45038.339844
4.040000 4.040000 5.960000 56.647259 226.592865 54553.238281
4.040000 4.040000 6.000000 -64.527000 216.456711 51017.242188
4.040000 4.040000 6.040000 -141.284988 128.980743 36597.476562
4.040000 4.040000 6.080000 -135.266571 27.040403 19028.228516
4.040000 4.040000 6.120000 -73.165627 -25.763851 6016.984863
4.040000 4.040000 6.160000 -15.587339 -16.472578 514.310974
4.040000 4.040000 6.200000 -0.557400 17.162560 294.864136
4.040000 4.080000 5.800000 38.832527 26.091022 2188.706543
4.040000 4.080000 5.840000 71.424286 48.188660 7423.575684
4.040000 4.080000 5.880000 76.461914 106.257851 17137.154297
4.040000 4.080000 5.920000 27.684471 163.322617 27440.707031
4.040000 4.080000 5.960000 -58.354160 172.635803 33208.328125
4.040000 4.080000 6.000000 -131.600418 118.992378 31477.855469
4.040000 4.080000 6.040000 -149.181656 33.500671 23377.460938
4.040000 4.080000 6.080000 -109.803749 -32.486473 13112.234375
4.040000 4.080000 6.120000 -50.696796 -49.250832 4995.809570
4.040000 4.080000 6.160000 -12.565790 -27.748846 927.897583
4.040000 4.080000 6.200000 -7.463238 -1.462940 57.840111
4.040000 4.120000 5.800000 7.285019 41.365749 1764.196777
4.040000 4.120000 5.840000 11.193953 60.616364 3799.648193
4.040000 4.120000 5.880000 -7.598183 85.434494 7356.785156
4.040000 4.120000 5.920000 -48.178452 93.195801 11006.620117
4.040000 4.120000 5.960000 -90.675087 69.857002 13101.972656
4.040000 4.120000 6.000000 -110.711487 22.193726 12749.594727
4.040000 4.120000 6.040000 -97.604691 -26.864834 10248.395508
4.040000 4.120000 6.080000 -61.050919 -55.128757 6766.394531
4.040000 4.120000 6.120000 -22.045866 -55.567150 3573.728516
4.040000 4.120000 6.160000 2.520716 -37.489975 1411.852173
4.040000 4.120000 6.200000 8.738796 -16.346565 343.576782
4.040000 4.160000 5.800000 -21.836094 30.735250 1421.470703
4.040000 4.160000 5.840000 -30.299543 29.405151 1782.725220
4.040000 4.160000 5.880000 -39.191345 22.309114 2033.658203
4.040000 4.160000 5.920000 -44.498817 11.368629 2109.390625
4.040000 4.160000 5.960000 -46.222641 -0.588120 2136.878418
4.040000 4.160000 6.000000 -45.360256 -13.855919 2249.539307
4.040000 4.160000 6.040000 -39.364616 -29.581482 2424.637207
4.040000 4.160000 6.080000 -23.592693 -44.002678 2492.850830
4.040000 4.160000 6.120000 1.305612 -47.852409 2291.557617
4.040000 4.160000 6.160000 24.965609 -34.407223 1807.138550
4.040000 4.160000 6.200000 33.332268 -8.670712 1186.221313
4.040000 4.200000 5.800000 -31.477488 7.970334 1054.358398
4.040000 4.200000 5.840000 -31.921976 -10.790146 1135.439819
4.040000 4.200000 5.880000 -15.960052 -25.202583 889.893494
4.040000 4.200000 5.920000 4.943287 -21.478073 485.743713
4.040000 4.200000 5.960000 11.796015 -3.965206 154.868820
4.040000 4.200000 6.000000 -0.501877 7.179081 51.791084
4.040000 4.200000 6.040000 -15.362762 -2.592348 242.734741
4.040000 4.200000 6.080000 -10.963470 -24.645901 727.618103
4.040000 4.200000 6.120000 15.386110 -34.078049 1398.045776
4.040000 4.200000 6.160000 41.781162 -15.637099 1990.184448
4.040000 4.200000 6.200000 42.784630 18.562349 2175.085449
4.080000 3.800000 5.800000 -19.938101 -7.363992 451.756226
4.080000 3.800000 5.840000 -14.913494 -13.678606 409.516571
4.080000 3.800000 5.880000 -5.502596 -15.430742 268.386353
4.080000 3.800000 5.920000 3.375145 -9.777847 106.997902
4.080000 3.800000 5.960000 6.062077 0.708858 37.251251
4.080000 3.800000 6.000000 1.290825 9.987858 101.423531
4.080000 3.800000 6.040000 -7.221969 13.888256 245.040482
4.080000 3.800000 6.080000 -15.003948 12.924747 392.167572
4.080000 3.800000 6.120000 -20.797813 9.881746 530.197937
4.080000 3.800000 6.160000 -25.890171 5.684381 702.613159
4.080000 3.800000 6.200000 -30.277552 -1.204028 918.179871
4.080000 3.840000 5.800000 -22.167732 -22.211674 984.766846
4.080000 3.840000 5.840000 -21.725185 -34.375443 1653.654663
4.080000 3.840000 5.880000 -9.329887 -48.241798 2414.317871
4.080000 3.840000 5.920000 14.305450 -50.999184 2805.562744
4.080000 3.840000 5.960000 36.484692 -35.027096 2558.030273
4.080000 3.840000 6.000000 42.143547 -6.551796 1819.004639
4.080000 3.840000 6.040000 26.693657 17.979286 1035.806030
4.080000 3.840000 6.080000 0.079262 24.656727 607.960449
4.080000 3.840000 6.120000 -21.397503 12.458216 613.060242
4.080000 3.840000 6.160000 -27.635540 -7.689097 822.845276
4.080000 3.840000 6.200000 -20.549137 -23.034790 952.868591
4.080000 3.880000 5.800000 -10.950924 -40.166458 1733.267090
4.080000 3.880000 5.840000 -6.237507 -63.643585 4089.412354
4.080000 3.880000 5.880000 24.735214 -83.936333 7657.138672
4.080000 3.880000 5.920000 71.718269 -74.889534 10751.953125
4.080000 3.880000 5.960000 103.474609 -29.858429 11598.520508
4.080000 3.880000 6.000000 94.428024 27.515430 9673.750000
4.080000 3.880000 6.040000 48.695869 61.116432 6106.505859
4.080000 3.880000 6.080000 -2.315323 52.720436 2784.805176
4.080000 3.880000 6.120000 -26.720592 16.155024 974.974854
4.080000 3.880000 6.160000 -17.736769 -17.432285 618.477539
4.080000 3.880000 6.200000 5.373957 -27.635708 792.611755
4.080000 3.920000 5.800000 14.781964 -47.451805 2470.180176
4.080000 3.920000 5.840000 35.396194 -76.270317 7070.051758
4.080000 3.920000 5.880000 89.248390 -82.680702 14801.374023
4.080000 3.920000 5.920000 144.144058 -39.345535 22325.580078
4.080000 3.920000 5.960000 154.467407 40.320728 25485.941406
4.080000 3.920000 6.000000 103.903770 107.537811 22360.375000
4.080000 3.920000 6.040000 23.618534 119.070923 14735.719727
4.080000 3.920000 6.080000 -33.476624 74.803123 6716.191406
4.080000 3.920000 6.120000 -38.025230 15.647215 1690.753418
4.080000 3.920000 6.160000 -5.606225 -15.085708 259.008331
4.080000 3.920000 6.200000 24.294161 -8.199418 657.436707
4.080000 3.960000 5.800000 42.472252 -33.193558 2905.704590
4.080000 3.960000 5.840000 80.997322 -51.939087 9258.235352
4.080000 3.960000 5.880000 141.023254 -26.497021 20589.650391
4.080000 3.960000 5.920000 171.835327 51.685097 32198.728516
4.080000 3.960000 5.960000 134.352386 140.478516 37784.777344
4.080000 3.960000 6.000000 41.785774 179.594147 34000.109375
4.080000 3.960000 6.040000 -47.438572 144.025085 22993.642578
4.080000 3.960000 6.080000 -79.706436 66.229843 10739.507812
4.080000 3.960000 6.120000 -50.924202 5.325470 2621.635010
4.080000 3.960000 6.160000 -3.516219 -5.564631 43.328911
4.080000 3.960000 6.200000 18.117580 17.509289 634.821899
4.080000 4.000000 5.800000 53.629784 -1.174080 2877.532227
4.080000 4.000000 5.840000 97.515297 2.257572 9514.330078
4.080000 4.000000 5.880000 136.519547 56.689793 21851.318359
4.080000 4.000000 5.920000 121.388184 141.838684 34853.304688
4.080000 4.000000 5.960000 40.809158 199.733643 41558.914062
4.080000 4.000000 6.000000 -61.358643 185.153809 38046.816406
4.080000 4.000000 6.040000 -121.423462 107.680801 26338.812500
4.080000 4.000000 6.080000 -110.686775 23.454491 12801.675781
4.080000 4.000000 6.120000 -56.751911 -15.252987 3453.433105
4.080000 4.000000 6.160000 -12.505219 -2.879360 164.671204
4.080000 4.000000 6.200000 -6.241705 24.095228 619.538879
4.080000 4.040000 5.800000 39.201622 30.345352 2457.607666
4.080000 4.040000 5.840000 70.156647 53.251648 7757.693359
4.080000 4.040000 5.880000 72.979759 112.167923 17907.687500
4.080000 4.040000 5.920000 20.880348 168.321014 28767.953125
4.080000 4.040000 5.960000 -67.054977 173.595093 34631.625000
4.080000 4.040000 6.000000 -137.609161 115.225746 32213.253906
4.080000 4.040000 6.040000 -148.712158 29.325485 22975.291016
4.080000 4.040000 6.080000 -104.741577 -30.585587 11906.276367
4.080000 4.040000 6.120000 -48.407803 -39.101692 3872.257812
4.080000 4.040000 6.160000 -19.501696 -14.890327 602.037964
4.080000 4.040000 6.200000 -22.419603 4.969047 527.330017
4.080000 4.080000 5.800000 8.279722 42.493484 1874.250000
4.080000 4.080000 5.840000 17.121717 68.725601 5016.361816
4.080000 4.080000 5.880000 -6.276440 105.135666 11092.901367
4.080000 4.080000 5.920000 -61.769272 117.364059 17589.765625
4.080000 4.080000 5.960000 -118.631577 84.531273 21218.988281
4.080000 4.080000 6.000000 -140.486832 19.783760 20127.947266
4.080000 4.080000 6.040000 -116.099533 -40.003159 15079.354492
4.080000 4.080000 6.080000 -66.953278 -65.206512 8734.630859
4.080000 4.080000 6.120000 -26.026415 -55.358681 3741.957764
4.080000 4.080000 6.160000 -10.034397 -33.075859 1194.701538
4.080000 4.080000 6.200000 -11.183870 -19.577324 508.350555
4.080000 4.120000 5.800000 -19.005466 31.140507 1330.938965
4.080000 4.120000 5.840000 -25.561422 44.292633 2615.223633
4.080000 4.120000 5.880000 -49.155907 50.011189 4917.421875
4.080000 4.120000 5.920000 -77.654221 34.815636 7242.306152
4.080000 4.120000 5.960000 -92.460541 0.520836 8549.222656
4.080000 4.120000 6.000000 -83.475906 -37.342918 8362.720703
4.080000 4.120000 6.040000 -55.672058 -62.021965 6946.102539
4.080000 4.120000 6.080000 -23.061352 -66.805786 4994.838867
4.080000 4.120000 6.120000 2.269252 -56.183968 3161.787598
4.080000 4.120000 6.160000 15.916051 -39.006119 1774.797974
4.080000 4.120000 6.200000 19.251627 -22.072315 857.812256
4.080000 4.160000 5.800000 -28.402700 9.209150 891.521851
4.080000 4.160000 5.840000 -34.905704 4.980835 1243.216919
4.080000 4.160000 5.880000 -38.689987 -5.707497 1529.490723
4.080000 4.160000 5.920000 -35.895004 -17.690636 1601.409912
4.080000 4.160000 5.960000 -29.134012 -26.493355 1550.688477
4.080000 4.160000 6.000000 -21.914688 -33.267567 1586.984497
4.080000 4.160000 6.040000 -12.525948 -40.857277 1826.216431
4.080000 4.160000 6.080000 3.630018 -46.464706 2172.145996
4.080000 4.160000 6.120000 25.296568 -41.667686 2376.112305
4.080000 4.160000 6.160000 41.641605 -21.988125 2217.500977
4.080000 4.160000 6.200000 40.561707 4.491210 1665.423096
4.080000 4.200000 5.800000 -22.299593 -6.197994 535.687012
4.080000 4.200000 5.840000 -17.816620 -19.549530 699.616089
4.080000 4.200000 5.880000 -1.716453 -25.620289 659.345459
4.080000 4.200000 5.920000 13.038116 -16.477478 441.499756
4.080000 4.200000 5.960000 12.826202 -1.413950 166.510727
4.080000 4.200000 6.000000 0.603127 2.037392 4.514726
4.080000 4.200000 6.040000 -5.105213 -11.215130 151.842346
4.080000 4.200000 6.080000 9.422479 -25.365089 732.170837
4.080000 4.200000 6.120000 35.459244 -19.204014 1626.152100
4.080000 4.200000 6.160000 48.119816 9.758619 2410.747314
4.080000 4.200000 6.200000 31.962099 39.476334 2579.956543
4.120000 3.800000 5.800000 -25.273771 -18.327358 974.655518
4.120000 3.800000 5.840000 -12.904720 -24.892902 786.188416
4.120000 3.800000 5.880000 0.667606 -20.945652 439.166046
4.120000 3.800000 5.920000 6.897633 -9.336460 134.746826
4.120000 3.800000 5.960000 3.355722 1.404089 13.232339
4.120000 3.800000 6.000000 -4.560885 5.142181 47.243706
4.120000 3.800000 6.040000 -9.959801 3.311211 110.161751
4.120000 3.800000 6.080000 -11.642424 1.570616 138.012848
4.120000 3.800000 6.120000 -14.020143 2.117730 201.049179
4.120000 3.800000 6.160000 -20.081875 0.845566 403.996704
4.120000 3.800000 6.200000 -26.040104 -7.157491 729.316711
4.120000 3.840000 5.800000 -11.568380 -39.468102 1691.558472
4.120000 3.840000 5.840000 3.604151 -43.781773 1929.833496
4.120000 3.840000 5.880000 20.514820 -38.734337 1921.206787
4.120000 3.840000 5.920000 32.282730 -24.233904 1629.456787
4.120000 3.840000 5.960000 33.495884 -5.490150 1152.115967
4.120000 3.840000 6.000000 23.840025 9.851250 665.393921
4.120000 3.840000 6.040000 8.060619 16.141180 325.511292
4.120000 3.840000 6.080000 -7.127342 12.276100 201.501648
4.120000 3.840000 6.120000 -16.399685 1.214334 270.424286
4.120000 3.840000 6.160000 -17.450874 -12.170193 452.646606
4.120000 3.840000 6.200000 -10.981966 -23.033689 651.154419
4.120000 3.880000 5.800000 18.188869 -46.274208 2472.137207
4.120000 3.880000 5.840000 36.262001 -47.138714 3536.991211
4.120000 3.880000 5.880000 58.041939 -36.022690 4666.500977
4.120000 3.880000 5.920000 72.123749 -9.679783 5295.533203
4.120000 3.880000 5.960000 66.688347 23.260477 4988.385254
4.120000 3.880000 6.000000 40.751305 46.116032 3787.357422
4.120000 3.880000 6.040000 7.326195 46.540161 2219.659668
4.120000 3.880000 6.080000 -15.503101 26.536835 944.549744
4.120000 3.880000 6.120000 -18.022154 0.709790 325.301849
4.120000 3.880000 6.160000 -4.968942 -15.584111 267.554901
4.120000 3.880000 6.200000 10.623028 -17.360144 414.223297
4.120000 3.920000 5.800000 47.685383 -28.215166 3069.991211
4.120000 3.920000 5.840000 67.521240 -23.149595 5095.021484
4.120000 3.920000 5.880000 89.000542 0.022816 7921.096680
4.120000 3.920000 5.920000 92.782639 40.862747 10278.382812
4.120000 3.920000 5.960000 66.191833 79.881958 10762.486328
4.120000 3.920000 6.000000 18.437176 92.493141 8894.911133
4.120000 3.920000 6.040000 -23.684879 70.647369 5552.024414
4.120000 3.920000 6.080000 -37.278580 30.903219 2344.701416
4.120000 3.920000 6.120000 -21.854305 0.399629 477.770355
4.120000 3.920000 6.160000 2.689916 -5.965291 42.820343
4.120000 3.920000 6.200000 15.814198 4.611348 271.353363
4.120000 3.960000 5.800000 56.579346 7.580759 3258.690430
4.120000 3.960000 5.840000 74.282715 20.260115 5928.394043
4.120000 3.960000 5.880000 84.998932 54.820511 10230.106445
4.120000 3.960000 5.920000 66.592606 99.385773 14312.107422
4.120000 3.960000 5.960000 16.584625 124.658936 15814.900391
4.120000 3.960000 6.000000 -40.030186 109.696045 13635.638672
4.120000 3.960000 6.040000 -69.974266 62.791115 8839.122070
4.120000 3.960000 6.080000 -60.339905 15.676233 3886.648438
4.120000 3.960000 6.120000 -28.573490 -4.134216 833.536072
4.120000 3.960000 6.160000 -4.265996 4.253464 36.290672
4.120000 3.960000 6.200000 -1.710177 19.243662 373.243225
4.120000 4.000000 5.800000 37.555191 39.417629 2964.141846
4.120000 4.000000 5.840000 47.978020 57.742455 5636.081543
4.120000 4.000000 5.880000 40.607750 93.490868 10389.531250
4.120000 4.000000 5.920000 1.348463 123.292526 15202.865234
4.120000 4.000000 5.960000 -55.963539 119.191963 17338.640625
4.120000 4.000000 6.000000 -97.687904 76.342621 15371.123047
4.120000 4.000000 6.040000 -99.531296 20.211880 10314.999023
4.120000 4.000000 6.080000 -68.014626 -15.179909 4856.418945
4.120000 4.000000 6.120000 -32.817062 -16.700439 1355.864258
4.120000 4.000000 6.160000 -18.290216 -0.202426 334.572998
4.120000 4.000000 6.200000 -23.213114 9.220345 623.863403
4.120000 4.040000 5.800000 3.579027 47.923740 2309.494141
4.120000 4.040000 5.840000 4.079670 66.061882 4380.815918
4.120000 4.040000 5.880000 -18.022411 89.497604 8334.628906
4.120000 4.040000 5.920000 -61.705273 93.061493 12467.982422
4.120000 4.040000 5.960000 -102.726006 62.640724 14476.492188
4.120000 4.040000 6.000000 -114.069557 11.053846 13134.051758
4.120000 4.040000 6.040000 -90.494576 -31.836948 9202.859375
4.120000 4.040000 6.080000 -52.517632 -45.288746 4809.171875
4.120000 4.040000 6.120000 -26.345821 -34.042480 1852.992798
4.120000 4.040000 6.160000 -20.699524 -19.500080 808.723389
4.120000 4.040000 6.200000 -23.437136 -16.695072 828.024780
4.120000 4.080000 5.800000 -22.655617 31.889713 1530.230713
4.120000 4.080000 5.840000 -29.731577 43.439400 2770.948242
4.120000 4.080000 5.880000 -53.699619 48.037849 5191.284180
4.120000 4.080000 5.920000 -82.134956 30.881254 7699.802734
4.120000 4.080000 5.960000 -94.481636 -5.491566 8956.936523
4.120000 4.080000 6.000000 -80.806702 -42.258747 8315.525391
4.120000 4.080000 6.040000 -50.303802 -60.842636 6232.298828
4.120000 4.080000 6.080000 -21.695286 -58.064430 3842.163574
4.120000 4.080000 6.120000 -6.397712 -45.493988 2110.633545
4.120000 4.080000 6.160000 -1.481737 -35.692268 1276.133545
4.120000 4.080000 6.200000 2.325717 -30.848465 957.036743
4.120000 4.120000 5.800000 -27.881214 7.961494 840.747498
4.120000 4.120000 5.840000 -36.454082 9.934008 1427.584717
4.120000 4.120000 5.880000 -49.250751 0.984573 2426.605957
4.120000 4.120000 5.920000 -54.553947 -18.846037 3331.306396
4.120000 4.120000 5.960000 -46.120209 -39.941650 3722.409180
4.120000 4.120000 6.000000 -27.865456 -52.495201 3532.229736
4.120000 4.120000 6.040000 -8.381149 -54.234554 3011.630615
4.120000 4.120000 6.080000 7.224781 -49.184250 2471.287842
4.120000 4.120000 6.120000 19.148079 -40.948036 2043.390625
4.120000 4.120000 6.160000 28.063835 -29.491901 1657.351074
4.120000 4.120000 6.200000 31.412611 -14.665497 1201.828979
4.120000 4.160000 5.800000 -18.044775 -5.577489 356.722290
4.120000 4.160000 5.840000 -22.060797 -11.455639 617.910400
4.120000 4.160000 5.880000 -19.473240 -21.742310 851.935059
4.120000 4.160000 5.920000 -9.975969 -28.293507 900.042480
4.120000 4.160000 5.960000 -0.341625 -28.127007 791.245178
4.120000 4.160000 6.000000 5.076485 -26.202175 712.324646
4.120000 4.160000 6.040000 10.138229 -27.464359 857.074707
4.120000 4.160000 6.080000 21.132881 -28.509626 1259.397461
4.120000 4.160000 6.120000 36.264919 -20.346666 1729.131226
4.120000 4.160000 6.160000 44.194435 -0.248520 1953.209839
4.120000 4.160000 6.200000 35.413071 21.459568 1714.598633
4.120000 4.200000 5.800000 -9.729067 -5.115668 120.824799
4.120000 4.200000 5.840000 -6.026035 -14.308909 241.057983
4.120000 4.200000 5.880000 6.415676 -16.273483 305.987152
4.120000 4.200000 5.920000 15.393707 -6.751195 282.544861
4.120000 4.200000 5.960000 12.143456 4.032651 163.725784
4.120000 4.200000 6.000000 3.319090 3.506632 23.312824
4.120000 4.200000 6.040000 4.204017 -6.734461 63.026718
4.120000 4.200000 6.080000 19.767511 -10.471313 500.402924
4.120000 4.200000 6.120000 35.923229 4.938568 1314.867798
4.120000 4.200000 6.160000 33.060265 31.854172 2107.669434
4.120000 4.200000 6.200000 8.379798 47.450836 2321.802734
4.160000 3.800000 5.800000 -20.393322 -32.109909 1446.933838
4.160000 3.800000 5.840000 -2.702308 -32.158840 1041.493530
4.160000 3.800000 5.880000 8.751001 -20.714645 505.676544
4.160000 3.800000 5.920000 8.324443 -7.382812 123.802269
4.160000 3.800000 5.960000 0.789208 -1.439922 2.696226
4.160000 3.800000 6.000000 -4.486302 -3.236214 30.599987
4.160000 3.800000 6.040000 -3.728909 -5.419617 43.277004
4.160000 3.800000 6.080000 -2.071531 -2.483374 10.458389
4.160000 3.800000 6.120000 -6.325480 2.296991 45.287872
4.160000 3.800000 6.160000 -15.575002 0.591383 242.930405
4.160000 3.800000 6.200000 -20.654383 -10.566175 538.247559
4.160000 3.840000 5.800000 9.393343 -44.699535 2086.283447
4.160000 3.840000 5.840000 26.516169 -32.749092 1775.610229
4.160000 3.840000 5.880000 31.427740 -14.197423 1189.269653
4.160000 3.840000 5.920000 24.644508 0.365379 607.485291
4.160000 3.840000 5.960000 13.917209 5.770646 226.989044
4.160000 3.840000 6.000000 6.205084 4.897933 62.492813
4.160000 3.840000 6.040000 2.047453 3.261546 14.829746
4.160000 3.840000 6.080000 -2.198620 2.197932 9.664832
4.160000 3.840000 6.120000 -7.660537 -1.689958 61.539787
4.160000 3.840000 6.160000 -10.067581 -10.602199 213.762817
4.160000 3.840000 6.200000 -4.355004 -20.537949 440.773407
4.160000 3.880000 5.800000 43.033047 -29.468592 2720.240967
4.160000 3.880000 5.840000 50.671562 -8.443441 2638.898926
4.160000 3.880000 5.880000 45.108646 11.660865 2170.765869
4.160000 3.880000 5.920000 31.282816 23.516344 1531.633057
4.160000 3.880000 5.960000 16.443951 25.891628 940.779907
4.160000 3.880000 6.000000 5.058407 22.008705 509.970581
4.160000 3.880000 6.040000 -2.193255 15.250391 237.384796
4.160000 3.880000 6.080000 -5.766521 6.996902 82.209389
4.160000 3.880000 6.120000 -5.017067 -1.919433 28.855185
4.160000 3.880000 6.160000 0.843507 -9.069466 82.966705
4.160000 3.880000 6.200000 10.206913 -10.967779 224.473267
4.160000 3.920000 5.800000 55.820236 8.386098 3186.225342
4.160000 3.920000 5.840000 49.956482 29.551643 3368.949707
4.160000 3.920000 5.880000 34.814732 44.109642 3157.726074
4.160000 3.920000 5.920000 15.961798 48.971695 2653.005859
4.160000 3.920000 5.960000 -1.185520 44.615082 1991.911011
4.160000 3.920000 6.000000 -12.741707 33.763054 1302.294922
4.160000 3.920000 6.040000 -16.738503 20.380507 695.542480
4.160000 3.920000 6.080000 -13.523511 8.834656 260.936493
4.160000 3.920000 6.120000 -5.924212 2.491070 41.301723
4.160000 3.920000 6.160000 1.883155 2.058667 7.784385
4.160000 3.920000 6.200000 6.751058 5.382143 74.544250
4.160000 3.960000 5.800000 36.425602 44.434464 3301.246094
4.160000 3.960000 5.840000 20.956221 56.820580 3667.741455
4.160000 3.960000 5.880000 1.743526 61.169708 3744.772949
4.160000 3.960000 5.920000 -17.261181 56.573627 3498.523926
4.160000 3.960000 5.960000 -31.509476 43.830040 2913.919434
4.160000 3.960000 6.000000 -36.892174 26.709347 2074.421631
4.160000 3.960000 6.040000 -32.568287 11.539197 1193.846436
4.160000 3.960000 6.080000 -22.672878 3.745746 528.090027
4.160000 3.960000 6.120000 -13.934149 3.774895 208.410339
4.160000 3.960000 6.160000 -10.426161 6.896085 156.260803
4.160000 3.960000 6.200000 -10.459618 7.863819 171.243256
4.160000 4.000000 5.800000 -1.886272 54.345451 2956.986084
4.160000 4.000000 5.840000 -18.276621 55.129498 3373.296387
4.160000 4.000000 5.880000 -34.644081 49.545967 3655.015137
4.160000 4.000000 5.920000 -47.935799 36.823692 3653.825195
4.160000 4.000000 5.960000 -53.549500 18.864380 3223.413574
4.160000 4.000000 6.000000 -48.988029 1.666080 2402.603027
4.160000 4.000000 6.040000 -37.514641 -8.089183 1472.783203
4.160000 4.000000 6.080000 -26.706799 -8.753570 789.878113
4.160000 4.000000 6.120000 -22.079060 -5.453039 517.220520
4.160000 4.000000 6.160000 -22.089108 -5.054050 513.472107
4.160000 4.000000 6.200000 -20.237951 -8.994691 490.479126
4.160000 4.040000 5.800000 -31.800499 34.634640 2210.830078
4.160000 4.040000 5.840000 -42.320244 28.005350 2575.302734
4.160000 4.040000 5.880000 -51.405209 16.859800 2926.748291
4.160000 4.040000 5.920000 -55.224354 1.051778 3050.835449
4.160000 4.040000 5.960000 -50.351273 -15.068697 2762.316406
4.160000 4.040000 6.000000 -38.501984 -25.010010 2107.903320
4.160000 4.040000 6.040000 -26.456770 -26.163940 1384.512451
4.160000 4.040000 6.080000 -20.122332 -22.762493 923.039307
4.160000 4.040000 6.120000 -18.748709 -21.696724 822.261902
4.160000 4.040000 6.160000 -16.010004 -25.097376 886.198486
4.160000 4.040000 6.200000 -7.405591 -27.776911 826.399536
4.160000 4.080000 5.800000 -35.593342 4.949773 1291.386230
4.160000 4.080000 5.840000 -39.590019 -2.765821 1575.019409
4.160000 4.080000 5.880000 -41.026009 -14.344514 1888.898438
4.160000 4.080000 5.920000 -35.803726 -26.994453 2010.607422
4.160000 4.080000 5.960000 -24.453659 -34.771782 1807.058228
4.160000 4.080000 6.000000 -12.837793 -34.827610 1377.771362
4.160000 4.080000 6.040000 -6.407999 -30.827202 991.378784
4.160000 4.080000 6.080000 -4.388460 -29.077316 864.748901
4.160000 4.080000 6.120000 -0.817323 -31.270260 978.497192
4.160000 4.080000 6.160000 8.215025 -32.214447 1105.257324
4.160000 4.080000 6.200000 19.132057 -25.572128 1019.969360
4.160000 4.120000 5.800000 -19.595385 -10.800702 500.634277
4.160000 4.120000 5.840000 -20.665575 -16.942629 714.118652
4.160000 4.120000 5.880000 -16.590199 -25.867853 944.380493
4.160000 4.120000 5.920000 -6.450216 -31.120918 1010.116821
4.160000 4.120000 5.960000 3.942278 -28.989025 855.905151
4.160000 4.120000 6.000000 8.680587 -23.238512 615.381042
4.160000 4.120000 6.040000 8.897213 -20.742176 509.398254
4.160000 4.120000 6.080000 11.528007 -22.900225 657.315186
4.160000 4.120000 6.120000 20.578686 -23.237505 963.463928
4.160000 4.120000 6.160000 31.106100 -14.751442 1185.194580
4.160000 4.120000 6.200000 33.542175 1.120372 1126.332764
4.160000 4.160000 5.800000 -5.632087 -6.359574 72.164589
4.160000 4.160000 5.840000 -5.974427 -12.915507 202.504120
4.160000 4.160000 5.880000 1.600521 -18.216408 334.399200
4.160000 4.160000 5.920000 11.354311 -15.473030 368.335022
4.160000 4.160000 5.960000 14.872815 -7.520423 277.757385
4.160000 4.160000 6.000000 11.810906 -3.271264 150.198685
4.160000 4.160000 6.040000 10.698126 -6.165894 152.468140
4.160000 4.160000 6.080000 18.141331 -8.827921 407.040070
4.160000 4.160000 6.120000 29.257950 -1.336854 857.814819
4.160000 4.160000 6.160000 31.579636 15.994464 1253.096191
4.160000 4.160000 6.200000 19.123796 30.734982 1310.358643
4.160000 4.200000 5.800000 -8.275603 3.292501 79.326172
4.160000 4.200000 5.840000 -5.475863 -5.788775 63.494991
4.160000 4.200000 5.880000 4.529066 -6.734145 65.861153
4.160000 4.200000 5.920000 9.948241 1.616147 101.579437
4.160000 4.200000 5.960000 5.609852 8.933703 111.281494
4.160000 4.200000 6.000000 -0.482569 6.874346 47.489502
4.160000 4.200000 6.040000 2.624791 0.474032 7.114235
4.160000 4.200000 6.080000 13.936287 2.826651 202.210052
4.160000 4.200000 6.120000 19.520636 18.514271 723.833435
4.160000 4.200000 6.160000 8.188494 35.609249 1335.070068
4.160000 4.200000 6.200000 -13.902939 37.268517 1582.234131
4.200000 3.800000 5.800000 -7.015106 -39.580418 1615.821167
4.200000 3.800000 5.840000 8.871043 -31.214994 1053.071289
4.200000 3.800000 5.880000 13.287045 -17.011454 465.935120
4.200000 3.800000 5.920000 8.065695 -7.898712 127.445084
4.200000 3.800000 5.960000 2.564420 -7.346984 60.554420
4.200000 3.800000 6.000000 3.195582 -9.193806 94.737808
4.200000 3.800000 6.040000 6.820185 -5.858897 80.841599
4.200000 3.800000 6.080000 5.230376 2.217960 32.276180
4.200000 3.800000 6.120000 -4.350425 6.560958 61.972366
4.200000 3.800000 6.160000 -14.613415 0.365054 213.685165
4.200000 3.800000 6.200000 -15.059940 -12.755968 389.516541
4.200000 3.840000 5.800000 27.185768 -34.719913 1944.538330
4.200000 3.840000 5.840000 32.849335 -12.696682 1240.284424
4.200000 3.840000 5.880000 22.029907 3.393627 496.833496
4.200000 3.840000 5.920000 7.252583 4.580296 73.579063
4.200000 3.840000 5.960000 1.423166 -3.544169 14.586535
4.200000 3.840000 6.000000 5.613926 -8.421509 102.437988
4.200000 3.840000 6.040000 10.016087 -4.361598 119.345528
4.200000 3.840000 6.080000 6.194579 2.224225 43.319988
4.200000 3.840000 6.120000 -3.042500 1.218484 10.741508
4.200000 3.840000 6.160000 -6.873064 -8.831342 125.231613
4.200000 3.840000 6.200000 1.094422 -18.214943 332.981903
4.200000 3.880000 5.800000 47.601688 -2.460441 2271.974365
4.200000 3.880000 5.840000 33.644615 21.142488 1578.964844
4.200000 3.880000 5.880000 9.473411 25.326279 731.165894
4.200000 3.880000 5.920000 -5.609556 11.629783 166.718964
4.200000 3.880000 5.960000 -3.207727 -4.058429 26.760361
4.200000 3.880000 6.000000 8.210001 -7.822776 128.599945
4.200000 3.880000 6.040000 14.103919 -0.308849 199.015915
4.200000 3.880000 6.080000 9.182672 6.571870 127.510925
4.200000 3.880000 6.120000 1.385054 3.874923 16.933405
4.200000 3.880000 6.160000 1.533679 -4.878956 26.156382
4.200000 3.880000 6.200000 10.865324 -8.506229 190.411209
4.200000 3.920000 5.800000 35.916122 36.243179 2603.535889
4.200000 3.920000 5.840000 6.191713 45.269787 2087.690918
4.200000 3.920000 5.880000 -18.336983 29.711592 1219.023682
4.200000 3.920000 5.920000 -21.288595 4.289605 471.605011
4.200000 3.920000 5.960000 -5.563139 -10.379212 138.676559
4.200000 3.920000 6.000000 11.501242 -6.168434 170.328140
4.200000 3.920000 6.040000 15.456388 7.565743 296.140411
4.200000 3.920000 6.080000 6.970330 15.601997 292.007812
4.200000 3.920000 6.120000 -1.934600 12.028107 148.418030
4.200000 3.920000 6.160000 -1.750798 3.928933 18.501808
4.200000 3.920000 6.200000 5.573151 1.798638 34.295113
4.200000 3.960000 5.800000 -1.300353 52.979717 2808.541260
4.200000 3.960000 5.840000 -31.216946 40.000080 2574.504150
4.200000 3.960000 5.880000 -41.178169 10.006029 1795.762207
4.200000 3.960000 5.920000 -26.208563 -14.832291 906.885620
4.200000 3.960000 5.960000 -0.924787 -18.193542 331.860199
4.200000 3.960000 6.000000 14.252604 -2.477590 209.275177
4.200000 3.960000 6.040000 10.534467 15.686382 357.037598
4.200000 3.960000 6.080000 -4.084804 21.458752 477.163635
4.200000 3.960000 6.120000 -14.788420 13.659572 405.281250
4.200000 3.960000 6.160000 -13.871490 2.675068 199.574219
4.200000 3.960000 6.200000 -5.523839 -1.137880 31.807573
4.200000 4.000000 5.800000 -36.624138 36.461349 2670.757568
4.200000 4.000000 5.840000 -51.340603 8.893526 2714.952148
4.200000 4.000000 5.880000 -41.400093 -20.712727 2142.984619
4.200000 4.000000 5.920000 -14.293079 -32.538708 1263.059570
4.200000 4.000000 5.960000 9.849812 -20.725040 526.546082
4.200000 4.000000 6.000000 14.869923 2.576747 227.754211
4.200000 4.000000 6.040000 0.919029 18.312237 336.182617
4.200000 4.000000 6.080000 -17.677872 16.220608 575.615234
4.200000 4.000000 6.120000 -25.736601 1.457389 664.496582
4.200000 4.000000 6.160000 -19.141575 -12.150482 514.034119
4.200000 4.000000 6.200000 -5.834065 -14.512432 244.647003
4.200000 4.040000 5.800000 -45.471195 2.645838 2074.630127
4.200000 4.040000 5.840000 -41.604240 -23.820412 2298.324707
4.200000 4.040000 5.880000 -19.453568 -40.360569 2007.416870
4.200000 4.040000 5.920000 7.172448 -35.821823 1334.646973
4.200000 4.040000 5.960000 20.503128 -14.340583 626.030579
4.200000 4.040000 6.000000 12.903376 7.453736 222.055283
4.200000 4.040000 6.040000 -7.197967 13.695002 239.363800
4.200000 4.040000 6.080000 -22.673658 1.708247 517.012878
4.200000 4.040000 6.120000 -21.805035 -16.893166 760.838623
4.200000 4.040000 6.160000 -6.924825 -26.778812 765.057983
4.200000 4.040000 6.200000 9.129461 -21.317129 537.767029
4.200000 4.080000 5.800000 -27.619068 -20.234606 1172.252197
4.200000 4.080000 5.840000 -14.633537 -34.961174 1436.424072
4.200000 4.080000 5.880000 6.671613 -36.947975 1409.663208
4.200000 4.080000 5.920000 23.368521 -22.873161 1069.269287
4.200000 4.080000 5.960000 23.973911 -1.735930 577.761841
4.200000 4.080000 6.000000 8.784823 11.026184 198.749863
4.200000 4.080000 6.040000 -9.197095 6.222122 123.301353
4.200000 4.080000 6.080000 -14.786473 -10.914175 337.759003
4.200000 4.080000 6.120000 -3.540767 -25.074509 641.268005
4.200000 4.080000 6.160000 14.718920 -24.161623 800.430603
4.200000 4.080000 6.200000 25.057964 -9.368647 715.673096
4.200000 4.120000 5.800000 -5.625845 -17.915037 352.598694
4.200000 4.120000 5.840000 4.649647 -22.753368 539.334961
4.200000 4.120000 5.880000 17.888805 -18.313694 655.400757
4.200000 4.120000 5.920000 24.322199 -4.349656 610.488831
4.200000 4.120000 5.960000 17.652180 9.722500 406.126465
4.200000 4.120000 6.000000 2.897557 12.379705 161.652939
4.200000 4.120000 6.040000 -6.606016 1.507405 45.911720
4.200000 4.120000 6.080000 -1.543306 -12.270502 152.947006
4.200000 4.120000 6.120000 13.906731 -15.085033 420.955383
4.200000 4.120000 6.160000 25.674376 -3.152189 669.109863
4.200000 4.120000 6.200000 23.297031 13.688452 730.125366
4.200000 4.160000 5.800000 -1.677225 -2.092972 7.193615
4.200000 4.160000 5.840000 2.873367 -6.331715 48.346851
4.200000 4.160000 5.880000 10.692174 -3.462095 126.308693
4.200000 4.160000 5.920000 12.727383 6.051140 198.602570
4.200000 4.160000 5.960000 5.452641 13.056858 200.212830
4.200000 4.160000 6.000000 -3.812140 9.934589 113.228477
4.200000 4.160000 6.040000 -4.326334 0.187830 18.752441
4.200000 4.160000 6.080000 5.668127 -4.300378 50.620911
4.200000 4.160000 6.120000 15.869352 3.805503 266.318207
4.200000 4.160000 6.160000 14.552964 18.574835 556.813232
4.200000 4.160000 6.200000 1.450449 26.605610 709.962280
4.200000 4.200000 5.800000 -15.872491 3.428940 263.693604
4.200000 4.200000 5.840000 -10.373728 -5.318048 135.895874
4.200000 4.200000 5.880000 -1.528522 -4.316712 20.970387
4.200000 4.200000 5.920000 0.575948 2.957908 9.080934
4.200000 4.200000 5.960000 -4.609685 6.491407 63.387566
4.200000 4.200000 6.000000 -8.212707 2.517683 73.787277
4.200000 4.200000 6.040000 -3.773943 -1.713399 17.178383
4.200000 4.200000 6.080000 3.737171 2.802576 21.820879
4.200000 4.200000 6.120000 3.202487 14.633605 224.398315
4.200000 4.200000 6.160000 -8.830805 22.036486 563.589783
4.200000 4.200000 6.200000 -22.508575 16.287539 771.919861
