#kx 	ky 	kz 	real 	imag 	intensity
1.800000 3.800000 -8.200000 -23.225319 -27.988813 1322.789062
1.800000 3.800000 -8.160000 -2.494569 -45.492779 2075.815918
1.800000 3.800000 -8.120000 25.016815 -41.076637 2313.131348
1.800000 3.800000 -8.080000 39.182446 -18.562855 1879.843628
1.800000 3.800000 -8.040000 32.073101 3.837518 1043.410400
1.800000 3.800000 -8.000000 13.817652 10.266756 296.333801
1.800000 3.800000 -7.960000 1.844747 0.502934 3.656032
1.800000 3.800000 -7.920000 4.822185 -12.218843 172.553604
1.800000 3.800000 -7.880000 16.704563 -15.176188 509.359070
1.800000 3.800000 -7.840000 25.239836 -7.391161 691.678589
1.800000 3.800000 -7.800000 24.737602 2.244420 616.986389
1.800000 3.840000 -8.200000 -2.640761 -37.573273 1418.724487
1.800000 3.840000 -8.160000 22.911440 -42.690041 2347.373535
1.800000 3.840000 -8.120000 44.410534 -27.783934 2744.242432
1.800000 3.840000 -8.080000 48.599045 -4.050308 2378.272217
1.800000 3.840000 -8.040000 36.786125 12.201117 1502.086182
1.800000 3.840000 -8.000000 21.950027 13.370930 660.585449
1.800000 3.840000 -7.960000 16.235523 5.312956 291.819733
1.800000 3.840000 -7.920000 21.088846 -0.183857 444.773254
1.800000 3.840000 -7.880000 28.382580 3.279781 816.327820
1.800000 3.840000 -7.840000 29.836103 12.360556 1042.976440
1.800000 3.840000 -7.800000 24.613935 19.429146 983.337524
1.800000 3.880000 -8.200000 15.850358 -27.563362 1010.972778
1.800000 3.880000 -8.160000 36.655190 -22.351013 1843.170654
1.800000 3.880000 -8.120000 48.252701 -4.368489 2347.406982
1.800000 3.880000 -8.080000 45.213585 14.886580 2265.878662
1.800000 3.880000 -8.040000 32.989651 24.972488 1711.942139
1.800000 3.880000 -8.000000 22.046707 24.312948 1077.176758
1.800000 3.880000 -7.960000 18.756924 19.654940 738.138794
1.800000 3.880000 -7.920000 21.199316 18.825737 803.819397
1.800000 3.880000 -7.880000 22.662346 23.885223 1084.085815
1.800000 3.880000 -7.840000 18.614214 30.561249 1280.478882
1.800000 3.880000 -7.800000 10.440258 33.375687 1222.935425
1.800000 3.920000 -8.200000 17.788244 -9.486195 406.409515
1.800000 3.920000 -8.160000 30.662334 -1.489079 942.396118
1.800000 3.920000 -8.120000 35.173309 13.380952 1416.211670
1.800000 3.920000 -8.080000 29.541962 26.785217 1590.175293
1.800000 3.920000 -8.040000 18.926363 32.586235 1420.069824
1.800000 3.920000 -8.000000 10.611201 31.236895 1088.341187
1.800000 3.920000 -7.960000 7.898410 28.359489 866.645508
1.800000 3.920000 -7.920000 7.995490 29.062855 908.577393
1.800000 3.920000 -7.880000 5.494225 33.310036 1139.744995
1.800000 3.920000 -7.840000 -1.998502 36.360081 1326.049438
1.800000 3.920000 -7.800000 -11.398227 33.714870 1266.612061
1.800000 3.960000 -8.200000 5.807705 -0.522478 34.002426
1.800000 3.960000 -8.160000 14.391735 5.316435 235.386520
1.800000 3.960000 -8.120000 16.389368 16.208096 531.313721
1.800000 3.960000 -8.080000 10.559967 25.143826 743.724854
1.800000 3.960000 -8.040000 1.904704 27.396309 754.185608
1.800000 3.960000 -8.000000 -3.375452 24.681915 620.590637
1.800000 3.960000 -7.960000 -3.996555 22.833883 537.358704
1.800000 3.960000 -7.920000 -4.540554 25.293596 660.382629
1.800000 3.960000 -7.880000 -10.138313 29.125183 951.061707
1.800000 3.960000 -7.840000 -20.276873 27.866119 1187.672119
1.800000 3.960000 -7.800000 -28.329811 18.562689 1147.151611
1.800000 4.000000 -8.200000 -5.028086 -6.123474 62.778587
1.800000 4.000000 -8.160000 3.195585 -1.230787 11.726603
1.800000 4.000000 -8.120000 3.889661 7.573279 72.484024
1.800000 4.000000 -8.080000 -1.852155 12.271092 154.010193
1.800000 4.000000 -8.040000 -6.833255 10.467716 156.266449
1.800000 4.000000 -8.000000 -6.256251 7.526360 95.786774
1.800000 4.000000 -7.960000 -3.387038 9.828587 108.073143
1.800000 4.000000 -7.920000 -5.848464 16.615292 310.272430
1.800000 4.000000 -7.880000 -16.360876 19.721745 656.625488
1.800000 4.000000 -7.840000 -28.158815 12.130526 940.068542
1.800000 4.000000 -7.800000 -30.680981 -3.604352 954.313904
1.800000 4.040000 -8.200000 -4.064059 -16.300762 282.231415
1.800000 4.040000 -8.160000 2.601120 -9.300245 93.260384
1.800000 4.040000 -8.120000 0.527508 -3.155389 10.234746
1.800000 4.040000 -8.080000 -3.271940 -4.297503 29.174126
1.800000 4.040000 -8.040000 -0.581158 -8.539450 73.259949
1.800000 4.040000 -8.000000 7.392361 -6.377295 95.316879
1.800000 4.040000 -7.960000 10.417975 4.838287 131.943237
1.800000 4.040000 -7.920000 0.880005 15.909062 253.872681
1.800000 4.040000 -7.880000 -16.136538 14.413647 468.141052
1.800000 4.040000 -7.840000 -26.025400 -1.680651 680.146057
1.800000 4.040000 -7.800000 -18.763014 -20.218742 760.848267
1.800000 4.080000 -8.200000 4.503951 -18.370691 357.767883
1.800000 4.080000 -8.160000 5.345023 -10.815392 145.541962
1.800000 4.080000 -8.120000 1.563269 -11.163080 127.058167
1.800000 4.080000 -8.080000 4.843044 -17.686371 336.262787
1.800000 4.080000 -8.040000 17.799992 -18.032562 642.013000
1.800000 4.080000 -8.000000 28.839600 -4.072868 848.310791
1.800000 4.080000 -7.960000 23.888535 16.537323 844.145142
1.800000 4.080000 -7.920000 2.820754 25.959063 681.829590
1.800000 4.080000 -7.880000 -17.831663 14.219036 520.149170
1.800000 4.080000 -7.840000 -20.007906 -9.366211 488.042236
1.800000 4.080000 -7.800000 -1.980398 -24.066591 583.122803
1.800000 4.120000 -8.200000 8.182924 -11.309174 194.857666
1.800000 4.120000 -8.160000 2.890481 -9.767961 103.767937
1.800000 4.120000 -8.120000 3.609920 -18.527330 356.293488
1.800000 4.120000 -8.080000 18.543751 -24.288944 933.823486
1.800000 4.120000 -8.040000 37.938206 -12.430003 1593.812500
1.800000 4.120000 -8.000000 42.057018 14.929955 1991.696411
1.800000 4.120000 -7.960000 22.043072 37.659599 1904.142334
1.800000 4.120000 -7.920000 -8.579222 36.348679 1394.829468
1.800000 4.120000 -7.880000 -25.166685 12.162504 781.288574
1.800000 4.120000 -7.840000 -15.349918 -13.199711 409.852356
1.800000 4.120000 -7.800000 9.274445 -18.016739 410.618195
1.800000 4.160000 -8.200000 1.436522 -6.045261 38.608784
1.800000 4.160000 -8.160000 -2.961721 -15.300785 242.885818
1.800000 4.160000 -8.120000 9.288631 -27.381710 836.036743
1.800000 4.160000 -8.080000 33.834049 -22.827679 1665.845825
1.800000 4.160000 -8.040000 49.154385 4.600179 2437.315186
1.800000 4.160000 -8.000000 37.152740 38.015259 2825.486084
1.800000 4.160000 -7.960000 2.811739 51.281868 2637.735840
1.800000 4.160000 -7.920000 -28.215679 33.939331 1948.002686
1.800000 4.160000 -7.880000 -32.918900 1.857891 1087.105713
1.800000 4.160000 -7.840000 -12.057808 -17.605322 455.338074
1.800000 4.160000 -7.800000 11.978762 -11.049897 265.590973
1.800000 4.200000 -8.200000 -7.731731 -12.144388 207.265839
1.800000 4.200000 -8.160000 -1.878291 -28.635628 823.527161
1.800000 4.200000 -8.120000 22.327930 -33.704102 1634.502930
1.800000 4.200000 -8.080000 46.583748 -13.362501 2348.602051
1.800000 4.200000 -8.040000 47.176548 23.459156 2775.958740
1.800000 4.200000 -8.000000 18.174847 50.190819 2849.443359
1.800000 4.200000 -7.960000 -20.893206 46.199516 2570.921387
1.800000 4.200000 -7.920000 -41.669800 16.012411 1992.769531
1.800000 4.200000 -7.880000 -32.181683 -14.909222 1257.945557
1.800000 4.200000 -7.840000 -6.193962 -23.646439 597.519226
1.800000 4.200000 -7.800000 11.611460 -9.323049 221.745239
1.840000 3.800000 -8.200000 17.115038 -37.919895 1730.843018
1.840000 3.800000 -8.160000 43.943470 -31.350388 2913.875488
1.840000 3.800000 -8.120000 57.493336 -5.653667 3337.447510
1.840000 3.800000 -8.080000 48.288418 20.652424 2758.293945
1.840000 3.800000 -8.040000 26.065029 30.277149 1596.091553
1.840000 3.800000 -8.000000 9.114779 22.036602 568.690979
1.840000 3.800000 -7.960000 7.007093 9.206479 133.858612
1.840000 3.800000 -7.920000 13.992374 4.764632 218.488266
1.840000 3.800000 -7.880000 18.033735 9.517103 415.790863
1.840000 3.800000 -7.840000 14.280906 14.405553 411.464233
1.840000 3.800000 -7.800000 8.644023 12.553037 232.297867
1.840000 3.840000 -8.200000 33.108238 -21.994255 1579.902588
1.840000 3.840000 -8.160000 53.836853 -8.118263 2964.312988
1.840000 3.840000 -8.120000 59.833878 17.763319 3895.628418
1.840000 3.840000 -8.080000 47.786613 40.601948 3932.078613
1.840000 3.840000 -8.040000 26.776218 49.574142 3174.561523
1.840000 3.840000 -8.000000 9.069782 45.126129 2118.628418
1.840000 3.840000 -7.960000 0.486816 35.373077 1251.491577
1.840000 3.840000 -7.920000 -1.220151 27.424360 753.584290
1.840000 3.840000 -7.880000 -0.726925 22.698250 515.739014
1.840000 3.840000 -7.840000 0.235977 19.349855 374.472595
1.840000 3.840000 -7.800000 2.650230 16.996258 295.896484
1.840000 3.880000 -8.200000 29.683989 0.125634 881.154968
1.840000 3.880000 -8.160000 43.869839 14.976702 2148.864258
1.840000 3.880000 -8.120000 45.419750 38.932606 3578.701416
1.840000 3.880000 -8.080000 30.784512 60.443424 4601.093750
1.840000 3.880000 -8.040000 5.880855 69.053894 4803.024902
1.840000 3.880000 -8.000000 -18.085491 61.749352 4140.067383
1.840000 3.880000 -7.960000 -31.615042 43.902618 2926.950684
1.840000 3.880000 -7.920000 -31.866325 25.106588 1645.803467
1.840000 3.880000 -7.880000 -22.947178 13.344398 704.645996
1.840000 3.880000 -7.840000 -12.310966 11.165768 276.234253
1.840000 3.880000 -7.800000 -6.063960 15.686676 282.843414
1.840000 3.920000 -8.200000 10.707791 8.948331 194.729416
1.840000 3.920000 -8.160000 22.592873 22.416515 1012.938049
1.840000 3.920000 -8.120000 21.229809 45.887211 2556.341064
1.840000 3.920000 -8.080000 1.123847 65.605225 4305.308594
1.840000 3.920000 -8.040000 -29.962021 67.439430 5445.799316
1.840000 3.920000 -8.000000 -55.363693 48.083401 5377.151855
1.840000 3.920000 -7.960000 -61.574028 18.309208 4126.587891
1.840000 3.920000 -7.920000 -48.162148 -4.927348 2343.871338
1.840000 3.920000 -7.880000 -27.239105 -11.112032 865.446106
1.840000 3.920000 -7.840000 -13.181247 -2.870310 181.983948
1.840000 3.920000 -7.800000 -11.830799 8.367927 209.989990
1.840000 3.960000 -8.200000 -5.001390 -1.853966 28.451086
1.840000 3.960000 -8.160000 6.982327 13.385900 227.935211
1.840000 3.960000 -8.120000 0.414507 37.180405 1382.554321
1.840000 3.960000 -8.080000 -26.465305 49.930008 3193.417969
1.840000 3.960000 -8.040000 -57.638504 37.841782 4754.197754
1.840000 3.960000 -8.000000 -71.613548 5.846690 5162.684082
1.840000 3.960000 -7.960000 -59.395428 -25.674803 4187.012207
1.840000 3.960000 -7.920000 -31.677265 -37.790253 2431.552246
1.840000 3.960000 -7.880000 -8.805045 -28.064180 865.127014
1.840000 3.960000 -7.840000 -3.297012 -10.294451 116.846001
1.840000 3.960000 -7.800000 -11.240859 -0.366366 126.491135
1.840000 4.000000 -8.200000 -2.960781 -19.256792 379.590271
1.840000 4.000000 -8.160000 5.562763 1.019834 31.984394
1.840000 4.000000 -8.120000 -9.110352 21.342583 538.504333
1.840000 4.000000 -8.080000 -37.808563 20.878572 1865.402222
1.840000 4.000000 -8.040000 -57.103340 -4.390510 3280.068115
1.840000 4.000000 -8.000000 -50.181175 -36.946228 3883.174316
1.840000 4.000000 -7.960000 -21.969530 -53.129692 3305.424316
1.840000 4.000000 -7.920000 5.971184 -43.940170 1966.393555
1.840000 4.000000 -7.880000 15.338653 -21.426161 694.354614
1.840000 4.000000 -7.840000 6.241507 -5.510501 69.322029
1.840000 4.000000 -7.800000 -6.243324 -5.318153 67.261848
1.840000 4.040000 -8.200000 12.516499 -24.876045 775.480347
1.840000 4.040000 -8.160000 11.409967 -2.487560 136.375320
1.840000 4.040000 -8.120000 -9.226789 7.385565 139.680206
1.840000 4.040000 -8.080000 -29.425669 -6.789072 911.961487
1.840000 4.040000 -8.040000 -28.429455 -33.872211 1955.560547
1.840000 4.040000 -8.000000 -4.634233 -50.186386 2540.149414
1.840000 4.040000 -7.960000 23.023844 -41.849823 2281.505127
1.840000 4.040000 -7.920000 33.375282 -17.148308 1407.973877
1.840000 4.040000 -7.880000 22.444508 2.811986 511.663177
1.840000 4.040000 -7.840000 4.970794 4.800923 47.757652
1.840000 4.040000 -7.800000 -2.052523 -5.587818 35.436562
1.840000 4.080000 -8.200000 23.820175 -14.060531 765.099243
1.840000 4.080000 -8.160000 11.999788 1.585783 146.509628
1.840000 4.080000 -8.120000 -5.844008 -2.643329 41.139626
1.840000 4.080000 -8.080000 -8.915988 -21.970337 562.190552
1.840000 4.080000 -8.040000 9.124145 -35.633045 1352.963867
1.840000 4.080000 -8.000000 33.347744 -27.470081 1866.677368
1.840000 4.080000 -7.960000 42.141857 -2.058739 1780.174561
1.840000 4.080000 -7.920000 28.337856 19.975069 1202.037476
1.840000 4.080000 -7.880000 5.422942 22.350777 528.965515
1.840000 4.080000 -7.840000 -6.822964 8.142573 112.854340
1.840000 4.080000 -7.800000 -1.723242 -5.300666 31.066624
1.840000 4.120000 -8.200000 19.125408 0.124142 365.796661
1.840000 4.120000 -8.160000 4.283339 1.734447 21.355301
1.840000 4.120000 -8.120000 -0.809788 -11.664487 136.716019
1.840000 4.120000 -8.080000 12.787840 -22.859825 686.100464
1.840000 4.120000 -8.040000 33.879654 -14.992985 1372.620483
1.840000 4.120000 -8.000000 41.384399 10.562258 1824.229736
1.840000 4.120000 -7.960000 25.332041 34.360443 1822.352295
1.840000 4.120000 -7.920000 -2.827050 37.438583 1409.639771
1.840000 4.120000 -7.880000 -21.182619 19.416245 825.693848
1.840000 4.120000 -7.840000 -18.273933 -2.028317 338.050720
1.840000 4.120000 -7.800000 -2.672948 -9.125877 90.426292
1.840000 4.160000 -8.200000 4.510866 1.630445 23.006266
1.840000 4.160000 -8.160000 -1.792376 -9.084113 85.733719
1.840000 4.160000 -8.120000 8.948516 -20.027264 481.167206
1.840000 4.160000 -8.080000 28.860645 -14.159058 1033.415771
1.840000 4.160000 -8.040000 37.830376 10.451487 1540.370850
1.840000 4.160000 -8.000000 22.840633 36.593571 1860.783936
1.840000 4.160000 -7.960000 -8.343124 43.044605 1922.445801
1.840000 4.160000 -7.920000 -33.321129 24.422287 1706.745728
1.840000 4.160000 -7.880000 -35.329277 -3.866929 1263.110962
1.840000 4.160000 -7.840000 -17.718895 -20.333256 727.400513
1.840000 4.160000 -7.800000 1.152022 -16.736652 281.442688
1.840000 4.200000 -8.200000 -3.320364 -11.455635 142.256378
1.840000 4.200000 -8.160000 4.993286 -24.088436 605.185669
1.840000 4.200000 -8.120000 24.734221 -22.429375 1114.858521
1.840000 4.200000 -8.080000 37.734421 -1.049876 1424.988770
1.840000 4.200000 -8.040000 28.322723 26.815361 1521.240234
1.840000 4.200000 -8.000000 -1.261744 39.481827 1560.406738
1.840000 4.200000 -7.960000 -31.295616 25.912970 1650.897583
1.840000 4.200000 -7.920000 -41.199917 -4.246924 1715.469482
1.840000 4.200000 -7.880000 -26.864838 -29.271666 1578.549805
1.840000 4.200000 -7.840000 -2.620618 -34.146061 1172.821167
1.840000 4.200000 -7.800000 12.967554 -21.691048 638.658997
1.880000 3.800000 -8.200000 52.970085 -7.971077 2869.367920
1.880000 3.800000 -8.160000 63.762848 20.994534 4506.471191
1.880000 3.800000 -8.120000 48.529243 50.393147 4894.556641
1.880000 3.800000 -8.080000 18.014936 59.138737 3821.927979
1.880000 3.800000 -8.040000 -5.143665 45.261646 2075.073975
1.880000 3.800000 -8.000000 -8.501091 25.738747 734.751648
1.880000 3.800000 -7.960000 0.209183 17.801041 316.920807
1.880000 3.800000 -7.920000 4.361917 22.273252 515.124084
1.880000 3.800000 -7.880000 -2.716567 25.921642 679.311279
1.880000 3.800000 -7.840000 -11.886065 18.434809 481.120728
1.880000 3.800000 -7.800000 -10.392689 4.402081 127.386292
1.880000 3.840000 -8.200000 42.075783 20.125269 2175.397949
1.880000 3.840000 -8.160000 44.487885 43.323753 3856.119629
1.880000 3.840000 -8.120000 30.079727 64.839134 5108.903320
1.880000 3.840000 -8.080000 5.652496 73.500656 5434.297363
1.880000 3.840000 -8.040000 -17.432888 67.849098 4907.405762
1.880000 3.840000 -8.000000 -32.487766 53.997414 3971.175781
1.880000 3.840000 -7.960000 -39.508743 38.033745 3007.506592
1.880000 3.840000 -7.920000 -40.325218 22.170021 2117.633057
1.880000 3.840000 -7.880000 -34.678085 7.551085 1259.588501
1.880000 3.840000 -7.840000 -22.278442 -2.014040 500.385376
1.880000 3.840000 -7.800000 -7.267921 -1.757718 55.912247
1.880000 3.880000 -8.200000 12.887407 29.183668 1017.771729
1.880000 3.880000 -8.160000 16.473259 46.284302 2413.604736
1.880000 3.880000 -8.120000 5.474400 68.216591 4683.472656
1.880000 3.880000 -8.080000 -22.098465 81.972130 7207.772461
1.880000 3.880000 -8.040000 -57.237587 75.922981 9040.440430
1.880000 3.880000 -8.000000 -84.003349 48.169483 9376.861328
1.880000 3.880000 -7.960000 -88.977806 9.259258 8002.783691
1.880000 3.880000 -7.920000 -70.049713 -23.265530 5448.247070
1.880000 3.880000 -7.880000 -38.272804 -35.484074 2723.927002
1.880000 3.880000 -7.840000 -10.953910 -25.713646 781.179749
1.880000 3.880000 -7.800000 -0.475410 -4.853343 23.780954
1.880000 3.920000 -8.200000 -10.804491 11.537761 249.856949
1.880000 3.920000 -8.160000 -2.219852 30.911739 960.463379
1.880000 3.920000 -8.120000 -16.977894 58.490532 3709.391113
1.880000 3.920000 -8.080000 -56.927074 69.715736 8100.975586
1.880000 3.920000 -8.040000 -101.183502 46.345562 12386.012695
1.880000 3.920000 -8.000000 -120.003784 -5.951599 14436.330078
1.880000 3.920000 -7.960000 -98.344856 -58.980362 13150.394531
1.880000 3.920000 -7.920000 -48.750141 -82.698547 9215.625977
1.880000 3.920000 -7.880000 -1.852081 -67.977310 4624.344727
1.880000 3.920000 -7.840000 17.408493 -31.904123 1320.928711
1.880000 3.920000 -7.800000 7.136361 -1.988464 54.881641
1.880000 3.960000 -8.200000 -9.335744 -16.379887 355.456787
1.880000 3.960000 -8.160000 -2.588579 12.528318 163.659500
1.880000 3.960000 -8.120000 -30.123089 40.349152 2535.454590
1.880000 3.960000 -8.080000 -79.606903 34.812904 7549.197266
1.880000 3.960000 -8.040000 -114.200668 -13.289827 13218.412109
1.880000 3.960000 -8.000000 -102.713348 -77.868858 16613.591797
1.880000 3.960000 -7.960000 -47.413776 -116.745941 15877.681641
1.880000 3.960000 -7.920000 16.577225 -106.088974 11529.674805
1.880000 3.960000 -7.880000 50.231068 -58.989822 6002.958984
1.880000 3.960000 -7.840000 41.366192 -11.966269 1854.353516
1.880000 3.960000 -7.800000 9.998501 6.653677 144.241425
1.880000 4.000000 -8.200000 13.794900 -29.170105 1041.194336
1.880000 4.000000 -8.160000 7.548286 6.044403 93.511436
1.880000 4.000000 -8.120000 -32.724785 21.323046 1525.583740
1.880000 4.000000 -8.080000 -75.999985 -7.746110 5836.000000
1.880000 4.000000 -8.040000 -81.654396 -68.259781 11326.837891
1.880000 4.000000 -8.000000 -36.193657 -117.297417 15068.664062
1.880000 4.000000 -7.960000 32.711922 -117.876450 14964.927734
1.880000 4.000000 -7.920000 79.085915 -70.542511 11230.828125
1.880000 4.000000 -7.880000 77.230934 -11.338983 6093.189941
1.880000 4.000000 -7.840000 40.314804 20.777365 2056.982422
1.880000 4.000000 -7.800000 3.666211 15.404047 250.725769
1.880000 4.040000 -8.200000 35.582680 -16.727741 1545.944336
1.880000 4.040000 -8.160000 12.509742 11.951529 299.332672
1.880000 4.040000 -8.120000 -28.511326 5.974436 848.589600
1.880000 4.040000 -8.080000 -48.814377 -37.569702 3794.326172
1.880000 4.040000 -8.040000 -22.938248 -86.114891 7941.937500
1.880000 4.040000 -8.000000 36.098640 -98.513847 11008.089844
1.880000 4.040000 -7.960000 86.356903 -61.589920 11250.833008
1.880000 4.040000 -7.920000 93.184181 -1.673544 8686.092773
1.880000 4.040000 -7.880000 57.937218 39.527565 4919.149414
1.880000 4.040000 -7.840000 12.964653 40.859398 1837.572632
1.880000 4.040000 -7.800000 -9.866399 15.576298 339.966858
1.880000 4.080000 -8.200000 36.236504 6.927949 1361.080688
1.880000 4.080000 -8.160000 5.206673 17.307087 326.644684
1.880000 4.080000 -8.120000 -21.023909 -5.807697 475.734070
1.880000 4.080000 -8.080000 -14.233091 -44.412872 2175.083984
1.880000 4.080000 -8.040000 26.091606 -63.125198 4665.562500
1.880000 4.080000 -8.000000 69.783112 -41.028069 6552.984863
1.880000 4.080000 -7.960000 81.994408 8.606445 6797.153809
1.880000 4.080000 -7.920000 53.869392 49.961823 5398.094727
1.880000 4.080000 -7.880000 8.790084 56.429256 3261.526611
1.880000 4.080000 -7.840000 -20.609417 31.877357 1440.913940
1.880000 4.080000 -7.800000 -20.987461 2.492746 446.687286
1.880000 4.120000 -8.200000 17.752382 18.750904 666.743469
1.880000 4.120000 -8.160000 -5.975176 10.452811 144.963989
1.880000 4.120000 -8.120000 -10.321342 -15.107242 334.758850
1.880000 4.120000 -8.080000 12.012497 -33.225929 1248.262451
1.880000 4.120000 -8.040000 43.405155 -23.197918 2422.150879
1.880000 4.120000 -8.000000 55.776703 11.624796 3246.176514
1.880000 4.120000 -7.960000 35.884285 45.574711 3364.736084
1.880000 4.120000 -7.920000 -2.662800 53.262844 2844.021240
1.880000 4.120000 -7.880000 -32.151573 31.511765 2026.714966
1.880000 4.120000 -7.840000 -35.388123 -0.016502 1252.319458
1.880000 4.120000 -7.800000 -18.401836 -18.573734 683.611206
1.880000 4.160000 -8.200000 -0.020224 9.538088 90.975533
1.880000 4.160000 -8.160000 -6.733130 -6.161201 83.295441
1.880000 4.160000 -8.120000 4.750115 -19.876423 417.635773
1.880000 4.160000 -8.080000 24.995316 -15.897408 877.493408
1.880000 4.160000 -8.040000 34.456860 6.664181 1231.686401
1.880000 4.160000 -8.000000 20.788692 31.237940 1407.978638
1.880000 4.160000 -7.960000 -9.166683 37.484482 1489.114502
1.880000 4.160000 -7.920000 -34.572361 19.129032 1561.167969
1.880000 4.160000 -7.880000 -38.428268 -10.790501 1593.166748
1.880000 4.160000 -7.840000 -21.308826 -31.934504 1473.878540
1.880000 4.160000 -7.800000 1.403679 -33.947144 1154.378906
1.880000 4.200000 -8.200000 -0.435511 -8.700933 75.895912
1.880000 4.200000 -8.160000 7.558828 -18.340546 393.511505
1.880000 4.200000 -8.120000 21.736286 -15.850742 723.712158
1.880000 4.200000 -8.080000 28.813274 -0.057716 830.208130
1.880000 4.200000 -8.040000 19.291256 18.127781 700.769043
1.880000 4.200000 -8.000000 -3.501795 23.533718 566.098450
1.880000 4.200000 -7.960000 -24.688801 9.277854 695.615417
1.880000 4.200000 -7.920000 -29.284378 -16.901003 1143.218628
1.880000 4.200000 -7.880000 -14.056224 -38.467827 1677.351074
1.880000 4.200000 -7.840000 10.491201 -43.028107 1961.483276
1.880000 4.200000 -7.800000 29.334698 -30.991859 1821.019775
1.920000 3.800000 -8.200000 52.274940 42.793892 4563.986328
1.920000 3.800000 -8.160000 33.377541 74.850037 6716.587891
1.920000 3.800000 -8.120000 -6.234812 83.318619 6980.865234
1.920000 3.800000 -8.080000 -38.468124 60.973946 5197.618652
1.920000 3.800000 -8.040000 -42.853119 27.703846 2603.892822
1.920000 3.800000 -8.000000 -25.735321 9.871761 759.758423
1.920000 3.800000 -7.960000 -11.282997 14.196758 328.853973
1.920000 3.800000 -7.920000 -14.985277 23.696495 786.082397
1.920000 3.800000 -7.880000 -28.511116 18.691477 1162.255005
1.920000 3.800000 -7.840000 -31.304285 -1.079419 981.123413
1.920000 3.800000 -7.800000 -14.706130 -17.102505 508.765930
1.920000 3.840000 -8.200000 12.366085 55.447342 3227.327881
1.920000 3.840000 -8.160000 -4.868179 71.004211 5065.297363
1.920000 3.840000 -8.120000 -30.790230 73.422867 6338.955566
1.920000 3.840000 -8.080000 -53.575123 61.118332 6605.744141
1.920000 3.840000 -8.040000 -66.169823 41.312366 6085.157227
1.920000 3.840000 -8.000000 -69.707268 21.146893 5306.293945
1.920000 3.840000 -7.960000 -67.508049 2.072273 4561.631348
1.920000 3.840000 -7.920000 -58.823952 -16.557457 3734.406738
1.920000 3.840000 -7.880000 -40.948589 -30.853043 2628.697266
1.920000 3.840000 -7.840000 -16.830921 -32.922794 1367.190308
1.920000 3.840000 -7.800000 2.570389 -19.531918 388.102722
1.920000 3.880000 -8.200000 -22.784367 32.563774 1579.526855
1.920000 3.880000 -8.160000 -27.316313 44.683350 2742.782715
1.920000 3.880000 -8.120000 -46.906010 56.468414 5388.855469
1.920000 3.880000 -8.080000 -79.380363 53.133335 9124.393555
1.920000 3.880000 -8.040000 -109.815262 25.304276 12699.698242
1.920000 3.880000 -8.000000 -118.774254 -21.526070 14570.695312
1.920000 3.880000 -7.960000 -96.039948 -67.410034 13767.785156
1.920000 3.880000 -7.920000 -49.712582 -89.714630 10520.055664
1.920000 3.880000 -7.880000 -2.657528 -78.569016 6180.152832
1.920000 3.880000 -7.840000 22.357548 -44.141518 2448.333496
1.920000 3.880000 -7.800000 17.970259 -9.446804 412.172302
1.920000 3.920000 -8.200000 -25.821280 -7.735071 726.569763
1.920000 3.920000 -8.160000 -24.241228 16.560791 861.896973
1.920000 3.920000 -8.120000 -54.770615 37.520737 4407.625977
1.920000 3.920000 -8.080000 -104.488991 24.084127 11497.994141
1.920000 3.920000 -8.040000 -136.367508 -32.172012 19631.136719
1.920000 3.920000 -8.000000 -118.554321 -104.244095 24921.957031
1.920000 3.920000 -7.960000 -52.866848 -147.683228 24605.240234
1.920000 3.920000 -7.920000 23.759764 -135.452759 18911.976562
1.920000 3.920000 -7.880000 67.445435 -79.314400 10839.660156
1.920000 3.920000 -7.840000 60.749802 -19.090500 4054.985596
1.920000 3.920000 -7.800000 22.630585 9.830919 608.790344
1.920000 3.960000 -8.200000 3.498278 -32.185211 1048.125732
1.920000 3.960000 -8.160000 -6.458574 5.709501 74.311584
1.920000 3.960000 -8.120000 -56.255199 19.074574 3528.486816
1.920000 3.960000 -8.080000 -108.602432 -22.253300 12289.697266
1.920000 3.960000 -8.040000 -112.678558 -103.161972 23338.849609
1.920000 3.960000 -8.000000 -49.750374 -169.608673 31242.201172
1.920000 3.960000 -7.960000 46.397839 -172.110855 31774.906250
1.920000 3.960000 -7.920000 115.091309 -107.740990 24854.130859
1.920000 3.960000 -7.880000 118.064651 -22.032778 14424.705078
1.920000 3.960000 -7.840000 67.804199 30.228067 5511.145508
1.920000 3.960000 -7.800000 11.167320 28.442783 933.700989
1.920000 4.000000 -8.200000 37.947395 -22.386141 1941.144043
1.920000 4.000000 -8.160000 5.567068 13.546715 214.505737
1.920000 4.000000 -8.120000 -52.515114 1.850161 2761.260254
1.920000 4.000000 -8.080000 -82.114944 -64.795502 10941.321289
1.920000 4.000000 -8.040000 -43.301441 -141.894485 22009.060547
1.920000 4.000000 -8.000000 49.676910 -167.224152 30431.710938
1.920000 4.000000 -7.960000 135.825821 -114.865295 31642.691406
1.920000 4.000000 -7.920000 157.746521 -18.751415 25235.580078
1.920000 4.000000 -7.880000 108.728996 56.588058 15024.203125
1.920000 4.000000 -7.840000 33.852886 70.179138 6071.129395
1.920000 4.000000 -7.800000 -12.937855 33.470688 1287.675049
1.920000 4.040000 -8.200000 48.291729 9.373452 2419.952637
1.920000 4.040000 -8.160000 0.787325 24.611696 606.355469
1.920000 4.040000 -8.120000 -43.563797 -13.351604 2076.069824
1.920000 4.040000 -8.080000 -36.474747 -82.253357 8096.021973
1.920000 4.040000 -8.040000 31.531254 -125.090668 16641.894531
1.920000 4.040000 -8.000000 116.642181 -98.927940 23392.136719
1.920000 4.040000 -7.960000 156.421753 -14.750086 24685.330078
1.920000 4.040000 -7.920000 122.998566 70.307724 20071.824219
1.920000 4.040000 -7.880000 45.220390 101.718399 12391.516602
1.920000 4.040000 -7.840000 -19.691088 71.400154 5485.720703
1.920000 4.040000 -7.800000 -35.921364 17.254738 1588.070312
1.920000 4.080000 -8.200000 29.467438 33.520676 1991.965576
1.920000 4.080000 -8.160000 -13.434137 22.799709 700.302734
1.920000 4.080000 -8.120000 -29.427324 -24.582783 1470.280640
1.920000 4.080000 -8.080000 5.250870 -70.585693 5009.912109
1.920000 4.080000 -8.040000 71.059708 -70.657181 10041.918945
1.920000 4.080000 -8.000000 117.425293 -14.735062 14005.821289
1.920000 4.080000 -7.960000 105.591171 60.644592 14827.261719
1.920000 4.080000 -7.920000 42.546577 102.481392 12312.646484
1.920000 4.080000 -7.880000 -25.999214 86.042587 8079.285645
1.920000 4.080000 -7.840000 -56.119713 32.548325 4208.815430
1.920000 4.080000 -7.800000 -40.532021 -14.551608 1854.593994
1.920000 4.120000 -8.200000 2.353357 31.597977 1003.970398
1.920000 4.120000 -8.160000 -20.345377 6.797090 460.134796
1.920000 4.120000 -8.120000 -11.580612 -29.160845 984.465454
1.920000 4.120000 -8.080000 27.413721 -43.746841 2665.298340
1.920000 4.120000 -8.040000 66.717339 -17.890137 4771.260254
1.920000 4.120000 -8.000000 71.386467 33.969872 6249.979980
1.920000 4.120000 -7.960000 32.570202 73.535759 6468.325684
1.920000 4.120000 -7.920000 -23.536705 70.855896 5574.534668
1.920000 4.120000 -7.880000 -58.027054 29.442358 4233.991211
1.920000 4.120000 -7.840000 -51.899513 -18.924442 3051.694092
1.920000 4.120000 -7.800000 -18.531858 -43.253777 2214.318848
1.920000 4.160000 -8.200000 -8.756098 11.315216 204.703369
1.920000 4.160000 -8.160000 -10.936448 -9.901941 217.654327
1.920000 4.160000 -8.120000 6.417146 -25.137756 673.086548
1.920000 4.160000 -8.080000 31.249697 -18.813320 1330.484497
1.920000 4.160000 -8.040000 41.657303 8.196320 1802.510620
1.920000 4.160000 -8.000000 24.570961 35.937538 1895.238770
1.920000 4.160000 -7.960000 -10.921284 40.710365 1776.608276
1.920000 4.160000 -7.920000 -39.401005 15.615426 1796.280762
1.920000 4.160000 -7.880000 -40.021370 -22.907898 2126.481934
1.920000 4.160000 -7.840000 -13.425068 -48.986103 2579.870605
1.920000 4.160000 -7.800000 20.659498 -48.538357 2782.787109
1.920000 4.200000 -8.200000 1.003150 -4.855846 24.585548
1.920000 4.200000 -8.160000 7.845911 -13.191896 235.584457
1.920000 4.200000 -8.120000 19.642031 -13.048094 556.062134
1.920000 4.200000 -8.080000 27.360924 -2.197783 753.450439
1.920000 4.200000 -8.040000 22.309196 12.456623 652.867737
1.920000 4.200000 -8.000000 4.824730 18.004776 347.449982
1.920000 4.200000 -7.960000 -13.149006 5.986496 208.734497
1.920000 4.200000 -7.920000 -16.199793 -18.739782 613.612732
1.920000 4.200000 -7.880000 1.634205 -39.934280 1597.417358
1.920000 4.200000 -7.840000 30.967417 -42.343727 2751.972168
1.920000 4.200000 -7.800000 54.108170 -23.781277 3493.243164
1.960000 3.800000 -8.200000 12.353246 76.825806 6054.807129
1.960000 3.800000 -8.160000 -30.091969 88.241898 8692.159180
1.960000 3.800000 -8.120000 -71.279625 62.499695 8986.997070
1.960000 3.800000 -8.080000 -80.519424 15.514034 6724.062988
1.960000 3.800000 -8.040000 -55.222324 -18.077030 3376.284180
1.960000 3.800000 -8.000000 -22.831673 -18.748955 872.808594
1.960000 3.800000 -7.960000 -12.213438 0.194473 149.205902
1.960000 3.800000 -7.920000 -25.042854 9.207603 711.924500
1.960000 3.800000 -7.880000 -37.191505 -5.334211 1411.661987
1.960000 3.800000 -7.840000 -27.044479 -28.089481 1520.422852
1.960000 3.800000 -7.800000 0.885949 -33.528400 1124.938599
1.960000 3.840000 -8.200000 -34.880829 55.276436 4272.156738
1.960000 3.840000 -8.160000 -59.758980 51.191113 6191.666016
1.960000 3.840000 -8.120000 -79.638779 31.326382 7323.677246
1.960000 3.840000 -8.080000 -85.117081 4.452368 7264.741211
1.960000 3.840000 -8.040000 -77.969254 -18.252335 6412.352539
1.960000 3.840000 -8.000000 -66.219070 -33.522194 5508.702637
1.960000 3.840000 -7.960000 -53.503643 -45.422775 4925.868164
1.960000 3.840000 -7.920000 -36.284592 -55.709045 4420.069336
1.960000 3.840000 -7.880000 -12.149677 -58.267868 3542.759277
1.960000 3.840000 -7.840000 11.713072 -45.730598 2228.483643
1.960000 3.840000 -7.800000 22.044609 -20.950609 924.892822
1.960000 3.880000 -8.200000 -47.911575 5.526468 2326.060791
1.960000 3.880000 -8.160000 -54.494106 9.931026 3068.232910
1.960000 3.880000 -8.120000 -73.806030 8.333103 5516.770508
1.960000 3.880000 -8.080000 -97.133705 -12.268368 9585.469727
1.960000 3.880000 -8.040000 -105.856865 -53.236343 14039.784180
1.960000 3.880000 -8.000000 -84.767365 -99.047119 16995.837891
1.960000 3.880000 -7.960000 -35.597931 -125.274902 16961.013672
1.960000 3.880000 -7.920000 20.706284 -115.499207 13768.816406
1.960000 3.880000 -7.880000 56.625225 -74.407295 8742.861328
1.960000 3.880000 -7.840000 57.079967 -25.891113 3928.472656
1.960000 3.880000 -7.800000 29.937656 3.513450 908.607544
1.960000 3.920000 -8.200000 -17.861107 -33.434071 1436.856201
1.960000 3.920000 -8.160000 -26.653217 -8.588749 784.160583
1.960000 3.920000 -8.120000 -65.762756 -4.854334 4348.304688
1.960000 3.920000 -8.080000 -103.814026 -45.796146 12874.638672
1.960000 3.920000 -8.040000 -98.989456 -117.411560 23584.386719
1.960000 3.920000 -8.000000 -36.605347 -173.498932 31441.830078
1.960000 3.920000 -7.960000 53.600967 -171.713074 32358.443359
1.960000 3.920000 -7.920000 118.279716 -109.325279 25942.109375
1.960000 3.920000 -7.880000 122.318466 -26.343403 15655.782227
1.960000 3.920000 -7.840000 75.005585 26.879667 6348.354492
1.960000 3.920000 -7.800000 18.556726 28.460634 1154.359863
1.960000 3.960000 -8.200000 28.243078 -32.359119 1844.783936
1.960000 3.960000 -8.160000 -3.527229 0.555117 12.749500
1.960000 3.960000 -8.120000 -60.530785 -15.513994 3904.659912
1.960000 3.960000 -8.080000 -86.391357 -87.808792 15173.850586
1.960000 3.960000 -8.040000 -39.489223 -169.264359 30209.822266
1.960000 3.960000 -8.000000 64.728485 -193.809418 41751.867188
1.960000 3.960000 -7.960000 160.748489 -133.489212 43659.445312
1.960000 3.960000 -7.920000 185.886063 -24.584612 35158.031250
1.960000 3.960000 -7.880000 131.466873 62.264969 21160.464844
1.960000 3.960000 -7.840000 46.108646 80.204773 8558.812500
1.960000 3.960000 -7.800000 -9.225521 39.556862 1649.855591
1.960000 4.000000 -8.200000 52.213375 2.974306 2735.083008
1.960000 4.000000 -8.160000 -2.646168 19.020121 368.767181
1.960000 4.000000 -8.120000 -53.787266 -28.924480 3729.695557
1.960000 4.000000 -8.080000 -41.774620 -114.638680 14887.145508
1.960000 4.000000 -8.040000 46.212833 -167.929779 30336.035156
1.960000 4.000000 -8.000000 156.554871 -134.262939 42535.964844
1.960000 4.000000 -7.960000 210.434006 -25.607073 44938.195312
1.960000 4.000000 -7.920000 170.414398 86.724564 36562.214844
1.960000 4.000000 -7.880000 70.730118 131.890182 22397.769531
1.960000 4.000000 -7.840000 -15.643808 96.302254 9518.852539
1.960000 4.000000 -7.800000 -39.837543 26.565079 2292.733398
1.960000 4.040000 -8.200000 38.570351 39.448933 3043.890137
1.960000 4.040000 -8.160000 -18.330809 24.569479 939.677856
1.960000 4.040000 -8.120000 -39.532734 -42.079681 3333.536621
1.960000 4.040000 -8.080000 10.875017 -108.870842 11971.125977
1.960000 4.040000 -8.040000 108.327858 -111.332176 24129.777344
1.960000 4.040000 -8.000000 181.301559 -31.290800 33849.367188
1.960000 4.040000 -7.960000 171.002777 81.911789 35951.492188
1.960000 4.040000 -7.920000 82.662476 151.041946 29646.753906
1.960000 4.040000 -7.880000 -19.953030 135.621704 18791.369141
1.960000 4.040000 -7.840000 -70.637558 61.700397 8796.603516
1.960000 4.040000 -7.800000 -53.625858 -8.109713 2941.500000
1.960000 4.080000 -8.200000 5.226804 48.391525 2369.059326
1.960000 4.080000 -8.160000 -30.666693 11.374475 1069.824707
1.960000 4.080000 -8.120000 -18.257835 -47.381134 2578.320557
1.960000 4.080000 -8.080000 46.004612 -75.600662 7831.884277
1.960000 4.080000 -8.040000 116.936279 -37.387947 15071.952148
1.960000 4.080000 -8.000000 135.119308 49.858646 20743.111328
1.960000 4.080000 -7.960000 79.094757 125.231415 21938.886719
1.960000 4.080000 -7.920000 -14.127171 134.869537 18389.369141
1.960000 4.080000 -7.880000 -80.555367 76.802330 12387.764648
1.960000 4.080000 -7.840000 -82.989777 -1.223635 6888.800293
1.960000 4.080000 -7.800000 -36.880463 -46.355400 3508.991699
1.960000 4.120000 -8.200000 -17.232162 29.777155 1183.626343
1.960000 4.120000 -8.160000 -26.028595 -7.493003 733.632812
1.960000 4.120000 -8.120000 2.748251 -40.814896 1673.408569
1.960000 4.120000 -8.080000 53.111061 -36.727150 4169.668457
1.960000 4.120000 -8.040000 84.217560 11.479351 7224.372559
1.960000 4.120000 -8.000000 64.473801 71.860992 9320.873047
1.960000 4.120000 -7.960000 1.754089 97.665573 9541.641602
1.960000 4.120000 -7.920000 -60.496006 67.177170 8172.539062
1.960000 4.120000 -7.880000 -79.340584 2.342117 6300.413574
1.960000 4.120000 -7.840000 -47.266571 -51.230907 4858.734375
1.960000 4.120000 -7.800000 5.949952 -63.079971 4014.484619
1.960000 4.160000 -8.200000 -14.888509 6.905462 269.353088
1.960000 4.160000 -8.160000 -8.645611 -15.279102 308.197571
1.960000 4.160000 -8.120000 15.828652 -25.676826 909.845703
1.960000 4.160000 -8.080000 42.026802 -10.622952 1879.099121
1.960000 4.160000 -8.040000 46.048805 23.225760 2659.928223
1.960000 4.160000 -8.000000 18.601406 49.670609 2813.181641
1.960000 4.160000 -7.960000 -22.961918 43.965935 2460.253174
1.960000 4.160000 -7.920000 -46.703636 5.659443 2213.259033
1.960000 4.160000 -7.880000 -32.869507 -39.121517 2610.897461
1.960000 4.160000 -7.840000 9.442109 -59.187447 3592.307129
1.960000 4.160000 -7.800000 51.216873 -43.587425 4523.031738
1.960000 4.200000 -8.200000 0.406480 0.303934 0.257602
1.960000 4.200000 -8.160000 6.291695 -7.732081 99.370499
1.960000 4.200000 -8.120000 18.662405 -9.202295 432.967590
1.960000 4.200000 -8.080000 28.882061 1.056988 835.290710
1.960000 4.200000 -8.040000 25.822659 17.066624 958.079346
1.960000 4.200000 -8.000000 8.521709 23.749023 636.635620
1.960000 4.200000 -7.960000 -8.981337 10.734428 195.892365
1.960000 4.200000 -7.920000 -8.245328 -15.344910 303.451691
1.960000 4.200000 -7.880000 16.261639 -33.824287 1408.523315
1.960000 4.200000 -7.840000 50.225838 -27.189901 3261.925537
1.960000 4.200000 -7.800000 70.628265 3.508831 5000.664062
2.000000 3.800000 -8.200000 -38.297886 70.720810 6468.161133
2.000000 3.800000 -8.160000 -82.177719 50.622902 9315.855469
2.000000 3.800000 -8.120000 -99.491028 -0.595011 9898.819336
2.000000 3.800000 -8.080000 -73.950592 -48.606628 7831.293945
2.000000 3.800000 -8.040000 -26.212996 -60.621147 4362.044922
2.000000 3.800000 -8.000000 5.639765 -36.762608 1383.296265
2.000000 3.800000 -7.960000 3.061848 -8.188019 76.418564
2.000000 3.800000 -7.920000 -17.092140 -4.261303 310.299957
2.000000 3.800000 -7.880000 -23.383488 -23.737904 1110.275513
2.000000 3.800000 -7.840000 -3.824697 -39.616745 1584.114746
2.000000 3.800000 -7.800000 23.294119 -30.393888 1466.404419
2.000000 3.840000 -8.200000 -64.836945 20.849064 4638.513184
2.000000 3.840000 -8.160000 -80.937347 -1.693317 6553.721191
2.000000 3.840000 -8.120000 -80.660416 -32.773373 7580.196289
2.000000 3.840000 -8.080000 -62.874870 -57.538433 7263.920898
2.000000 3.840000 -8.040000 -38.595490 -67.293854 6018.074707
2.000000 3.840000 -8.000000 -19.052399 -66.081085 4729.704102
2.000000 3.840000 -7.960000 -5.215752 -62.948402 3989.705566
2.000000 3.840000 -7.920000 9.324211 -59.915058 3676.755127
2.000000 3.840000 -7.880000 26.439135 -50.395294 3238.713623
2.000000 3.840000 -7.840000 37.816269 -30.004772 2330.356445
2.000000 3.840000 -7.800000 33.543648 -6.224908 1163.925781
2.000000 3.880000 -8.200000 -42.847038 -30.145500 2744.619873
2.000000 3.880000 -8.160000 -46.348618 -31.394060 3133.781250
2.000000 3.880000 -8.120000 -56.701271 -42.381317 5011.209961
2.000000 3.880000 -8.080000 -60.786396 -68.983788 8453.749023
2.000000 3.880000 -8.040000 -43.724228 -102.778641 12475.257812
2.000000 3.880000 -8.000000 -2.192245 -124.056503 15394.821289
2.000000 3.880000 -7.960000 49.363792 -115.341309 15740.401367
2.000000 3.880000 -7.920000 86.128632 -75.711105 13150.312500
2.000000 3.880000 -7.880000 89.843880 -24.009422 8648.375000
2.000000 3.880000 -7.840000 62.452625 13.051841 4070.680908
2.000000 3.880000 -7.800000 25.128525 19.566862 1014.304810
2.000000 3.920000 -8.200000 8.341807 -43.107384 1927.832275
2.000000 3.920000 -8.160000 -10.234028 -24.735279 716.569397
2.000000 3.920000 -8.120000 -44.065979 -40.415844 3575.250977
2.000000 3.920000 -8.080000 -53.355160 -93.258217 11543.868164
2.000000 3.920000 -8.040000 -10.336254 -148.386917 22125.515625
2.000000 3.920000 -8.000000 71.611435 -158.819534 30351.841797
2.000000 3.920000 -7.960000 143.817200 -105.992805 31917.861328
2.000000 3.920000 -7.920000 160.418701 -18.078449 26060.990234
2.000000 3.920000 -7.880000 115.470734 51.506378 15986.397461
2.000000 3.920000 -7.840000 46.114853 66.572601 6558.490723
2.000000 3.920000 -7.800000 0.237431 34.069077 1160.758423
2.000000 3.960000 -8.200000 46.374382 -12.066750 2296.189697
2.000000 3.960000 -8.160000 0.533672 0.942810 1.173697
2.000000 3.960000 -8.120000 -40.701736 -43.039078 3508.993652
2.000000 3.960000 -8.080000 -23.926550 -118.954620 14722.681641
2.000000 3.960000 -8.040000 60.853088 -162.559479 30128.681641
2.000000 3.960000 -8.000000 163.156189 -125.198181 42294.527344
2.000000 3.960000 -7.960000 210.554443 -19.730642 44722.468750
2.000000 3.960000 -7.920000 169.679047 86.866379 36336.746094
2.000000 3.960000 -7.880000 73.656952 128.821503 22020.328125
2.000000 3.960000 -7.840000 -8.524162 94.065300 8920.941406
2.000000 3.960000 -7.800000 -30.491064 27.233257 1671.355347
2.000000 4.000000 -8.200000 43.925362 32.668968 2996.698730
2.000000 4.000000 -8.160000 -13.915783 16.810715 476.249146
2.000000 4.000000 -8.120000 -33.112534 -53.685741 3978.598633
2.000000 4.000000 -8.080000 24.405048 -122.757835 15665.092773
2.000000 4.000000 -8.040000 131.103943 -121.207802 31879.574219
2.000000 4.000000 -8.000000 209.253769 -30.580343 44722.296875
2.000000 4.000000 -7.960000 195.862244 94.579575 47307.316406
2.000000 4.000000 -7.920000 97.801758 170.273392 38558.210938
2.000000 4.000000 -7.880000 -14.748432 153.189789 23684.626953
2.000000 4.000000 -7.840000 -69.561714 72.691460 10122.880859
2.000000 4.000000 -7.800000 -49.984154 -2.030027 2502.536621
2.000000 4.040000 -8.200000 10.477113 54.382565 3067.233154
2.000000 4.040000 -8.160000 -31.599085 9.718267 1092.946899
2.000000 4.040000 -8.120000 -13.913431 -61.490715 3974.691650
2.000000 4.040000 -8.080000 67.769188 -93.970337 13423.085938
2.000000 4.040000 -8.040000 156.713684 -43.280369 26432.369141
2.000000 4.040000 -8.000000 178.864288 68.242111 36649.417969
2.000000 4.040000 -7.960000 108.019424 164.305481 38664.488281
2.000000 4.040000 -7.920000 -9.142487 178.036667 31780.640625
2.000000 4.040000 -7.880000 -92.869019 107.559265 20193.648438
2.000000 4.040000 -7.840000 -97.349472 12.685192 9637.833984
2.000000 4.040000 -7.800000 -42.568588 -40.979141 3491.374756
2.000000 4.080000 -8.200000 -21.347872 42.349709 2249.229492
2.000000 4.080000 -8.160000 -32.809723 -9.247498 1161.994141
2.000000 4.080000 -8.120000 9.703543 -55.189720 3140.063965
2.000000 4.080000 -8.080000 82.972824 -46.860718 9080.416016
2.000000 4.080000 -8.040000 127.850906 25.188433 16980.312500
2.000000 4.080000 -8.000000 99.091469 114.677582 22970.066406
2.000000 4.080000 -7.960000 8.299664 154.712616 24004.878906
2.000000 4.080000 -7.920000 -82.646751 114.664604 19978.457031
2.000000 4.080000 -7.880000 -113.390244 25.710449 13518.375000
2.000000 4.080000 -7.840000 -73.895699 -48.437412 7806.756836
2.000000 4.080000 -7.800000 -5.908405 -66.209724 4418.636719
2.000000 4.120000 -8.200000 -28.415083 16.217899 1070.437256
2.000000 4.120000 -8.160000 -17.821239 -20.115074 722.212769
2.000000 4.120000 -8.120000 24.164454 -35.871208 1870.664307
2.000000 4.120000 -8.080000 68.340309 -7.805984 4731.331543
2.000000 4.120000 -8.040000 74.147873 51.818119 8183.024414
2.000000 4.120000 -8.000000 26.862411 98.783501 10479.768555
2.000000 4.120000 -7.960000 -44.411480 92.816986 10587.373047
2.000000 4.120000 -7.920000 -88.306740 33.656395 8930.833008
2.000000 4.120000 -7.880000 -74.101669 -37.490517 6896.596680
2.000000 4.120000 -7.840000 -16.082958 -73.101562 5602.500000
2.000000 4.120000 -7.800000 42.400963 -57.593082 5114.804688
2.000000 4.160000 -8.200000 -15.556236 1.791355 245.205444
2.000000 4.160000 -8.160000 -2.396029 -14.884344 227.284653
2.000000 4.160000 -8.120000 23.550510 -15.397412 791.706848
2.000000 4.160000 -8.080000 42.529297 8.325087 1878.048096
2.000000 4.160000 -8.040000 33.721764 41.923645 2894.749512
2.000000 4.160000 -8.000000 -2.564625 56.549194 3204.388672
2.000000 4.160000 -7.960000 -39.944763 34.398647 2778.851074
2.000000 4.160000 -7.920000 -46.573181 -12.466362 2324.471436
2.000000 4.160000 -7.880000 -13.247255 -49.945015 2669.994385
2.000000 4.160000 -7.840000 37.950272 -50.335667 3973.902588
2.000000 4.160000 -7.800000 72.853493 -14.699045 5523.693359
2.000000 4.200000 -8.200000 -4.273588 5.543371 48.992519
2.000000 4.200000 -8.160000 0.809382 -2.792979 8.455831
2.000000 4.200000 -8.120000 14.087716 -4.114333 215.391479
2.000000 4.200000 -8.080000 24.479284 7.747515 659.259338
2.000000 4.200000 -8.040000 19.632357 24.309875 976.399414
2.000000 4.200000 -8.000000 1.368023 28.359886 806.154602
2.000000 4.200000 -7.960000 -12.385768 11.950474 296.221069
2.000000 4.200000 -7.920000 -3.696020 -12.491261 169.692154
2.000000 4.200000 -7.880000 26.625444 -21.211685 1158.849854
2.000000 4.200000 -7.840000 57.258415 -0.776648 3279.129395
2.000000 4.200000 -7.800000 64.313255 38.990318 5656.439453
2.040000 3.800000 -8.200000 -65.944908 33.523975 5472.587891
2.040000 3.800000 -8.160000 -89.170898 -8.786922 8028.659180
2.040000 3.800000 -8.120000 -72.642502 -60.995827 8997.423828
2.040000 3.800000 -8.080000 -22.156164 -85.716286 7838.177246
2.040000 3.800000 -8.040000 26.757446 -66.761803 5173.099121
2.040000 3.800000 -8.000000 41.411720 -24.865143 2333.205811
2.040000 3.800000 -7.960000 21.877197 2.917377 487.122833
2.040000 3.800000 -7.920000 -2.197594 -1.062155 5.957591
2.040000 3.800000 -7.880000 -3.459192 -20.919563 449.594147
2.040000 3.800000 -7.840000 16.624855 -27.725985 1045.115967
2.040000 3.800000 -7.800000 33.323059 -11.023600 1231.946045
2.040000 3.840000 -8.200000 -59.828560 -20.008322 3979.789551
2.040000 3.840000 -8.160000 -57.820049 -48.626034 5707.649414
2.040000 3.840000 -8.120000 -36.301109 -73.499908 6720.006836
2.040000 3.840000 -8.080000 -3.823118 -80.474823 6490.813477
2.040000 3.840000 -8.040000 23.214314 -68.429535 5221.505371
2.040000 3.840000 -8.000000 35.469536 -49.190891 3677.832031
2.040000 3.840000 -7.960000 37.269836 -34.666466 2590.804443
2.040000 3.840000 -7.920000 38.369240 -25.872234 2141.571045
2.040000 3.840000 -7.880000 41.390038 -15.736492 1960.772461
2.040000 3.840000 -7.840000 39.786102 -1.222021 1584.427246
2.040000 3.840000 -7.800000 28.273510 10.569147 911.098206
2.040000 3.880000 -8.200000 -14.921159 -47.385735 2468.048828
2.040000 3.880000 -8.160000 -13.593861 -50.234932 2708.341309
2.040000 3.880000 -8.120000 -11.844450 -61.772133 3956.087402
2.040000 3.880000 -8.080000 1.275816 -79.026108 6246.753418
2.040000 3.880000 -8.040000 30.333832 -89.412079 8914.661133
2.040000 3.880000 -8.000000 67.155518 -79.571884 10841.548828
2.040000 3.880000 -7.960000 94.169601 -46.621376 11041.466797
2.040000 3.880000 -7.920000 96.095535 -2.826164 9242.338867
2.040000 3.880000 -7.880000 71.652481 31.033461 6097.153809
2.040000 3.880000 -7.840000 35.824356 39.630058 2853.926025
2.040000 3.880000 -7.800000 10.030053 24.041721 678.606384
2.040000 3.920000 -8.200000 31.290581 -29.169460 1829.957886
2.040000 3.920000 -8.160000 9.201714 -22.560553 593.650085
2.040000 3.920000 -8.120000 -7.992113 -48.637787 2429.508057
2.040000 3.920000 -8.080000 10.534082 -89.957794 8203.372070
2.040000 3.920000 -8.040000 67.646729 -107.371986 16104.823242
2.040000 3.920000 -8.000000 130.225143 -73.744171 22396.791016
2.040000 3.920000 -7.960000 154.094589 -0.354118 23745.267578
2.040000 3.920000 -7.920000 120.988129 69.359772 19448.904297
2.040000 3.920000 -7.880000 54.247734 94.417862 11857.548828
2.040000 3.920000 -7.840000 -0.872814 68.584946 4704.656250
2.040000 3.920000 -7.800000 -14.052919 22.199764 690.314087
2.040000 3.960000 -8.200000 43.115578 14.992262 2083.720947
2.040000 3.960000 -8.160000 0.591246 3.536627 12.857301
2.040000 3.960000 -8.120000 -10.434685 -49.605484 2569.586670
2.040000 3.960000 -8.080000 38.345798 -98.829613 11237.692383
2.040000 3.960000 -8.040000 122.723450 -90.427551 23238.187500
2.040000 3.960000 -8.000000 180.452484 -12.682606 32723.947266
2.040000 3.960000 -7.960000 163.486694 88.651947 34587.066406
2.040000 3.960000 -7.920000 80.433990 146.664581 27980.126953
2.040000 3.960000 -7.880000 -10.664939 128.984802 16750.820312
2.040000 3.960000 -7.840000 -52.160004 61.915344 6554.175781
2.040000 3.960000 -7.800000 -32.595261 2.828018 1070.448730
2.040000 4.000000 -8.200000 17.472672 46.990273 2513.379883
2.040000 4.000000 -8.160000 -20.470116 6.122526 456.510956
2.040000 4.000000 -8.120000 -1.559767 -58.352646 3407.464111
2.040000 4.000000 -8.080000 76.219040 -84.409805 12934.357422
2.040000 4.000000 -8.040000 157.760727 -31.978329 25911.060547
2.040000 4.000000 -8.000000 174.025146 75.211685 35941.550781
2.040000 4.000000 -7.960000 103.154907 164.260681 37622.507812
2.040000 4.000000 -7.920000 -8.247889 173.902390 30310.068359
2.040000 4.000000 -7.880000 -84.816170 105.563423 18337.419922
2.040000 4.000000 -7.840000 -85.714340 17.813606 7664.272949
2.040000 4.000000 -7.800000 -32.989769 -27.798948 1861.106445
2.040000 4.040000 -8.200000 -17.928986 45.598953 2400.713135
2.040000 4.040000 -8.160000 -28.991966 -9.837734 937.315125
2.040000 4.040000 -8.120000 19.189491 -57.233200 3643.875732
2.040000 4.040000 -8.080000 98.841492 -43.798260 11687.927734
2.040000 4.040000 -8.040000 144.521667 38.138191 22341.033203
2.040000 4.040000 -8.000000 108.968094 135.827118 30323.050781
2.040000 4.040000 -7.960000 8.076574 177.035583 31406.828125
2.040000 4.040000 -7.920000 -89.581856 131.702972 25370.582031
2.040000 4.040000 -7.880000 -120.581093 36.657341 15883.560547
2.040000 4.040000 -7.840000 -77.821465 -39.067253 7582.430664
2.040000 4.040000 -7.800000 -8.853464 -53.615200 2952.973389
2.040000 4.080000 -8.200000 -34.121689 21.826988 1640.707031
2.040000 4.080000 -8.160000 -18.628071 -23.010876 876.505493
2.040000 4.080000 -8.120000 35.868431 -38.839188 2795.026855
2.040000 4.080000 -8.080000 89.457771 1.665394 8005.466309
2.040000 4.080000 -8.040000 91.551079 79.106514 14639.439453
2.040000 4.080000 -8.000000 27.603668 136.433182 19375.976562
2.040000 4.080000 -7.960000 -62.623348 126.030655 19805.410156
2.040000 4.080000 -7.920000 -115.915100 51.963184 16136.483398
2.040000 4.080000 -7.880000 -98.505997 -33.130657 10801.072266
2.040000 4.080000 -7.840000 -31.767700 -73.647255 6433.104492
2.040000 4.080000 -7.800000 31.555819 -55.519753 4078.212646
2.040000 4.120000 -8.200000 -26.796024 2.138866 722.601685
2.040000 4.120000 -8.160000 -3.767847 -20.201836 422.310852
2.040000 4.120000 -8.120000 34.719643 -14.355640 1411.538086
2.040000 4.120000 -8.080000 56.808918 26.146221 3910.877930
2.040000 4.120000 -8.040000 35.670403 75.146027 6919.302734
2.040000 4.120000 -8.000000 -21.954582 91.483467 8851.228516
2.040000 4.120000 -7.960000 -75.789337 55.271790 8798.994141
2.040000 4.120000 -7.920000 -84.341675 -11.732925 7251.179688
2.040000 4.120000 -7.880000 -40.443855 -62.839912 5584.560059
2.040000 4.120000 -7.840000 23.619349 -65.389740 4833.691406
2.040000 4.120000 -7.800000 65.389435 -25.381147 4919.980957
2.040000 4.160000 -8.200000 -14.194841 0.193887 201.531113
2.040000 4.160000 -8.160000 -0.399891 -8.207474 67.522537
2.040000 4.160000 -8.120000 19.062725 -0.956022 364.301453
2.040000 4.160000 -8.080000 25.873497 23.089626 1202.568726
2.040000 4.160000 -8.040000 7.552177 45.734856 2148.712402
2.040000 4.160000 -8.000000 -25.855682 43.528111 2563.212646
2.040000 4.160000 -7.960000 -46.273003 11.360893 2270.260498
2.040000 4.160000 -7.920000 -31.908741 -28.787106 1846.865234
2.040000 4.160000 -7.880000 11.605682 -44.905457 2151.191895
2.040000 4.160000 -7.840000 54.662819 -22.504551 3494.478516
2.040000 4.160000 -7.800000 68.692139 23.688532 5279.756348
2.040000 4.200000 -8.200000 -13.359416 6.625386 222.369751
2.040000 4.200000 -8.160000 -8.644007 -2.862216 82.911133
2.040000 4.200000 -8.120000 4.716162 -3.801988 36.697292
2.040000 4.200000 -8.080000 13.522863 8.193088 249.994507
2.040000 4.200000 -8.040000 7.349531 21.984058 537.314453
2.040000 4.200000 -8.000000 -7.827312 21.885681 540.249817
2.040000 4.200000 -7.960000 -13.641676 5.790016 219.619614
2.040000 4.200000 -7.920000 1.744503 -9.761202 98.324348
2.040000 4.200000 -7.880000 29.493412 -4.450080 889.664551
2.040000 4.200000 -7.840000 46.286709 25.554663 2795.500244
2.040000 4.200000 -7.800000 35.209290 62.655907 5165.457031
2.080000 3.800000 -8.200000 -59.391006 -4.915142 3551.450439
2.080000 3.800000 -8.160000 -54.942558 -48.070061 5329.415527
2.080000 3.800000 -8.120000 -15.807818 -78.948135 6482.695312
2.080000 3.800000 -8.080000 36.028824 -72.055855 6490.122559
2.080000 3.800000 -8.040000 65.628510 -31.248905 5283.595215
2.080000 3.800000 -8.000000 56.381538 12.446198 3333.785889
2.080000 3.800000 -7.960000 24.172909 29.136940 1433.290771
2.080000 3.800000 -7.920000 0.346792 16.229507 263.517181
2.080000 3.800000 -7.880000 1.484164 -3.218277 12.560050
2.080000 3.800000 -7.840000 16.731579 -6.426264 321.242615
2.080000 3.800000 -7.800000 23.664268 6.944444 608.222900
2.080000 3.840000 -8.200000 -31.770870 -39.690506 2584.724609
2.080000 3.840000 -8.160000 -14.533247 -60.525368 3874.535400
2.080000 3.840000 -8.120000 16.620085 -67.544960 4838.548828
2.080000 3.840000 -8.080000 46.849018 -52.917763 4995.120117
2.080000 3.840000 -8.040000 60.458130 -24.285803 4244.985840
2.080000 3.840000 -8.000000 54.379955 1.709170 2960.100586
2.080000 3.840000 -7.960000 39.215454 14.054932 1735.392944
2.080000 3.840000 -7.920000 27.547771 15.036903 984.988159
2.080000 3.840000 -7.880000 22.622995 13.946507 706.304993
2.080000 3.840000 -7.840000 19.028091 15.353698 597.804321
2.080000 3.840000 -7.800000 12.793917 15.471464 403.050507
2.080000 3.880000 -8.200000 11.077068 -38.508808 1605.629761
2.080000 3.880000 -8.160000 16.090750 -39.740044 1838.183350
2.080000 3.880000 -8.120000 25.846298 -43.882439 2593.699707
2.080000 3.880000 -8.080000 43.351494 -43.744972 3792.974609
2.080000 3.880000 -8.040000 63.601913 -31.633289 5045.868164
2.080000 3.880000 -8.000000 75.967644 -6.489475 5813.196289
2.080000 3.880000 -7.960000 71.601578 23.511696 5679.585938
2.080000 3.880000 -7.920000 50.414116 45.219208 4586.359863
2.080000 3.880000 -7.880000 22.424433 48.934837 2897.473633
2.080000 3.880000 -7.840000 2.043158 35.242867 1246.234131
2.080000 3.880000 -7.800000 -1.182276 15.211018 232.772842
2.080000 3.920000 -8.200000 33.923775 -5.687290 1183.167725
2.080000 3.920000 -8.160000 17.121403 -9.748842 388.182343
2.080000 3.920000 -8.120000 17.367050 -32.024368 1327.174561
2.080000 3.920000 -8.080000 45.786392 -48.208565 4420.459473
2.080000 3.920000 -8.040000 86.841957 -33.395134 8656.760742
2.080000 3.920000 -8.000000 108.685928 14.003124 12008.718750
2.080000 3.920000 -7.960000 90.053680 67.554825 12673.320312
2.080000 3.920000 -7.920000 39.689224 93.224831 10266.103516
2.080000 3.920000 -7.880000 -9.818277 77.347954 6079.104492
2.080000 3.920000 -7.840000 -28.604820 37.207760 2202.653076
2.080000 3.920000 -7.800000 -12.787010 5.360222 192.239609
2.080000 3.960000 -8.200000 22.104759 28.526304 1302.370483
2.080000 3.960000 -8.160000 -1.952774 2.792984 11.614086
2.080000 3.960000 -8.120000 12.629084 -36.855057 1517.788940
2.080000 3.960000 -8.080000 64.549004 -48.614510 6529.944336
2.080000 3.960000 -8.040000 115.147102 -8.129839 13324.950195
2.080000 3.960000 -8.000000 119.329926 65.530891 18533.929688
2.080000 3.960000 -7.960000 65.891693 122.411346 19326.253906
2.080000 3.960000 -7.920000 -10.778019 123.400436 15343.833984
2.080000 3.960000 -7.880000 -59.455353 73.140846 8884.522461
2.080000 3.960000 -7.840000 -54.908958 13.958836 3209.842773
2.080000 3.960000 -7.800000 -15.618315 -12.146704 391.474182
2.080000 4.000000 -8.200000 -8.111951 37.791897 1494.031128
2.080000 4.000000 -8.160000 -16.377850 -6.367859 308.783569
2.080000 4.000000 -8.120000 23.358082 -42.128723 2320.429199
2.080000 4.000000 -8.080000 86.279404 -27.608917 8206.387695
2.080000 4.000000 -8.040000 119.109108 40.677246 15841.618164
2.080000 4.000000 -8.000000 85.999191 118.198669 21366.787109
2.080000 4.000000 -7.960000 2.918039 147.573395 21786.421875
2.080000 4.000000 -7.920000 -73.649048 107.802689 17045.601562
2.080000 4.000000 -7.880000 -94.475189 31.628551 9925.926758
2.080000 4.000000 -7.840000 -57.516098 -24.796324 3922.959229
2.080000 4.000000 -7.800000 -4.013947 -30.189245 927.502258
2.080000 4.040000 -8.200000 -29.049973 22.216133 1337.457520
2.080000 4.040000 -8.160000 -12.920622 -19.651678 553.130920
2.080000 4.040000 -8.120000 39.248177 -31.664717 2543.073730
2.080000 4.040000 -8.080000 87.558487 9.858227 7763.673340
2.080000 4.040000 -8.040000 85.271500 83.487099 14241.324219
2.080000 4.040000 -8.000000 22.118370 134.774124 18653.287109
2.080000 4.040000 -7.960000 -61.964951 121.695938 18649.556641
2.080000 4.040000 -7.920000 -108.669556 51.895248 14502.189453
2.080000 4.040000 -7.880000 -90.308495 -23.930771 8728.305664
2.080000 4.040000 -7.840000 -30.481220 -56.280834 4096.637207
2.080000 4.040000 -7.800000 21.267372 -36.596237 1791.585693
2.080000 4.080000 -8.200000 -28.810101 2.686963 837.241699
2.080000 4.080000 -8.160000 -0.737005 -20.027489 401.643494
2.080000 4.080000 -8.120000 41.331627 -8.750982 1784.883057
2.080000 4.080000 -8.080000 60.879910 39.199707 5242.980469
2.080000 4.080000 -8.040000 31.885866 91.596146 9406.561523
2.080000 4.080000 -8.000000 -33.370335 104.761635 12088.579102
2.080000 4.080000 -7.960000 -89.704056 62.112083 11904.728516
2.080000 4.080000 -7.920000 -95.965004 -8.970383 9289.750000
2.080000 4.080000 -7.880000 -49.820702 -59.476398 6019.543945
2.080000 4.080000 -7.840000 12.217750 -59.830734 3728.990234
2.080000 4.080000 -7.800000 48.378643 -21.292080 2793.845703
2.080000 4.120000 -8.200000 -18.519753 -3.659972 356.376617
2.080000 4.120000 -8.160000 2.830010 -9.241155 93.407898
2.080000 4.120000 -8.120000 24.498781 7.593057 657.844849
2.080000 4.120000 -8.080000 24.055502 40.736969 2238.167725
2.080000 4.120000 -8.040000 -7.131462 64.193420 4171.653320
2.080000 4.120000 -8.000000 -50.351570 53.204323 5365.980469
2.080000 4.120000 -7.960000 -71.674026 8.842014 5215.347168
2.080000 4.120000 -7.920000 -51.006668 -39.163639 4135.470703
2.080000 4.120000 -7.880000 -0.662529 -56.335957 3174.178955
2.080000 4.120000 -7.840000 44.965927 -32.181328 3057.572266
2.080000 4.120000 -7.800000 58.612968 13.234560 3610.633545
2.080000 4.160000 -8.200000 -15.320694 0.372951 234.862762
2.080000 4.160000 -8.160000 -6.644428 -3.088597 53.687855
2.080000 4.160000 -8.120000 3.637608 4.019072 29.385126
2.080000 4.160000 -8.080000 2.839085 19.239662 378.225006
2.080000 4.160000 -8.040000 -13.312435 27.616137 939.871948
2.080000 4.160000 -8.000000 -32.017651 16.147858 1285.883301
2.080000 4.160000 -7.960000 -33.007290 -10.414116 1197.935059
2.080000 4.160000 -7.920000 -8.482010 -30.387276 995.331055
2.080000 4.160000 -7.880000 27.095053 -23.736809 1297.578003
2.080000 4.160000 -7.840000 48.202114 9.410791 2412.006836
2.080000 4.160000 -7.800000 39.921864 48.689423 3964.415039
2.080000 4.200000 -8.200000 -22.105423 -0.355416 488.776031
2.080000 4.200000 -8.160000 -16.336506 -11.416406 397.215759
2.080000 4.200000 -8.120000 -2.588820 -12.610932 165.737610
2.080000 4.200000 -8.080000 6.011796 -2.157749 40.797569
2.080000 4.200000 -8.040000 2.292126 8.723141 81.347031
2.080000 4.200000 -8.000000 -6.349685 8.701939 116.042236
2.080000 4.200000 -7.960000 -5.972607 -0.019602 35.672417
2.080000 4.200000 -7.920000 7.713837 -2.871309 67.747688
2.080000 4.200000 -7.880000 22.827053 11.741617 658.939941
2.080000 4.200000 -7.840000 21.988485 39.213684 2021.206543
2.080000 4.200000 -7.800000 -0.850179 61.670967 3804.031006
2.120000 3.800000 -8.200000 -34.336853 -21.504457 1641.461182
2.120000 3.800000 -8.160000 -12.722921 -48.058601 2471.501953
2.120000 3.800000 -8.120000 27.025517 -52.074280 3442.109375
2.120000 3.800000 -8.080000 60.300282 -24.771418 4249.747070
2.120000 3.800000 -8.040000 64.181374 18.197117 4450.383789
2.120000 3.800000 -8.000000 37.741692 48.641766 3790.456543
2.120000 3.800000 -7.960000 2.673946 49.732948 2480.516113
2.120000 3.800000 -7.920000 -16.510403 28.992777 1113.174561
2.120000 3.800000 -7.880000 -13.210886 8.430256 245.596725
2.120000 3.800000 -7.840000 -0.635524 2.883515 8.718549
2.120000 3.800000 -7.800000 4.938507 8.507403 96.764771
2.120000 3.840000 -8.200000 -6.604077 -33.521416 1167.299194
2.120000 3.840000 -8.160000 14.951673 -40.407822 1856.344482
2.120000 3.840000 -8.120000 40.802177 -30.550137 2598.128418
2.120000 3.840000 -8.080000 55.708607 -4.010550 3119.533447
2.120000 3.840000 -8.040000 49.746773 25.995232 3150.493652
2.120000 3.840000 -8.000000 27.351692 43.210400 2615.253662
2.120000 3.840000 -7.960000 3.461389 41.391979 1725.277100
2.120000 3.840000 -7.920000 -9.241998 27.806606 858.621826
2.120000 3.840000 -7.880000 -9.296873 14.667433 301.565430
2.120000 3.840000 -7.840000 -3.810534 8.259112 82.733109
2.120000 3.840000 -7.800000 1.083567 6.555621 44.150288
2.120000 3.880000 -8.200000 17.693562 -18.889156 669.862366
2.120000 3.880000 -8.160000 24.119745 -17.132620 875.288757
2.120000 3.880000 -8.120000 33.841072 -11.828776 1285.138062
2.120000 3.880000 -8.080000 42.378902 0.971040 1796.914185
2.120000 3.880000 -8.040000 42.883934 19.514465 2219.846191
2.120000 3.880000 -8.000000 32.017159 36.521179 2358.895020
2.120000 3.880000 -7.960000 13.192003 44.063766 2115.644531
2.120000 3.880000 -7.920000 -5.206078 38.959095 1544.914307
2.120000 3.880000 -7.880000 -14.903763 24.854784 839.882446
2.120000 3.880000 -7.840000 -12.430177 10.038721 255.285217
2.120000 3.880000 -7.800000 -0.842545 2.854065 8.855568
2.120000 3.920000 -8.200000 19.576805 6.671235 427.756683
2.120000 3.920000 -8.160000 13.052338 -0.590597 170.712326
2.120000 3.920000 -8.120000 21.124474 -9.911609 544.483398
2.120000 3.920000 -8.080000 39.564548 -6.057926 1602.052002
2.120000 3.920000 -8.040000 51.995632 16.262022 2967.999023
2.120000 3.920000 -8.000000 43.598064 45.706337 3989.860596
2.120000 3.920000 -7.960000 14.934708 62.342083 4109.581055
2.120000 3.920000 -7.920000 -16.919033 54.210770 3225.061279
2.120000 3.920000 -7.880000 -31.713806 27.867683 1782.373291
2.120000 3.920000 -7.840000 -22.461372 3.343526 515.692383
2.120000 3.920000 -7.800000 -0.644474 -2.136916 4.981757
2.120000 3.960000 -8.200000 2.346489 20.765078 436.694458
2.120000 3.960000 -8.160000 -1.298962 -1.659055 4.439764
2.120000 3.960000 -8.120000 20.013847 -17.548698 708.510864
2.120000 3.960000 -8.080000 50.970844 -6.131830 2635.626221
2.120000 3.960000 -8.040000 63.466248 31.674385 5031.231445
2.120000 3.960000 -8.000000 40.993198 70.714127 6680.930176
2.120000 3.960000 -7.960000 -5.096588 81.588058 6682.586426
2.120000 3.960000 -7.920000 -43.663395 56.083176 5051.814453
2.120000 3.960000 -7.880000 -49.899712 14.528660 2701.063232
2.120000 3.960000 -7.840000 -25.812178 -11.977276 809.723633
2.120000 3.960000 -7.800000 3.344982 -8.003639 75.247147
2.120000 4.000000 -8.200000 -15.259056 15.851002 484.093048
2.120000 4.000000 -8.160000 -3.726046 -11.103293 137.166550
2.120000 4.000000 -8.120000 30.327766 -17.036823 1210.026855
2.120000 4.000000 -8.080000 59.947208 11.688335 3730.284912
2.120000 4.000000 -8.040000 55.783768 59.416969 6642.205078
2.120000 4.000000 -8.000000 13.202009 90.737488 8407.584961
2.120000 4.000000 -7.960000 -40.629894 80.043510 8057.751953
2.120000 4.000000 -7.920000 -68.420601 34.404102 5865.020508
2.120000 4.000000 -7.880000 -54.268402 -12.225914 3094.532471
2.120000 4.000000 -7.840000 -15.899458 -28.504221 1065.283325
2.120000 4.000000 -7.800000 13.163456 -11.372643 302.613556
2.120000 4.040000 -8.200000 -19.775705 3.040335 400.322144
2.120000 4.040000 -8.160000 3.506357 -13.305259 189.324448
2.120000 4.040000 -8.120000 35.683041 -2.254086 1278.360352
2.120000 4.040000 -8.080000 48.602142 35.976761 3656.495605
2.120000 4.040000 -8.040000 24.178101 75.496826 6284.351562
2.120000 4.040000 -8.000000 -26.246872 83.871964 7723.404785
2.120000 4.040000 -7.960000 -67.974396 50.641521 7185.082031
2.120000 4.040000 -7.920000 -71.427841 -1.879591 5105.469238
2.120000 4.040000 -7.880000 -37.225174 -36.985840 2753.666016
2.120000 4.040000 -7.840000 5.703169 -34.627235 1231.571533
2.120000 4.040000 -7.800000 26.704634 -6.131921 750.737915
2.120000 4.080000 -8.200000 -14.750279 -3.324794 228.625000
2.120000 4.080000 -8.160000 6.178895 -5.252374 65.766167
2.120000 4.080000 -8.120000 23.822121 13.502428 749.808960
2.120000 4.080000 -8.080000 19.289490 44.119751 2318.636719
2.120000 4.080000 -8.040000 -11.665641 62.721981 4070.134033
2.120000 4.080000 -8.000000 -50.099800 49.898651 4999.865234
2.120000 4.080000 -7.960000 -67.038376 9.864298 4591.448242
2.120000 4.080000 -7.920000 -48.141685 -30.399324 3241.740723
2.120000 4.080000 -7.880000 -6.752420 -43.170990 1909.329590
2.120000 4.080000 -7.840000 27.788811 -23.000534 1301.242676
2.120000 4.080000 -7.800000 35.355209 10.866616 1368.074219
2.120000 4.120000 -8.200000 -12.673313 -1.639842 163.301956
2.120000 4.120000 -8.160000 -3.124895 0.814192 10.427878
2.120000 4.120000 -8.120000 2.168203 12.624375 164.075958
2.120000 4.120000 -8.080000 -5.916779 26.856010 756.253540
2.120000 4.120000 -8.040000 -25.992266 29.250164 1531.169922
2.120000 4.120000 -8.000000 -43.016953 11.905695 1992.203857
2.120000 4.120000 -7.960000 -39.933548 -16.149620 1855.498535
2.120000 4.120000 -7.920000 -14.037910 -34.010590 1353.783081
2.120000 4.120000 -7.880000 18.572189 -26.515892 1048.018799
2.120000 4.120000 -7.840000 36.027206 2.358707 1303.523071
2.120000 4.120000 -7.800000 28.885740 33.513916 1957.568604
2.120000 4.160000 -8.200000 -18.299671 -2.364779 340.470154
2.120000 4.160000 -8.160000 -15.200183 -6.931869 279.096375
2.120000 4.160000 -8.120000 -9.178558 -6.236002 123.133652
2.120000 4.160000 -8.080000 -7.548239 -0.955176 57.888271
2.120000 4.160000 -8.040000 -12.183022 1.126379 149.694733
2.120000 4.160000 -8.000000 -15.594013 -5.226240 270.486847
2.120000 4.160000 -7.960000 -8.571390 -14.654200 288.214294
2.120000 4.160000 -7.920000 8.530426 -14.828727 292.659302
2.120000 4.160000 -7.880000 23.703217 1.202872 563.289368
2.120000 4.160000 -7.840000 23.492651 26.953972 1278.421265
2.120000 4.160000 -7.800000 5.168737 47.436745 2276.960449
2.120000 4.200000 -8.200000 -22.812984 -13.224186 695.311340
2.120000 4.200000 -8.160000 -14.402395 -24.584778 811.840332
2.120000 4.200000 -8.120000 0.845628 -25.393423 645.541016
2.120000 4.200000 -8.080000 11.409055 -15.227998 362.058472
2.120000 4.200000 -8.040000 11.838152 -3.189329 150.313660
2.120000 4.200000 -8.000000 7.237604 2.793390 60.185944
2.120000 4.200000 -7.960000 5.835320 4.270034 52.284142
2.120000 4.200000 -7.920000 8.705212 9.177168 160.001129
2.120000 4.200000 -7.880000 8.255648 21.445057 528.046204
2.120000 4.200000 -7.840000 -3.172857 35.269226 1253.985352
2.120000 4.200000 -7.800000 -24.480175 40.164200 2212.441895
2.160000 3.800000 -8.200000 -14.156652 -16.120687 460.287354
2.160000 3.800000 -8.160000 7.058602 -23.285950 592.059326
2.160000 3.800000 -8.120000 31.364170 -11.962219 1126.805908
2.160000 3.800000 -8.080000 42.184231 16.170347 2040.989380
2.160000 3.800000 -8.040000 29.603893 45.605827 2956.282227
2.160000 3.800000 -8.000000 -0.117379 57.962646 3359.682129
2.160000 3.800000 -7.960000 -28.553448 46.623707 2989.069336
2.160000 3.800000 -7.920000 -39.714432 21.594599 2043.562744
2.160000 3.800000 -7.880000 -31.954033 0.111435 1021.072632
2.160000 3.800000 -7.840000 -16.556137 -7.829301 335.403625
2.160000 3.800000 -7.800000 -5.467041 -5.383288 58.868324
2.160000 3.840000 -8.200000 0.717839 -17.785467 316.838135
2.160000 3.840000 -8.160000 16.436087 -14.348783 476.032532
2.160000 3.840000 -8.120000 29.081608 1.809630 849.014709
2.160000 3.840000 -8.080000 27.812332 25.575768 1427.645752
2.160000 3.840000 -8.040000 9.684330 43.657337 1999.749390
2.160000 3.840000 -8.000000 -16.124231 44.669899 2255.390625
2.160000 3.840000 -7.960000 -34.720009 28.546246 2020.367188
2.160000 3.840000 -7.920000 -36.936314 6.382843 1405.031982
2.160000 3.840000 -7.880000 -25.312035 -8.911640 720.116455
2.160000 3.840000 -7.840000 -9.796484 -12.068477 241.619232
2.160000 3.840000 -7.800000 1.513204 -6.628907 46.232193
2.160000 3.880000 -8.200000 8.996462 -8.288282 149.631958
2.160000 3.880000 -8.160000 14.628693 -3.765289 228.176041
2.160000 3.880000 -8.120000 18.226273 6.568896 375.347412
2.160000 3.880000 -8.080000 14.027761 19.792650 588.527100
2.160000 3.880000 -8.040000 0.960491 28.468670 811.387695
2.160000 3.880000 -8.000000 -15.254894 26.601442 940.348511
2.160000 3.880000 -7.960000 -25.973818 14.731798 891.665100
2.160000 3.880000 -7.920000 -25.866442 -0.356361 669.199829
2.160000 3.880000 -7.880000 -16.151390 -10.527437 371.694336
2.160000 3.880000 -7.840000 -2.845991 -11.275440 135.235214
2.160000 3.880000 -7.800000 7.426004 -3.177316 65.240868
2.160000 3.920000 -8.200000 6.524607 1.238226 44.103695
2.160000 3.920000 -8.160000 7.645483 -0.957024 59.369312
2.160000 3.920000 -8.120000 11.825034 1.021078 140.874039
2.160000 3.920000 -8.080000 13.593906 8.410490 255.530640
2.160000 3.920000 -8.040000 8.520620 17.125956 365.899292
2.160000 3.920000 -8.000000 -2.660138 20.628162 432.597412
2.160000 3.920000 -7.960000 -13.830256 15.171803 421.459564
2.160000 3.920000 -7.920000 -17.636061 3.366469 322.363739
2.160000 3.920000 -7.880000 -11.204638 -6.895878 173.097046
2.160000 3.920000 -7.840000 1.008697 -7.856731 62.745697
2.160000 3.920000 -7.800000 9.705242 2.213388 99.090813
2.160000 3.960000 -8.200000 0.035770 3.486940 12.160033
2.160000 3.960000 -8.160000 5.141588 -3.992294 42.374344
2.160000 3.960000 -8.120000 15.633018 -3.567444 257.117920
2.160000 3.960000 -8.080000 22.869694 7.002163 572.053162
2.160000 3.960000 -8.040000 19.042574 21.688910 833.028442
2.160000 3.960000 -8.000000 4.207852 29.743860 902.403198
2.160000 3.960000 -7.960000 -12.376135 24.274696 742.429565
2.160000 3.960000 -7.920000 -19.032455 8.817595 439.984375
2.160000 3.960000 -7.880000 -11.604767 -4.615633 155.974670
2.160000 3.960000 -7.840000 2.298748 -5.372840 34.151653
2.160000 3.960000 -7.800000 9.307331 6.413381 127.757874
2.160000 4.000000 -8.200000 -2.881205 1.168048 9.665678
2.160000 4.000000 -8.160000 8.039112 -3.920753 79.999626
2.160000 4.000000 -8.120000 21.034111 2.113694 446.901550
2.160000 4.000000 -8.080000 25.801140 18.424490 1005.160645
2.160000 4.000000 -8.040000 15.694333 35.100777 1478.376709
2.160000 4.000000 -8.000000 -5.093361 39.499084 1586.120117
2.160000 4.000000 -7.960000 -22.902798 26.970959 1251.970703
2.160000 4.000000 -7.920000 -25.277802 6.173255 677.076294
2.160000 4.000000 -7.880000 -11.988576 -7.337214 197.560654
2.160000 4.000000 -7.840000 4.245943 -4.487316 38.164040
2.160000 4.000000 -7.800000 8.997181 9.235540 166.244476
2.160000 4.040000 -8.200000 -2.612267 0.850893 7.547957
2.160000 4.040000 -8.160000 7.902201 2.452499 68.459534
2.160000 4.040000 -8.120000 15.635078 12.975482 412.818787
2.160000 4.040000 -8.080000 12.913759 28.486221 978.229980
2.160000 4.040000 -8.040000 -2.346665 38.559830 1492.367310
2.160000 4.040000 -8.000000 -22.008057 33.849747 1630.159912
2.160000 4.040000 -7.960000 -32.292480 15.329108 1277.785889
2.160000 4.040000 -7.920000 -25.287308 -4.494280 659.646484
2.160000 4.040000 -7.880000 -6.717305 -11.429672 175.759598
2.160000 4.040000 -7.840000 8.468768 -2.066820 75.991776
2.160000 4.040000 -7.800000 9.426573 13.332546 266.617065
2.160000 4.080000 -8.200000 -5.171674 3.175251 36.828426
2.160000 4.080000 -8.160000 -1.394230 7.196438 53.732597
2.160000 4.080000 -8.120000 -0.638763 14.316916 205.382095
2.160000 4.080000 -8.080000 -6.337925 21.633438 508.174927
2.160000 4.080000 -8.040000 -17.839157 22.639948 830.802795
2.160000 4.080000 -8.000000 -27.804209 13.219341 947.825012
2.160000 4.080000 -7.960000 -27.159109 -2.306081 742.935181
2.160000 4.080000 -7.920000 -13.970481 -12.774817 358.370270
2.160000 4.080000 -7.880000 3.175619 -9.567097 101.613899
2.160000 4.080000 -7.840000 11.981694 5.173876 170.329987
2.160000 4.080000 -7.800000 7.385351 20.312185 467.128296
2.160000 4.120000 -8.200000 -12.520788 1.646812 159.482132
2.160000 4.120000 -8.160000 -13.914342 0.243297 193.668106
2.160000 4.120000 -8.120000 -13.066129 -0.957007 171.639587
2.160000 4.120000 -8.080000 -12.534496 -0.611346 157.487350
2.160000 4.120000 -8.040000 -13.750491 -1.235250 190.601852
2.160000 4.120000 -8.000000 -13.821717 -5.124236 217.297668
2.160000 4.120000 -7.960000 -8.567335 -9.683483 167.169067
2.160000 4.120000 -7.920000 1.506659 -8.693958 77.854927
2.160000 4.120000 -7.880000 9.784685 1.165537 97.098541
2.160000 4.120000 -7.840000 9.167479 15.845193 335.112793
2.160000 4.120000 -7.800000 -1.096424 26.991615 729.749451
2.160000 4.160000 -8.200000 -17.883488 -8.609428 393.941376
2.160000 4.160000 -8.160000 -16.136084 -17.385139 562.616272
2.160000 4.160000 -8.120000 -7.196550 -22.216812 545.377075
2.160000 4.160000 -8.080000 2.691462 -19.420990 384.418823
2.160000 4.160000 -8.040000 8.042248 -12.000946 208.700455
2.160000 4.160000 -8.000000 8.849899 -4.930758 102.633087
2.160000 4.160000 -7.960000 8.480309 0.443491 72.112320
2.160000 4.160000 -7.920000 8.256779 6.524989 110.749870
2.160000 4.160000 -7.880000 5.613150 14.887500 253.145096
2.160000 4.160000 -7.840000 -2.455810 23.060020 537.795532
2.160000 4.160000 -7.800000 -15.274879 26.526688 936.987122
2.160000 4.200000 -8.200000 -12.339471 -22.769875 670.729736
2.160000 4.200000 -8.160000 -1.605422 -31.838604 1016.274109
2.160000 4.200000 -8.120000 14.756149 -30.353601 1139.085083
2.160000 4.200000 -8.080000 26.674332 -17.639299 1022.664856
2.160000 4.200000 -8.040000 28.080223 -0.803361 789.144287
2.160000 4.200000 -8.000000 20.644127 12.267997 576.683716
2.160000 4.200000 -7.960000 10.089208 18.811539 455.666107
2.160000 4.200000 -7.920000 0.310900 20.910362 437.339905
2.160000 4.200000 -7.880000 -8.631545 21.099180 519.678955
2.160000 4.200000 -7.840000 -18.009842 19.454708 702.840088
2.160000 4.200000 -7.800000 -27.590937 14.550107 972.965393
2.200000 3.800000 -8.200000 -9.119307 -4.229048 101.046600
2.200000 3.800000 -8.160000 0.498757 -2.065389 4.514589
2.200000 3.800000 -8.120000 8.375528 8.067114 135.227798
2.200000 3.800000 -8.080000 7.271333 24.113586 634.337280
2.200000 3.800000 -8.040000 -6.747542 37.343365 1440.056152
2.200000 3.800000 -8.000000 -28.743141 37.531593 2234.788574
2.200000 3.800000 -7.960000 -46.412327 21.578470 2619.734375
2.200000 3.800000 -7.920000 -48.919380 -2.611998 2399.928223
2.200000 3.800000 -7.880000 -35.467377 -21.644886 1726.435913
2.200000 3.800000 -7.840000 -15.400425 -26.988861 965.571716
2.200000 3.800000 -7.800000 0.286875 -20.495869 420.162933
2.200000 3.840000 -8.200000 -4.599475 -9.383513 109.205490
2.200000 3.840000 -8.160000 2.065459 -4.106050 21.125771
2.200000 3.840000 -8.120000 4.203675 7.342856 71.588417
2.200000 3.840000 -8.080000 -3.651766 19.727432 402.506958
2.200000 3.840000 -8.040000 -20.463213 23.897205 989.819458
2.200000 3.840000 -8.000000 -37.264263 14.252763 1591.766602
2.200000 3.840000 -7.960000 -43.175552 -5.489606 1894.264038
2.200000 3.840000 -7.920000 -33.987457 -24.231045 1742.290771
2.200000 3.840000 -7.880000 -15.382295 -31.818878 1249.055908
2.200000 3.840000 -7.840000 2.077458 -26.219276 691.766296
2.200000 3.840000 -7.800000 11.195086 -13.264858 301.286438
2.200000 3.880000 -8.200000 1.406190 -11.315535 130.018692
2.200000 3.880000 -8.160000 4.726414 -5.463121 52.184685
2.200000 3.880000 -8.120000 2.013605 3.156652 14.019058
2.200000 3.880000 -8.080000 -7.864716 7.992506 125.733902
2.200000 3.880000 -8.040000 -19.647530 3.701297 399.725006
2.200000 3.880000 -8.000000 -25.289244 -8.707273 715.362427
2.200000 3.880000 -7.960000 -20.368731 -22.105532 903.539734
2.200000 3.880000 -7.920000 -7.437084 -28.601299 873.344543
2.200000 3.880000 -7.880000 6.376150 -25.060234 668.670593
2.200000 3.880000 -7.840000 14.708544 -14.152033 416.621277
2.200000 3.880000 -7.800000 15.305838 -1.098813 235.476044
2.200000 3.920000 -8.200000 7.999854 -9.930381 162.610138
2.200000 3.920000 -8.160000 9.125401 -4.549093 103.967201
2.200000 3.920000 -8.120000 4.701075 -0.259637 22.167519
2.200000 3.920000 -8.080000 -1.824627 -1.579536 5.824199
2.200000 3.920000 -8.040000 -4.760762 -7.973066 86.234642
2.200000 3.920000 -8.000000 -1.446953 -14.549118 213.770508
2.200000 3.920000 -7.960000 5.898870 -16.618946 310.986023
2.200000 3.920000 -7.920000 12.883726 -13.140266 338.656982
2.200000 3.920000 -7.880000 16.544956 -6.088013 310.799469
2.200000 3.920000 -7.840000 16.128681 2.240046 265.152161
2.200000 3.920000 -7.800000 11.411135 10.315346 236.620346
2.200000 3.960000 -8.200000 13.421866 -4.164252 197.487503
2.200000 3.960000 -8.160000 12.609804 1.126178 160.275436
2.200000 3.960000 -8.120000 8.544902 2.092501 77.393906
2.200000 3.960000 -8.080000 7.038814 -1.258009 51.127480
2.200000 3.960000 -8.040000 10.424171 -3.923666 124.058510
2.200000 3.960000 -8.000000 15.379104 -1.863879 239.990875
2.200000 3.960000 -7.960000 17.193903 3.853819 310.482239
2.200000 3.960000 -7.920000 14.854559 9.134470 304.096466
2.200000 3.960000 -7.880000 11.010731 11.950785 264.057434
2.200000 3.960000 -7.840000 7.467130 13.864897 247.993393
2.200000 3.960000 -7.800000 2.492519 16.267643 270.848846
2.200000 4.000000 -8.200000 13.757563 5.234356 216.669006
2.200000 4.000000 -8.160000 9.818151 9.914434 194.692108
2.200000 4.000000 -8.120000 6.254741 8.335824 108.607750
2.200000 4.000000 -8.080000 8.185743 5.347261 95.599594
2.200000 4.000000 -8.040000 13.222646 7.251311 227.419876
2.200000 4.000000 -8.000000 14.771448 14.318838 423.224792
2.200000 4.000000 -7.960000 9.895568 20.808472 530.914734
2.200000 4.000000 -7.920000 2.331821 21.847954 482.770477
2.200000 4.000000 -7.880000 -2.515735 18.705114 356.210236
2.200000 4.000000 -7.840000 -4.052565 16.167475 277.810516
2.200000 4.000000 -7.800000 -6.351748 15.715300 287.315338
2.200000 4.040000 -8.200000 6.215302 13.133508 211.119003
2.200000 4.040000 -8.160000 -1.204471 14.503922 211.814484
2.200000 4.040000 -8.120000 -3.811893 9.577211 106.253502
2.200000 4.040000 -8.080000 0.551357 6.634562 44.321411
2.200000 4.040000 -8.040000 5.611132 10.783504 147.768768
2.200000 4.040000 -8.000000 4.411465 18.601374 365.472137
2.200000 4.040000 -7.960000 -2.942464 22.663002 522.269714
2.200000 4.040000 -7.920000 -10.162518 20.023636 504.222748
2.200000 4.040000 -7.880000 -12.412243 14.685488 369.727295
2.200000 4.040000 -7.840000 -11.281596 11.831372 267.255798
2.200000 4.040000 -7.800000 -11.389549 11.505335 262.094543
2.200000 4.080000 -8.200000 -6.139964 12.658644 197.940414
2.200000 4.080000 -8.160000 -14.184750 7.844779 262.747681
2.200000 4.080000 -8.120000 -13.189171 -0.789102 174.576904
2.200000 4.080000 -8.080000 -5.000657 -3.558297 37.668045
2.200000 4.080000 -8.040000 1.582473 2.334471 7.953974
2.200000 4.080000 -8.000000 0.417474 10.966662 120.441971
2.200000 4.080000 -7.960000 -6.430895 14.912681 263.744446
2.200000 4.080000 -7.920000 -12.361581 12.720517 314.620239
2.200000 4.080000 -7.880000 -13.778502 8.802204 267.325928
2.200000 4.080000 -7.840000 -12.722389 7.258816 214.549591
2.200000 4.080000 -7.800000 -12.679521 7.694849 219.980957
2.200000 4.120000 -8.200000 -14.550321 1.839922 215.097153
2.200000 4.120000 -8.160000 -18.068321 -8.637944 401.078308
2.200000 4.120000 -8.120000 -10.310636 -18.033035 431.499573
2.200000 4.120000 -8.080000 2.766783 -17.424097 311.254242
2.200000 4.120000 -8.040000 10.959390 -6.980887 168.841003
2.200000 4.120000 -8.000000 9.205484 5.382292 113.710007
2.200000 4.120000 -7.960000 0.797304 12.048175 145.794220
2.200000 4.120000 -7.920000 -7.404455 11.725790 192.320114
2.200000 4.120000 -7.880000 -11.535236 8.407125 203.741425
2.200000 4.120000 -7.840000 -12.548903 6.144786 195.233353
2.200000 4.120000 -7.800000 -13.234777 5.907270 210.055176
2.200000 4.160000 -8.200000 -11.354791 -12.673346 289.544983
2.200000 4.160000 -8.160000 -7.036991 -23.771622 614.609253
2.200000 4.160000 -8.120000 7.095403 -28.234659 847.540710
2.200000 4.160000 -8.080000 22.002970 -20.076420 887.193298
2.200000 4.160000 -8.040000 27.598923 -2.991625 770.650391
2.200000 4.160000 -8.000000 20.782234 13.254126 607.573120
2.200000 4.160000 -7.960000 6.709902 20.817186 478.378052
2.200000 4.160000 -7.920000 -6.414721 18.800596 394.611084
2.200000 4.160000 -7.880000 -13.569691 12.038128 329.053040
2.200000 4.160000 -7.840000 -15.222968 6.244437 270.731750
2.200000 4.160000 -7.800000 -15.322836 4.044283 251.145538
2.200000 4.200000 -8.200000 2.540843 -19.922485 403.361298
2.200000 4.200000 -8.160000 12.646598 -25.404972 805.348999
2.200000 4.200000 -8.120000 27.615852 -21.084227 1207.179932
2.200000 4.200000 -8.080000 37.745575 -5.272520 1452.527832
2.200000 4.200000 -8.040000 35.306221 15.293014 1480.405518
2.200000 4.200000 -8.000000 20.346098 30.300751 1332.099243
2.200000 4.200000 -7.960000 0.361101 33.080208 1094.430542
2.200000 4.200000 -7.920000 -15.259034 24.620483 839.006348
2.200000 4.200000 -7.880000 -21.453032 11.905052 601.962830
2.200000 4.200000 -7.840000 -20.045809 2.451852 407.846008
2.200000 4.200000 -7.800000 -17.348770 -0.942258 301.867676
