#kx 	ky 	kz 	real 	imag 	intensity
5.800000 5.800000 1.800000 -10.334574 -20.103901 510.970245
5.800000 5.800000 1.840000 -4.284402 -17.033424 308.493652
5.800000 5.800000 1.880000 -4.785645 -13.833794 214.276245
5.800000 5.800000 1.920000 -7.104939 -16.775208 331.887756
5.800000 5.800000 1.960000 -3.166101 -23.960707 584.139648
5.800000 5.800000 2.000000 9.003568 -26.547846 785.852356
5.800000 5.800000 2.040000 22.004463 -17.983902 807.617126
5.800000 5.800000 2.080000 25.825745 -1.334875 668.750977
5.800000 5.800000 2.120000 17.553370 13.291525 484.785400
5.800000 5.800000 2.160000 3.593765 18.338032 349.198578
5.800000 5.800000 2.200000 -7.537716 14.918020 279.364502
5.800000 5.840000 1.800000 0.202815 -28.102505 789.791931
5.800000 5.840000 1.840000 4.694506 -23.257347 562.942566
5.800000 5.840000 1.880000 4.938703 -21.928719 505.259460
5.800000 5.840000 1.920000 8.103796 -24.476820 664.786255
5.800000 5.840000 1.960000 16.788815 -24.186604 866.856079
5.800000 5.840000 2.000000 25.279730 -15.817106 889.245605
5.800000 5.840000 2.040000 25.802011 -2.549188 672.242126
5.800000 5.840000 2.080000 17.515617 6.925644 354.761383
5.800000 5.840000 2.120000 7.572817 7.858449 119.102768
5.800000 5.840000 2.160000 2.882005 4.298840 26.785973
5.800000 5.840000 2.200000 2.301230 3.491497 17.486212
5.800000 5.880000 1.800000 14.427811 -28.961483 1046.929199
5.800000 5.880000 1.840000 18.045460 -23.489521 877.396179
5.800000 5.880000 1.880000 20.890118 -21.370838 893.109741
5.800000 5.880000 1.920000 26.710052 -18.293119 1048.065063
5.800000 5.880000 1.960000 31.703093 -9.765463 1100.450317
5.800000 5.880000 2.000000 29.623058 1.364493 879.387390
5.800000 5.880000 2.040000 20.825352 7.161105 484.976715
5.800000 5.880000 2.080000 13.487204 4.360611 200.919586
5.800000 5.880000 2.120000 14.442591 -0.460423 208.800415
5.800000 5.880000 2.160000 20.159443 2.306440 411.722809
5.800000 5.880000 2.200000 19.355186 13.378990 553.620605
5.800000 5.920000 1.800000 28.016615 -20.911913 1222.238770
5.800000 5.920000 1.840000 30.717514 -13.834744 1134.965820
5.800000 5.920000 1.880000 33.506233 -8.069274 1187.780884
5.800000 5.920000 1.920000 35.482113 0.239497 1259.037720
5.800000 5.920000 1.960000 31.983294 9.745089 1117.897827
5.800000 5.920000 2.000000 23.191227 13.820043 728.826599
5.800000 5.920000 2.040000 16.992481 9.460088 378.237671
5.800000 5.920000 2.080000 20.695257 3.753667 442.383698
5.800000 5.920000 2.120000 30.616787 8.108873 1003.141479
5.800000 5.920000 2.160000 32.996803 24.870964 1707.354004
5.800000 5.920000 2.200000 17.749117 41.561798 2042.414185
5.800000 5.960000 1.800000 35.150692 -4.603622 1256.764526
5.800000 5.960000 1.840000 34.240093 4.162451 1189.710083
5.800000 5.960000 1.880000 32.363861 11.586178 1181.659058
5.800000 5.960000 1.920000 27.758566 18.467970 1111.603882
5.800000 5.960000 1.960000 20.114861 21.129787 851.075562
5.800000 5.960000 2.000000 15.059597 17.152493 520.999451
5.800000 5.960000 2.040000 19.037689 12.193027 511.103546
5.800000 5.960000 2.080000 29.477051 17.055470 1159.785645
5.800000 5.960000 2.120000 33.149231 35.597534 2366.055908
5.800000 5.960000 2.160000 17.846901 56.716923 3535.321289
5.800000 5.960000 2.200000 -13.360128 61.601543 3973.243164
5.800000 6.000000 1.800000 30.285156 14.815289 1136.683472
5.800000 6.000000 1.840000 23.235207 21.327406 994.733032
5.800000 6.000000 1.880000 16.379204 23.985962 843.604675
5.800000 6.000000 1.920000 10.425348 23.309572 652.024048
5.800000 6.000000 1.960000 8.003885 19.418442 441.138062
5.800000 6.000000 2.000000 12.378794 16.532415 426.555298
5.800000 6.000000 2.040000 21.041803 22.436054 946.134033
5.800000 6.000000 2.080000 23.255713 40.225922 2158.952881
5.800000 6.000000 2.120000 7.964687 60.884140 3770.314697
5.800000 6.000000 2.160000 -23.755346 67.231476 5084.387695
5.800000 6.000000 2.200000 -55.347351 48.544037 5419.852539
5.800000 6.040000 1.800000 12.555490 27.996021 941.417542
5.800000 6.040000 1.840000 1.789458 26.063242 682.494751
5.800000 6.040000 1.880000 -3.426434 19.566559 394.590668
5.800000 6.040000 1.920000 -1.837431 13.067699 174.140930
5.800000 6.040000 1.960000 5.479466 11.586420 164.269684
5.800000 6.040000 2.000000 13.527613 19.645836 568.955200
5.800000 6.040000 2.040000 13.262033 37.010960 1545.692627
5.800000 6.040000 2.080000 -2.977442 54.858269 3018.294922
5.800000 6.040000 2.120000 -33.163513 58.964073 4576.580566
5.800000 6.040000 2.160000 -63.107613 40.383533 5613.400391
5.800000 6.040000 2.200000 -75.043579 4.749064 5654.092285
5.800000 6.080000 1.800000 -11.020502 26.452923 821.208618
5.800000 6.080000 1.840000 -17.478024 13.674788 492.481110
5.800000 6.080000 1.880000 -12.409471 1.589233 156.520630
5.800000 6.080000 1.920000 0.326118 -1.335904 1.890992
5.800000 6.080000 1.960000 11.588451 8.694793 209.891632
5.800000 6.080000 2.000000 11.125733 27.717648 892.049927
5.800000 6.080000 2.040000 -6.137218 44.391544 2008.274658
5.800000 6.080000 2.080000 -35.052742 45.709652 3318.066895
5.800000 6.080000 2.120000 -61.272594 25.877445 4423.973145
5.800000 6.080000 2.160000 -69.750122 -8.094803 4930.605469
5.800000 6.080000 2.200000 -55.270866 -39.822830 4640.726562
5.800000 6.120000 1.800000 -28.254719 9.417214 887.013062
5.800000 6.120000 1.840000 -22.398884 -8.790308 578.979492
5.800000 6.120000 1.880000 -4.557459 -16.363659 288.539734
5.800000 6.120000 1.920000 13.192184 -6.791933 220.164093
5.800000 6.120000 1.960000 17.021458 14.939873 512.929810
5.800000 6.120000 2.000000 1.061803 34.246677 1173.962402
5.800000 6.120000 2.040000 -27.305737 36.223320 2057.732178
5.800000 6.120000 2.080000 -51.404167 16.243076 2906.226074
5.800000 6.120000 2.120000 -56.383003 -16.197645 3441.406738
5.800000 6.120000 2.160000 -39.425350 -43.889538 3480.649902
5.800000 6.120000 2.200000 -10.995964 -53.814713 3016.934326
5.800000 6.160000 1.800000 -30.016050 -14.093233 1099.582520
5.800000 6.160000 1.840000 -10.799020 -27.477894 871.653503
5.800000 6.160000 1.880000 13.061852 -21.985794 653.987122
5.800000 6.160000 1.920000 24.695278 0.460316 610.068665
5.800000 6.160000 1.960000 14.226521 24.602621 807.682861
5.800000 6.160000 2.000000 -12.496819 32.255775 1196.605469
5.800000 6.160000 2.040000 -37.170532 16.228535 1645.013794
5.800000 6.160000 2.080000 -42.530216 -13.803880 1999.366455
5.800000 6.160000 2.120000 -25.189268 -38.730797 2134.573730
5.800000 6.160000 2.160000 2.808855 -44.536301 1991.371704
5.800000 6.160000 2.200000 24.450647 -31.667538 1600.667114
5.800000 6.200000 1.800000 -17.251488 -31.327497 1279.025879
5.800000 6.200000 1.840000 8.267742 -32.568012 1129.031006
5.800000 6.200000 1.880000 27.460785 -13.925077 948.002502
5.800000 6.200000 1.920000 26.074245 13.065274 850.567627
5.800000 6.200000 1.960000 4.473975 28.969732 859.261841
5.800000 6.200000 2.000000 -21.176279 21.799919 923.671265
5.800000 6.200000 2.040000 -31.303854 -2.829081 987.934998
5.800000 6.200000 2.080000 -18.601040 -26.132463 1028.904297
5.800000 6.200000 2.120000 6.688910 -31.515305 1037.955933
5.800000 6.200000 2.160000 26.258150 -17.299742 988.771484
5.800000 6.200000 2.200000 28.806137 3.977660 845.615295
5.840000 5.800000 1.800000 1.918310 -5.731005 36.524326
5.840000 5.800000 1.840000 -2.114594 -5.603461 35.870285
5.840000 5.800000 1.880000 -4.704406 -11.744239 160.058578
5.840000 5.800000 1.920000 0.347373 -20.183674 407.501343
5.840000 5.800000 1.960000 12.810917 -22.632406 676.345459
5.840000 5.800000 2.000000 24.977818 -14.391499 831.006592
5.840000 5.800000 2.040000 28.306255 0.678959 801.705078
5.840000 5.800000 2.080000 21.090517 13.561155 628.714844
5.840000 5.800000 2.120000 9.196962 18.275036 418.561035
5.840000 5.800000 2.160000 -0.550305 16.171425 261.817810
5.840000 5.800000 2.200000 -6.652889 12.094561 190.539322
5.840000 5.840000 1.800000 6.092592 -9.207130 121.890930
5.840000 5.840000 1.840000 8.133802 -10.979849 186.715820
5.840000 5.840000 1.880000 14.171047 -11.819162 340.511169
5.840000 5.840000 1.920000 21.762873 -6.794700 519.790588
5.840000 5.840000 1.960000 24.253712 4.105090 605.094299
5.840000 5.840000 2.000000 17.864832 14.196101 520.681519
5.840000 5.840000 2.040000 6.818747 16.236933 310.133301
5.840000 5.840000 2.080000 -0.122885 10.294825 105.998512
5.840000 5.840000 2.120000 1.137262 4.256555 19.411623
5.840000 5.840000 2.160000 5.183188 5.303181 54.989162
5.840000 5.840000 2.200000 2.870134 11.262465 135.080780
5.840000 5.880000 1.800000 13.523213 -9.445206 272.089233
5.840000 5.880000 1.840000 21.841309 -5.616910 508.592438
5.840000 5.880000 1.880000 28.000200 5.984946 819.830811
5.840000 5.880000 1.920000 23.748175 21.917768 1044.364380
5.840000 5.880000 1.960000 7.324650 30.926865 1010.121460
5.840000 5.880000 2.000000 -11.125530 23.980900 698.860962
5.840000 5.880000 2.040000 -16.735598 5.139008 306.489624
5.840000 5.880000 2.080000 -4.441681 -9.501965 110.015862
5.840000 5.880000 2.120000 14.109980 -6.225449 237.847733
5.840000 5.880000 2.160000 20.230299 12.124683 556.272949
5.840000 5.880000 2.200000 6.353937 27.376762 789.859619
5.840000 5.920000 1.800000 21.124166 -3.009504 455.287537
5.840000 5.920000 1.840000 27.760181 11.204523 896.169006
5.840000 5.920000 1.880000 21.711315 31.002199 1432.517578
5.840000 5.920000 1.920000 -0.425411 42.418186 1799.483521
5.840000 5.920000 1.960000 -26.488014 32.288277 1744.147705
5.840000 5.920000 2.000000 -35.618740 3.796586 1283.108765
5.840000 5.920000 2.040000 -17.562801 -21.583368 774.293823
5.840000 5.920000 2.080000 14.548703 -21.453850 671.932434
5.840000 5.920000 2.120000 33.183105 5.868773 1135.561035
5.840000 5.920000 2.160000 21.022194 37.540302 1851.206909
5.840000 5.920000 2.200000 -12.214865 45.989952 2264.278564
5.840000 5.960000 1.800000 22.347601 9.751776 594.512390
5.840000 5.960000 1.840000 17.484653 29.265623 1162.189819
5.840000 5.960000 1.880000 -4.245970 42.849442 1854.102783
5.840000 5.960000 1.920000 -33.545670 34.897484 2343.146240
5.840000 5.960000 1.960000 -48.022751 4.033746 2322.455566
5.840000 5.960000 2.000000 -31.447830 -29.063686 1833.663818
5.840000 5.960000 2.040000 7.443183 -36.106422 1359.074707
5.840000 5.960000 2.080000 37.873001 -7.357483 1488.496826
5.840000 5.960000 2.120000 32.779083 36.225426 2386.749756
5.840000 5.960000 2.160000 -5.899479 59.315819 3553.170410
5.840000 5.960000 2.200000 -47.704407 43.353725 4155.255859
5.840000 6.000000 1.800000 12.279466 21.922138 631.365417
5.840000 6.000000 1.840000 -5.373019 34.121292 1193.131958
5.840000 6.000000 1.880000 -31.716328 29.476212 1874.772461
5.840000 6.000000 1.920000 -48.504692 2.839438 2360.767578
5.840000 6.000000 1.960000 -37.517429 -30.977226 2367.145996
5.840000 6.000000 2.000000 -0.652927 -44.412853 1972.927856
5.840000 6.000000 2.040000 35.381935 -21.220785 1702.203125
5.840000 6.000000 2.080000 39.161137 25.015757 2159.382812
5.840000 6.000000 2.120000 3.119388 58.702423 3455.704834
5.840000 6.000000 2.160000 -47.310936 52.167397 4959.761719
5.840000 6.000000 2.200000 -74.718918 10.149755 5685.934082
5.840000 6.040000 1.800000 -6.224165 23.632090 597.215881
5.840000 6.040000 1.840000 -25.972164 19.465998 1053.478394
5.840000 6.040000 1.880000 -39.690269 -1.004852 1576.327271
5.840000 6.040000 1.920000 -32.881203 -29.086662 1927.207397
5.840000 6.040000 1.960000 -3.401645 -43.732368 1924.091187
5.840000 6.040000 2.000000 30.089464 -28.056084 1692.519775
5.840000 6.040000 2.040000 39.425644 12.145232 1701.888062
5.840000 6.040000 2.080000 11.368562 48.011230 2434.322510
5.840000 6.040000 2.120000 -37.606834 49.860161 3900.309570
5.840000 6.040000 2.160000 -72.643387 13.187057 5450.959961
5.840000 6.040000 2.200000 -69.407471 -36.562042 6154.179688
5.840000 6.080000 1.800000 -22.276302 10.423473 604.882446
5.840000 6.080000 1.840000 -29.706369 -6.404515 923.486206
5.840000 6.080000 1.880000 -22.547718 -26.826656 1228.069092
5.840000 6.080000 1.920000 0.157813 -37.244316 1387.163940
5.840000 6.080000 1.960000 26.178598 -25.747509 1348.253174
5.840000 6.080000 2.000000 35.225483 5.211308 1267.992310
5.840000 6.080000 2.040000 15.022066 35.531944 1488.181519
5.840000 6.080000 2.080000 -25.227201 40.699272 2292.842529
5.840000 6.080000 2.120000 -58.687721 12.317189 3595.961670
5.840000 6.080000 2.160000 -61.386097 -32.987301 4856.415039
5.840000 6.080000 2.200000 -31.794113 -66.074631 5376.722656
5.840000 6.120000 1.800000 -24.704048 -11.415098 740.594482
5.840000 6.120000 1.840000 -14.271025 -26.795950 921.685059
5.840000 6.120000 1.880000 5.812208 -31.400105 1019.748291
5.840000 6.120000 1.920000 25.063612 -19.469715 1007.254395
5.840000 6.120000 1.960000 30.098438 4.914230 930.065674
5.840000 6.120000 2.000000 13.910367 27.218790 934.360840
5.840000 6.120000 2.040000 -16.490873 30.667934 1212.471191
5.840000 6.120000 2.080000 -42.203644 9.032712 1862.737427
5.840000 6.120000 2.120000 -45.163185 -26.725037 2753.940918
5.840000 6.120000 2.160000 -21.995173 -55.158859 3526.287354
5.840000 6.120000 2.200000 13.123346 -60.085381 3782.475098
5.840000 6.160000 1.800000 -11.509573 -28.712912 956.901550
5.840000 6.160000 1.840000 8.859468 -30.223354 991.941345
5.840000 6.160000 1.880000 25.393845 -16.411892 914.197510
5.840000 6.160000 1.920000 27.310045 5.791313 779.377869
5.840000 6.160000 1.960000 12.082010 23.018637 675.832642
5.840000 6.160000 2.000000 -11.874598 23.654016 700.518555
5.840000 6.160000 2.040000 -29.717567 5.809560 916.884766
5.840000 6.160000 2.080000 -29.644306 -20.691565 1306.925781
5.840000 6.160000 2.120000 -10.847088 -40.420937 1751.511475
5.840000 6.160000 2.160000 16.068989 -42.542381 2068.066650
5.840000 6.160000 2.200000 36.632385 -27.571859 2102.139160
5.840000 6.200000 1.800000 8.108932 -31.971519 1087.932861
5.840000 6.200000 1.840000 24.842239 -18.909212 974.695129
5.840000 6.200000 1.880000 27.408491 2.563948 757.799255
5.840000 6.200000 1.920000 13.800539 18.956585 549.807007
5.840000 6.200000 1.960000 -6.895794 19.778711 438.749390
5.840000 6.200000 2.000000 -20.822807 5.051243 459.104340
5.840000 6.200000 2.040000 -19.088043 -14.995917 589.230957
5.840000 6.200000 2.080000 -3.405778 -27.476574 766.561401
5.840000 6.200000 2.120000 16.141159 -25.566483 914.182007
5.840000 6.200000 2.160000 28.754660 -11.897254 968.375122
5.840000 6.200000 2.200000 29.650331 4.891567 903.069580
5.880000 5.800000 1.800000 -3.267042 15.041956 236.934006
5.880000 5.800000 1.840000 -11.626968 3.988415 151.093857
5.880000 5.800000 1.880000 -7.501011 -10.761986 172.085495
5.880000 5.800000 1.920000 7.607014 -17.158785 352.290558
5.880000 5.800000 1.960000 22.565670 -9.513204 599.710510
5.880000 5.800000 2.000000 26.567522 6.168324 743.881470
5.880000 5.800000 2.040000 18.752739 18.220337 683.645874
5.880000 5.800000 2.080000 7.644590 20.442842 476.349579
5.880000 5.800000 2.120000 1.385662 16.667170 279.714630
5.880000 5.800000 2.160000 -0.301147 14.272938 203.807434
5.880000 5.800000 2.200000 -3.605626 14.550085 224.705505
5.880000 5.840000 1.800000 -6.729551 7.423001 100.387810
5.880000 5.840000 1.840000 -0.075234 0.402361 0.167555
5.880000 5.840000 1.880000 10.565182 4.163042 128.953979
5.880000 5.840000 1.920000 12.856636 17.473167 470.604675
5.880000 5.840000 1.960000 1.477306 28.094666 791.492676
5.880000 5.840000 2.000000 -15.027225 24.629704 832.439819
5.880000 5.840000 2.040000 -21.756466 8.889748 552.371399
5.880000 5.840000 2.080000 -12.630913 -4.741840 182.025009
5.880000 5.840000 2.120000 2.530575 -3.532471 18.882158
5.880000 5.840000 2.160000 7.422540 10.011747 155.329178
5.880000 5.840000 2.200000 -3.687061 19.886497 409.067200
5.880000 5.880000 1.800000 -2.773976 1.049208 8.795778
5.880000 5.880000 1.840000 9.324780 10.935637 206.539658
5.880000 5.880000 1.880000 5.922138 32.574402 1096.163452
5.880000 5.880000 1.920000 -19.338678 45.461258 2440.710449
5.880000 5.880000 1.960000 -50.170784 31.433578 3505.177490
5.880000 5.880000 2.000000 -59.891865 -4.958244 3611.619629
5.880000 5.880000 2.040000 -36.915173 -36.861649 2721.511230
5.880000 5.880000 2.080000 1.862598 -38.586903 1492.418335
5.880000 5.880000 2.120000 24.906879 -10.167038 723.721313
5.880000 5.880000 2.160000 15.075100 21.792080 702.153381
5.880000 5.880000 2.200000 -14.469595 28.958591 1047.969238
5.880000 5.920000 1.800000 3.716496 1.995849 17.795750
5.880000 5.920000 1.840000 3.453556 27.503464 768.367554
5.880000 5.920000 1.880000 -25.784048 47.345673 2906.429932
5.880000 5.920000 1.920000 -68.629387 33.815556 5853.484375
5.880000 5.920000 1.960000 -88.819183 -15.145458 8118.231934
5.880000 5.920000 2.000000 -62.230415 -67.148514 8381.546875
5.880000 5.920000 2.040000 -3.154655 -81.098694 6586.949707
5.880000 5.920000 2.080000 44.551910 -45.019814 4011.656250
5.880000 5.920000 2.120000 45.720478 11.196697 2215.728027
5.880000 5.920000 2.160000 5.379625 42.204262 1810.140137
5.880000 5.920000 2.200000 -37.213203 27.930241 2164.920898
5.880000 5.960000 1.800000 4.403897 8.806322 96.945618
5.880000 5.960000 1.840000 -17.641415 33.014481 1401.175415
5.880000 5.960000 1.880000 -62.062618 28.565987 4667.784180
5.880000 5.960000 1.920000 -93.067413 -18.234661 8994.045898
5.880000 5.960000 1.960000 -74.965057 -81.415085 12248.175781
5.880000 5.960000 2.000000 -9.447872 -111.860115 12601.948242
5.880000 5.960000 2.040000 58.948776 -80.948616 10027.636719
5.880000 5.960000 2.080000 79.145920 -9.637141 6356.951172
5.880000 5.960000 2.120000 38.935455 47.574795 3779.330811
5.880000 5.960000 2.160000 -24.419029 50.384022 3134.838623
5.880000 5.960000 2.200000 -59.015045 6.761458 3528.492920
5.880000 6.000000 1.800000 -3.735532 12.734010 176.109192
5.880000 6.000000 1.840000 -38.267277 17.453274 1769.001221
5.880000 6.000000 1.880000 -72.020439 -15.506710 5427.401855
5.880000 6.000000 1.920000 -67.533089 -74.418335 10098.806641
5.880000 6.000000 1.960000 -12.051446 -115.578255 13503.570312
5.880000 6.000000 2.000000 62.254913 -99.476768 13771.302734
5.880000 6.000000 2.040000 100.440681 -29.971884 10986.643555
5.880000 6.000000 2.080000 72.507584 43.755066 7171.855469
5.880000 6.000000 2.120000 1.482602 68.080055 4637.092285
5.880000 6.000000 2.160000 -56.540871 31.194683 4169.978516
5.880000 6.000000 2.200000 -61.908546 -29.274763 4689.680176
5.880000 6.040000 1.800000 -14.039408 6.149301 234.918854
5.880000 6.040000 1.840000 -40.295898 -11.255882 1750.454346
5.880000 6.040000 1.880000 -44.723011 -53.690346 4882.800781
5.880000 6.040000 1.920000 -8.170708 -92.801483 8678.875977
5.880000 6.040000 1.960000 54.600006 -91.172142 11293.519531
5.880000 6.040000 2.000000 99.400299 -38.062592 11329.180664
5.880000 6.040000 2.040000 88.593941 34.214878 9019.543945
5.880000 6.040000 2.080000 26.484062 73.565033 6113.219727
5.880000 6.040000 2.120000 -41.363869 52.363403 4452.895508
5.880000 6.040000 2.160000 -66.553711 -8.835222 4507.457520
5.880000 6.040000 2.200000 -38.370621 -60.952415 5187.501465
5.880000 6.080000 1.800000 -15.663240 -9.067529 327.557190
5.880000 6.080000 1.840000 -19.826157 -33.080761 1487.413330
5.880000 6.080000 1.880000 0.426533 -59.295311 3516.115723
5.880000 6.080000 1.920000 41.991444 -63.141655 5750.149902
5.880000 6.080000 1.960000 78.713745 -30.300577 7113.978516
5.880000 6.080000 2.000000 79.414154 24.703836 6916.887695
5.880000 6.080000 2.040000 36.355804 64.527344 5485.522949
5.880000 6.080000 2.080000 -23.464161 58.590405 3983.402344
5.880000 6.080000 2.120000 -58.055428 10.244065 3475.373535
5.880000 6.080000 2.160000 -45.054115 -44.954090 4050.743652
5.880000 6.080000 2.200000 0.769359 -69.348869 4809.857422
5.880000 6.120000 1.800000 -4.080206 -22.090395 504.633636
5.880000 6.120000 1.840000 9.016230 -33.383236 1195.732788
5.880000 6.120000 1.880000 31.641573 -33.058434 2094.049072
5.880000 6.120000 1.920000 51.934776 -13.750316 2886.292236
5.880000 6.120000 1.960000 53.270615 19.149925 3204.478027
5.880000 6.120000 2.000000 27.990286 46.233051 2920.951172
5.880000 6.120000 2.040000 -12.228142 46.691971 2329.667480
5.880000 6.120000 2.080000 -41.535404 16.113821 1984.845093
5.880000 6.120000 2.120000 -39.154427 -27.115282 2268.307617
5.880000 6.120000 2.160000 -6.517154 -54.765640 3041.748779
5.880000 6.120000 2.200000 33.788521 -50.775593 3719.825195
5.880000 6.160000 1.800000 13.936628 -22.874996 717.495056
5.880000 6.160000 1.840000 26.947107 -15.267191 959.233704
5.880000 6.160000 1.880000 32.924141 0.184917 1084.033203
5.880000 6.160000 1.920000 27.587652 17.348106 1062.035400
5.880000 6.160000 1.960000 11.329694 28.017420 913.337769
5.880000 6.160000 2.000000 -9.570635 25.198969 726.585083
5.880000 6.160000 2.040000 -24.331791 7.664162 650.775452
5.880000 6.160000 2.080000 -23.134605 -17.134308 828.794434
5.880000 6.160000 2.120000 -4.194777 -35.690762 1291.426636
5.880000 6.160000 2.160000 23.349728 -36.695724 1891.785889
5.880000 6.160000 2.200000 44.582245 -19.190142 2355.838135
5.880000 6.200000 1.800000 26.335035 -11.520740 826.261475
5.880000 6.200000 1.840000 26.345631 4.886293 717.968079
5.880000 6.200000 1.880000 15.140356 16.288841 494.556732
5.880000 6.200000 1.920000 0.237951 16.659113 277.582642
5.880000 6.200000 1.960000 -9.919111 7.560260 155.546295
5.880000 6.200000 2.000000 -11.402342 -4.927958 154.298157
5.880000 6.200000 2.040000 -5.158281 -15.181416 257.083252
5.880000 6.200000 2.080000 5.875401 -20.134750 439.928528
5.880000 6.200000 2.120000 18.629349 -18.315638 682.515259
5.880000 6.200000 2.160000 29.441639 -9.152710 950.582214
5.880000 6.200000 2.200000 33.786957 5.727493 1174.362671
5.920000 5.800000 1.800000 -25.300276 25.529524 1291.860596
5.920000 5.800000 1.840000 -27.913435 2.735701 786.643921
5.920000 5.800000 1.880000 -12.302837 -13.523949 334.256989
5.920000 5.800000 1.920000 8.808250 -11.607012 212.307983
5.920000 5.800000 1.960000 19.038059 4.428368 382.058136
5.920000 5.800000 2.000000 13.327811 19.451012 555.972412
5.920000 5.800000 2.040000 1.252808 22.426220 504.504852
5.920000 5.800000 2.080000 -4.461945 16.303421 285.710480
5.920000 5.800000 2.120000 -1.552195 12.484135 158.262924
5.920000 5.800000 2.160000 0.871432 16.560389 275.005859
5.920000 5.800000 2.200000 -5.286575 21.637810 496.142700
5.920000 5.840000 1.800000 -30.035370 7.817600 963.238281
5.920000 5.840000 1.840000 -16.787710 1.486917 284.038147
5.920000 5.840000 1.880000 -8.032333 11.164417 189.162598
5.920000 5.840000 1.920000 -16.081505 23.593861 815.285095
5.920000 5.840000 1.960000 -34.674202 20.992599 1642.989502
5.920000 5.840000 2.000000 -44.149368 0.330528 1949.276001
5.920000 5.840000 2.040000 -31.601021 -21.764328 1472.310547
5.920000 5.840000 2.080000 -5.424652 -24.810766 645.000977
5.920000 5.840000 2.120000 11.633631 -5.584908 166.532562
5.920000 5.840000 2.160000 4.923007 17.529331 331.513458
5.920000 5.840000 2.200000 -16.954952 22.350204 787.002075
5.920000 5.880000 1.800000 -22.396467 -6.012326 537.749817
5.920000 5.880000 1.840000 -14.848364 11.862228 361.186371
5.920000 5.880000 1.880000 -35.160740 30.328114 2156.072021
5.920000 5.880000 1.920000 -71.636444 20.067070 5534.467773
5.920000 5.880000 1.960000 -89.606117 -23.912647 8601.071289
5.920000 5.880000 2.000000 -64.546135 -72.146103 9371.263672
5.920000 5.880000 2.040000 -8.748142 -85.541634 7393.900879
5.920000 5.880000 2.080000 36.813690 -52.379074 4098.815430
5.920000 5.880000 2.120000 39.383934 -0.611504 1551.468140
5.920000 5.880000 2.160000 4.305252 27.712536 786.519836
5.920000 5.880000 2.200000 -31.507816 15.159188 1222.543457
5.920000 5.920000 1.800000 -11.160748 -9.393257 212.795563
5.920000 5.920000 1.840000 -28.789501 17.857233 1147.716187
5.920000 5.920000 1.880000 -75.544052 14.618097 5920.592773
5.920000 5.920000 1.920000 -109.172981 -37.675499 13338.183594
5.920000 5.920000 1.960000 -87.133163 -109.532211 19589.494141
5.920000 5.920000 2.000000 -11.107853 -144.342834 20958.238281
5.920000 5.920000 2.040000 68.100380 -109.990143 16735.492188
5.920000 5.920000 2.080000 93.728813 -30.859381 9737.392578
5.920000 5.920000 2.120000 53.833996 32.721245 3968.778809
5.920000 5.920000 2.160000 -9.711412 38.595177 1583.899170
5.920000 5.920000 2.200000 -42.137299 -1.944406 1779.332642
5.920000 5.960000 1.800000 -5.458214 -6.230558 68.611954
5.920000 5.960000 1.840000 -46.528511 4.878374 2188.700928
5.920000 5.960000 1.880000 -91.181702 -35.770763 9593.650391
5.920000 5.960000 1.920000 -85.746117 -114.027969 20354.773438
5.920000 5.960000 1.960000 -11.236504 -170.312836 29132.722656
5.920000 5.960000 2.000000 89.722855 -151.140350 30893.597656
5.920000 5.960000 2.040000 144.921234 -61.482460 24782.257812
5.920000 5.960000 2.080000 116.172302 35.197250 14734.850586
5.920000 5.960000 2.120000 33.339848 71.972145 6291.535156
5.920000 5.960000 2.160000 -34.486038 36.163380 2497.076904
5.920000 5.960000 2.200000 -41.906448 -25.178743 2390.119629
5.920000 6.000000 1.800000 -5.718759 -5.407705 61.947479
5.920000 6.000000 1.840000 -47.652924 -23.415237 2819.074219
5.920000 6.000000 1.880000 -60.083294 -86.387772 11072.849609
5.920000 6.000000 1.920000 -7.402716 -150.156494 22601.773438
5.920000 6.000000 1.960000 90.515305 -153.618103 31791.542969
5.920000 6.000000 2.000000 166.025421 -76.986847 33491.414062
5.920000 6.000000 2.040000 160.753357 33.105240 26937.599609
5.920000 6.000000 2.080000 78.997498 100.286682 16298.023438
5.920000 6.000000 2.120000 -15.171007 84.329346 7341.598145
5.920000 6.000000 2.160000 -55.128220 13.468628 3220.524658
5.920000 6.000000 2.200000 -27.950308 -46.501328 2943.593262
5.920000 6.040000 1.800000 -4.403505 -10.380373 127.143005
5.920000 6.040000 1.840000 -24.059891 -46.148766 2708.586914
5.920000 6.040000 1.880000 0.663391 -98.161201 9636.061523
5.920000 6.040000 1.920000 72.614296 -117.051170 18973.812500
5.920000 6.040000 1.960000 146.656189 -68.759583 26235.917969
5.920000 6.040000 2.000000 163.388489 27.301712 27441.181641
5.920000 6.040000 2.040000 102.780182 107.541954 22129.037109
5.920000 6.040000 2.080000 5.776552 116.856522 13688.814453
5.920000 6.040000 2.120000 -59.416721 56.109318 6678.602539
5.920000 6.040000 2.160000 -55.425976 -20.947605 3510.841064
5.920000 6.040000 2.200000 -3.395236 -57.424339 3309.082275
5.920000 6.080000 1.800000 4.474513 -15.258828 252.853104
5.920000 6.080000 1.840000 10.393148 -44.275093 2068.301270
5.920000 6.080000 1.880000 48.830643 -63.075874 6362.997559
5.920000 6.080000 1.920000 100.735092 -41.656555 11882.827148
5.920000 6.080000 1.960000 124.712219 21.563969 16018.142578
5.920000 6.080000 2.000000 92.208061 89.808113 16567.824219
5.920000 6.080000 2.040000 17.000547 114.571426 13415.629883
5.920000 6.080000 2.080000 -51.703941 77.138580 8623.658203
5.920000 6.080000 2.120000 -69.194130 5.931042 4823.004883
5.920000 6.080000 2.160000 -31.820175 -47.777992 3295.260254
5.920000 6.080000 2.200000 23.633497 -53.067780 3374.731445
5.920000 6.120000 1.800000 17.658028 -11.617390 446.769684
5.920000 6.120000 1.840000 31.799706 -18.856417 1366.785645
5.920000 6.120000 1.880000 54.784828 -10.625153 3114.271240
5.920000 6.120000 1.920000 69.204552 19.361629 5164.142578
5.920000 6.120000 1.960000 56.123775 58.546009 6577.513672
5.920000 6.120000 2.000000 13.793713 80.304153 6639.023438
5.920000 6.120000 2.040000 -35.329376 64.687103 5432.585938
5.920000 6.120000 2.080000 -59.286423 17.434425 3818.839111
5.920000 6.120000 2.120000 -42.164322 -31.690882 2782.142090
5.920000 6.120000 2.160000 2.527420 -51.782505 2687.815674
5.920000 6.120000 2.200000 43.410339 -34.817944 3096.746582
5.920000 6.160000 1.800000 25.439968 1.525532 649.519226
5.920000 6.160000 1.840000 28.070892 10.021397 888.403381
5.920000 6.160000 1.880000 26.029076 20.697075 1105.881592
5.920000 6.160000 1.920000 17.392458 31.117228 1270.779419
5.920000 6.160000 1.960000 1.327194 36.338875 1322.275269
5.920000 6.160000 2.000000 -18.232964 29.891876 1225.965210
5.920000 6.160000 2.040000 -31.227943 9.441830 1064.332642
5.920000 6.160000 2.080000 -26.944332 -17.672306 1038.307373
5.920000 6.160000 2.120000 -3.451892 -36.276077 1327.869263
5.920000 6.160000 2.160000 27.944086 -33.658585 1913.772217
5.920000 6.160000 2.200000 49.273289 -10.091899 2529.703369
5.920000 6.200000 1.800000 21.952335 15.769314 730.576294
5.920000 6.200000 1.840000 8.958580 22.441189 583.863098
5.920000 6.200000 1.880000 -4.380474 17.750372 334.264282
5.920000 6.200000 1.920000 -9.711678 6.536805 137.046509
5.920000 6.200000 1.960000 -6.917229 -2.821720 55.810158
5.920000 6.200000 2.000000 -1.853022 -7.186165 55.074654
5.920000 6.200000 2.040000 2.008122 -9.963802 103.309914
5.920000 6.200000 2.080000 7.596325 -14.103483 256.612396
5.920000 6.200000 2.120000 19.026453 -15.952595 616.491211
5.920000 6.200000 2.160000 33.574883 -8.107014 1192.996338
5.920000 6.200000 2.200000 41.108414 11.279230 1817.122803
5.960000 5.800000 1.800000 -50.257294 15.872479 2777.731201
5.960000 5.800000 1.840000 -40.447453 -11.651800 1771.760864
5.960000 5.800000 1.880000 -15.333244 -21.883121 713.979370
5.960000 5.800000 1.920000 5.517822 -10.896637 149.183060
5.960000 5.800000 1.960000 8.763963 7.850754 138.441376
5.960000 5.800000 2.000000 -1.437080 17.451180 306.608856
5.960000 5.800000 2.040000 -9.970695 13.904633 292.753571
5.960000 5.800000 2.080000 -7.784836 7.928656 123.467247
5.960000 5.800000 2.120000 -0.930447 11.021669 122.342926
5.960000 5.800000 2.160000 -2.058528 21.577850 469.841187
5.960000 5.800000 2.200000 -14.379440 26.718655 920.654846
5.960000 5.840000 1.800000 -47.930378 -10.500647 2407.584717
5.960000 5.840000 1.840000 -31.615026 -12.452450 1154.573364
5.960000 5.840000 1.880000 -28.180824 -2.406517 799.950195
5.960000 5.840000 1.920000 -40.077225 0.001106 1606.183960
5.960000 5.840000 1.960000 -50.214424 -16.286774 2786.747314
5.960000 5.840000 2.000000 -39.944725 -40.287567 3218.668945
5.960000 5.840000 2.040000 -10.151268 -48.679680 2472.759521
5.960000 5.840000 2.080000 17.078602 -29.780972 1178.584961
5.960000 5.840000 2.120000 19.215527 2.927814 377.808533
5.960000 5.840000 2.160000 -4.096231 22.516159 523.756531
5.960000 5.840000 2.200000 -30.021517 14.533208 1112.505615
5.960000 5.880000 1.800000 -31.309774 -27.327333 1727.085205
5.960000 5.880000 1.840000 -34.129993 -9.124394 1248.110962
5.960000 5.880000 1.880000 -62.459900 -8.584072 3974.925293
5.960000 5.880000 1.920000 -85.237488 -44.600132 9254.600586
5.960000 5.880000 1.960000 -67.469604 -97.347191 14028.623047
5.960000 5.880000 2.000000 -7.878700 -122.790604 15139.606445
5.960000 5.880000 2.040000 54.640369 -94.323349 11882.464844
5.960000 5.880000 2.080000 74.739502 -30.284874 6503.166992
5.960000 5.880000 2.120000 42.335037 21.202477 2241.800293
5.960000 5.880000 2.160000 -8.920313 26.022425 756.738525
5.960000 5.880000 2.200000 -34.496696 -6.486146 1232.092163
5.960000 5.920000 1.800000 -12.301039 -30.127623 1058.989258
5.960000 5.920000 1.840000 -44.002457 -17.351460 2237.289307
5.960000 5.920000 1.880000 -82.750656 -52.690102 9623.917969
5.960000 5.920000 1.920000 -75.579819 -124.644974 21248.677734
5.960000 5.920000 1.960000 -2.999016 -176.044189 31000.550781
5.960000 5.920000 2.000000 94.167229 -155.337616 32997.242188
5.960000 5.920000 2.040000 146.708481 -67.896393 26133.298828
5.960000 5.920000 2.080000 119.169403 24.977484 14825.221680
5.960000 5.920000 2.120000 41.557571 60.272125 5359.760742
5.960000 5.920000 2.160000 -20.292412 28.154976 1204.484619
5.960000 5.920000 2.200000 -25.556278 -25.135414 1284.912354
5.960000 5.960000 1.800000 0.651023 -24.762148 613.587769
5.960000 5.960000 1.840000 -43.438831 -40.063950 3492.052246
5.960000 5.960000 1.880000 -56.908745 -107.751045 14848.893555
5.960000 5.960000 1.920000 2.742136 -177.736694 31597.851562
5.960000 5.960000 1.960000 113.313400 -180.135834 45288.843750
5.960000 5.960000 2.000000 198.303650 -93.083405 47988.855469
5.960000 5.960000 2.040000 193.307877 30.300745 38286.070312
5.960000 5.960000 2.080000 105.063812 105.734879 22218.269531
5.960000 5.960000 2.120000 4.907207 91.559021 8407.135742
5.960000 5.960000 2.160000 -36.738651 21.305048 1803.633545
5.960000 5.960000 2.200000 -10.305494 -34.301807 1282.817261
5.960000 6.000000 1.800000 8.206643 -18.623152 414.170776
5.960000 6.000000 1.840000 -20.276268 -60.684597 4093.747314
5.960000 6.000000 1.880000 9.190369 -128.320557 16550.628906
5.960000 6.000000 1.920000 102.671967 -154.344147 34363.648438
5.960000 6.000000 1.960000 200.576019 -92.402374 48768.937500
5.960000 6.000000 2.000000 224.974365 32.190010 51649.660156
5.960000 6.000000 2.040000 150.767059 137.267014 41572.937500
5.960000 6.000000 2.080000 31.015015 154.082184 24703.251953
5.960000 6.000000 2.120000 -49.728966 86.195122 9902.569336
5.960000 6.000000 2.160000 -48.991623 0.884046 2400.960693
5.960000 6.000000 2.200000 3.637094 -35.856262 1298.899902
5.960000 6.040000 1.800000 15.119184 -12.628340 388.064667
5.960000 6.040000 1.840000 16.198933 -58.015644 3628.220459
5.960000 6.040000 1.880000 72.161247 -92.809418 13820.833984
5.960000 6.040000 1.920000 154.506516 -65.294434 28135.626953
5.960000 6.040000 1.960000 196.964142 29.673084 39675.367188
5.960000 6.040000 2.000000 153.863892 135.826477 42122.929688
5.960000 6.040000 2.040000 45.528740 179.641052 34343.773438
5.960000 6.040000 2.080000 -55.520630 134.143677 21077.066406
5.960000 6.040000 2.120000 -86.461449 41.353958 9185.732422
5.960000 6.040000 2.160000 -45.356487 -27.638931 2821.121582
5.960000 6.040000 2.200000 15.565810 -34.975262 1465.563354
5.960000 6.080000 1.800000 21.712589 -2.720558 478.837952
5.960000 6.080000 1.840000 41.071587 -28.298841 2487.699707
5.960000 6.080000 1.880000 88.817093 -25.267345 8526.915039
5.960000 6.080000 1.920000 127.302322 26.380619 16901.818359
5.960000 6.080000 1.960000 113.624786 103.759514 23676.628906
5.960000 6.080000 2.000000 41.067581 153.610962 25282.875000
5.960000 6.080000 2.040000 -48.794312 136.675430 21061.058594
5.960000 6.080000 2.080000 -98.187439 63.128925 13626.035156
5.960000 6.080000 2.120000 -81.023300 -15.317177 6799.391113
5.960000 6.080000 2.160000 -22.056538 -49.569359 2943.612305
5.960000 6.080000 2.200000 29.188219 -31.759287 1860.604492
5.960000 6.120000 1.800000 22.475981 11.978897 648.663696
5.960000 6.120000 1.840000 36.747971 8.846087 1428.666626
5.960000 6.120000 1.880000 54.601517 25.941669 3654.295898
5.960000 6.120000 1.920000 53.789589 61.805031 6713.181641
5.960000 6.120000 1.960000 20.607750 93.846764 9231.894531
5.960000 6.120000 2.000000 -33.423153 94.072769 9966.792969
5.960000 6.120000 2.040000 -76.051376 53.787163 8676.871094
5.960000 6.120000 2.080000 -78.855347 -5.774284 6251.507812
5.960000 6.120000 2.120000 -40.773567 -48.416126 4006.604980
5.960000 6.120000 2.160000 11.098009 -51.233559 2748.043213
5.960000 6.120000 2.200000 44.107594 -20.869957 2381.034912
5.960000 6.160000 1.800000 13.396456 25.056030 807.269653
5.960000 6.160000 1.840000 9.901579 27.839579 873.083374
5.960000 6.160000 1.880000 5.107483 31.617466 1025.750610
5.960000 6.160000 1.920000 -3.935299 35.549988 1279.288208
5.960000 6.160000 1.960000 -18.903656 34.475964 1545.940186
5.960000 6.160000 2.000000 -35.076019 21.662384 1699.586060
5.960000 6.160000 2.040000 -41.225384 -3.566654 1712.253296
5.960000 6.160000 2.080000 -27.705610 -30.819534 1717.444580
5.960000 6.160000 2.120000 3.420757 -43.463608 1900.786743
5.960000 6.160000 2.160000 36.494297 -31.239685 2307.751709
5.960000 6.160000 2.200000 52.471794 0.270971 2753.362549
5.960000 6.200000 1.800000 -1.141521 28.499926 813.548889
5.960000 6.200000 1.840000 -15.196989 20.685810 658.851196
5.960000 6.200000 1.880000 -19.462414 4.637736 400.294159
5.960000 6.200000 1.920000 -11.658657 -8.279910 204.481201
5.960000 6.200000 1.960000 -0.323109 -10.893986 118.783325
5.960000 6.200000 2.000000 5.171761 -7.445850 82.187798
5.960000 6.200000 2.040000 5.442532 -7.477196 85.529602
5.960000 6.200000 2.080000 9.943329 -13.178352 272.538757
5.960000 6.200000 2.120000 24.533113 -15.097839 829.818420
5.960000 6.200000 2.160000 41.772144 -2.078333 1749.231445
5.960000 6.200000 2.200000 45.846130 24.780272 2715.929443
6.000000 5.800000 1.800000 -61.987385 -9.003389 3923.496826
6.000000 5.800000 1.840000 -40.339104 -32.509079 2684.083496
6.000000 5.800000 1.880000 -11.370481 -33.493019 1251.070190
6.000000 5.800000 1.920000 5.784774 -16.446457 303.949524
6.000000 5.800000 1.960000 4.647713 1.624054 24.238785
6.000000 5.800000 2.000000 -4.860153 7.895069 85.953201
6.000000 5.800000 2.040000 -8.853760 4.839333 101.808197
6.000000 5.800000 2.080000 -4.540764 4.591484 41.700264
6.000000 5.800000 2.120000 -1.811549 13.484694 185.118668
6.000000 5.800000 2.160000 -10.236443 24.177395 689.331177
6.000000 5.800000 2.200000 -26.513247 24.102085 1283.862793
6.000000 5.840000 1.800000 -48.717812 -37.298347 3764.591797
6.000000 5.840000 1.840000 -32.852745 -36.230309 2391.937988
6.000000 5.840000 1.880000 -30.521515 -31.076756 1897.327637
6.000000 5.840000 1.920000 -34.397350 -36.902985 2545.008057
6.000000 5.840000 1.960000 -27.393898 -52.733879 3531.287598
6.000000 5.840000 2.000000 -2.825478 -61.113712 3742.869141
6.000000 5.840000 2.040000 25.455662 -46.367836 2797.967041
6.000000 5.840000 2.080000 34.736992 -12.895214 1372.945068
6.000000 5.840000 2.120000 15.991358 16.213966 518.616211
6.000000 5.840000 2.160000 -15.866516 20.083769 655.104126
6.000000 5.840000 2.200000 -35.190998 -0.144949 1238.427368
6.000000 5.880000 1.800000 -22.787535 -50.804935 3100.413086
6.000000 5.880000 1.840000 -31.344955 -41.827267 2732.026367
6.000000 5.880000 1.880000 -48.814392 -59.415798 5913.082031
6.000000 5.880000 1.920000 -40.788380 -100.331314 11730.064453
6.000000 5.880000 1.960000 7.796837 -129.021835 16707.425781
6.000000 5.880000 2.000000 71.746239 -110.941460 17455.531250
6.000000 5.880000 2.040000 105.019440 -48.715580 13402.291016
6.000000 5.880000 2.080000 83.104019 16.331310 7172.989746
6.000000 5.880000 2.120000 26.422491 40.461670 2335.294678
6.000000 5.880000 2.160000 -18.784920 16.373310 620.958496
6.000000 5.880000 2.200000 -23.000824 -23.265316 1070.312744
6.000000 5.920000 1.800000 2.878620 -47.577240 2271.880127
6.000000 5.920000 1.840000 -25.835493 -55.986004 3801.905273
6.000000 5.920000 1.880000 -32.807171 -106.237984 12362.819336
6.000000 5.920000 1.920000 18.062355 -158.471497 25439.462891
6.000000 5.920000 1.960000 109.024483 -155.296143 36003.230469
6.000000 5.920000 2.000000 176.905472 -79.238113 37574.226562
6.000000 5.920000 2.040000 169.158295 24.670868 29223.181641
6.000000 5.920000 2.080000 93.182213 86.378372 16144.148438
6.000000 5.920000 2.120000 9.656227 72.889526 5406.125488
6.000000 5.920000 2.160000 -23.421162 14.372211 755.111328
6.000000 5.920000 2.200000 -0.484797 -29.446814 867.349854
6.000000 5.960000 1.800000 20.372339 -34.034721 1573.394531
6.000000 5.960000 1.840000 -4.605867 -69.844055 4899.405762
6.000000 5.960000 1.880000 25.042461 -131.374603 17886.412109
6.000000 5.960000 1.920000 115.987564 -152.643219 36753.070312
6.000000 5.960000 1.960000 209.593689 -88.694382 51796.210938
6.000000 5.960000 2.000000 230.261368 34.251122 54193.437500
6.000000 5.960000 2.040000 155.873093 135.488068 42653.437500
6.000000 5.960000 2.080000 40.362377 150.228455 24197.708984
6.000000 5.960000 2.120000 -34.829700 85.619476 8543.802734
6.000000 5.960000 2.160000 -32.580807 8.489412 1133.578979
6.000000 5.960000 2.200000 14.413324 -20.148638 613.711487
6.000000 6.000000 1.800000 28.988920 -16.828117 1123.542969
6.000000 6.000000 1.840000 28.858971 -65.415359 5112.009766
6.000000 6.000000 1.880000 91.688797 -103.502563 19119.617188
6.000000 6.000000 1.920000 184.698868 -70.631119 39102.425781
6.000000 6.000000 1.960000 231.504883 38.382767 55067.750000
6.000000 6.000000 2.000000 181.459976 158.177704 57947.906250
6.000000 6.000000 2.040000 60.297592 206.533844 46292.031250
6.000000 6.000000 2.080000 -49.730633 156.938766 27102.914062
6.000000 6.000000 2.120000 -82.065567 59.630394 10290.541016
6.000000 6.000000 2.160000 -40.313271 -7.993708 1689.059204
6.000000 6.000000 2.200000 15.550300 -10.764610 357.688660
6.000000 6.040000 1.800000 30.088373 1.296058 906.989929
6.000000 6.040000 1.840000 53.940842 -35.227188 4150.569336
6.000000 6.040000 1.880000 119.348846 -33.103104 15339.962891
6.000000 6.040000 1.920000 172.992798 36.553898 31262.695312
6.000000 6.040000 1.960000 155.570251 141.249619 44153.558594
6.000000 6.040000 2.000000 59.902939 208.207932 46938.906250
6.000000 6.040000 2.040000 -56.381729 187.453415 38317.679688
6.000000 6.040000 2.080000 -118.783257 96.641251 23448.992188
6.000000 6.040000 2.120000 -99.252563 4.085024 9867.758789
6.000000 6.040000 2.160000 -34.694954 -32.573399 2264.766113
6.000000 6.040000 2.200000 13.867289 -12.041857 337.308014
6.000000 6.080000 1.800000 23.013868 18.440784 869.700684
6.000000 6.080000 1.840000 50.722343 5.855041 2607.037598
6.000000 6.080000 1.880000 88.716690 33.107231 8966.739258
6.000000 6.080000 1.920000 93.000740 97.386948 18133.355469
6.000000 6.080000 1.960000 39.057430 155.704269 25769.302734
6.000000 6.080000 2.000000 -49.987885 159.343048 27888.996094
6.000000 6.080000 2.040000 -118.403236 97.870529 23597.966797
6.000000 6.080000 2.080000 -124.114464 10.274284 15509.960938
6.000000 6.080000 2.120000 -73.041916 -48.061188 7644.999023
6.000000 6.080000 2.160000 -9.970907 -50.989990 2699.397949
6.000000 6.080000 2.200000 22.960779 -17.455097 831.877808
6.000000 6.120000 1.800000 7.606740 29.692780 939.523621
6.000000 6.120000 1.840000 20.301952 31.188988 1384.922241
6.000000 6.120000 1.880000 26.897814 52.838978 3515.449951
6.000000 6.120000 1.920000 8.043507 81.684166 6737.000977
6.000000 6.120000 1.960000 -36.395866 91.012131 9607.867188
6.000000 6.120000 2.000000 -82.324829 63.137283 10763.694336
6.000000 6.120000 2.040000 -98.705269 7.163498 9794.045898
6.000000 6.120000 2.080000 -72.906464 -45.668358 7400.951172
6.000000 6.120000 2.120000 -21.317951 -65.891701 4796.171387
6.000000 6.120000 2.160000 24.241978 -47.863327 2878.571777
6.000000 6.120000 2.200000 41.417389 -10.949445 1835.290527
6.000000 6.160000 1.800000 -10.912799 29.517082 990.347290
6.000000 6.160000 1.840000 -14.191307 26.318043 894.032593
6.000000 6.160000 1.880000 -18.047287 24.641598 932.912842
6.000000 6.160000 1.920000 -25.232620 22.235840 1131.117676
6.000000 6.160000 1.960000 -35.169914 13.952309 1431.589722
6.000000 6.160000 2.000000 -41.477722 -3.888657 1735.523193
6.000000 6.160000 2.040000 -34.906128 -27.706352 1986.079712
6.000000 6.160000 2.080000 -11.344856 -45.649147 2212.550537
6.000000 6.160000 2.120000 21.784788 -44.699188 2472.594482
6.000000 6.160000 2.160000 47.883427 -21.373022 2749.628662
6.000000 6.160000 2.200000 52.268116 13.492092 2913.992676
6.000000 6.200000 1.800000 -22.960054 18.615723 873.709229
6.000000 6.200000 1.840000 -28.391338 2.308399 811.396851
6.000000 6.200000 1.880000 -20.562843 -15.043610 649.140747
6.000000 6.200000 1.920000 -3.523129 -21.974846 495.306305
6.000000 6.200000 1.960000 10.493023 -16.257915 374.423340
6.000000 6.200000 2.000000 14.040888 -7.466743 252.898788
6.000000 6.200000 2.040000 12.666313 -5.912426 195.392273
6.000000 6.200000 2.080000 18.161488 -9.993380 429.707275
6.000000 6.200000 2.120000 33.508545 -6.857233 1169.844238
6.000000 6.200000 2.160000 46.528915 12.976419 2333.327393
6.000000 6.200000 2.200000 40.628761 42.516655 3458.362305
6.040000 5.800000 1.800000 -54.709061 -34.041031 4151.873047
6.040000 5.800000 1.840000 -26.802391 -48.672020 3087.333740
6.040000 5.800000 1.880000 1.273392 -41.340614 1710.667969
6.040000 5.800000 1.920000 14.513969 -20.619080 635.801758
6.040000 5.800000 1.960000 11.188408 -2.213219 130.078812
6.040000 5.800000 2.000000 1.795181 5.162586 29.874971
6.040000 5.800000 2.040000 -3.182835 5.618374 41.696564
6.040000 5.800000 2.080000 -3.635168 8.418503 84.085640
6.040000 5.800000 2.120000 -7.638288 15.942097 312.493896
6.040000 5.800000 2.160000 -20.019125 20.681892 828.505981
6.040000 5.800000 2.200000 -34.976784 14.349816 1429.292603
6.040000 5.840000 1.800000 -32.550247 -57.956566 4418.482422
6.040000 5.840000 1.840000 -16.478891 -56.532272 3467.451660
6.040000 5.840000 1.880000 -8.236755 -53.992271 2983.009521
6.040000 5.840000 1.920000 0.146400 -55.994583 3135.414795
6.040000 5.840000 1.960000 16.229797 -56.123878 3413.295898
6.040000 5.840000 2.000000 35.735954 -43.322323 3153.882080
6.040000 5.840000 2.040000 44.173370 -16.093536 2210.288574
6.040000 5.840000 2.080000 30.969139 12.052872 1104.359253
6.040000 5.840000 2.120000 1.833849 22.930649 529.177612
6.040000 5.840000 2.160000 -24.174929 10.335197 691.243469
6.040000 5.840000 2.200000 -30.935465 -13.746881 1145.979736
6.040000 5.880000 1.800000 -0.776123 -63.979156 4093.934814
6.040000 5.880000 1.840000 -3.664287 -64.741333 4204.867188
6.040000 5.880000 1.880000 0.616516 -83.803123 7023.343262
6.040000 5.880000 1.920000 31.492172 -102.899712 11580.107422
6.040000 5.880000 1.960000 80.553238 -92.497345 15044.583008
6.040000 5.880000 2.000000 114.069244 -43.552460 14908.609375
6.040000 5.880000 2.040000 103.398376 18.431068 11030.928711
6.040000 5.880000 2.080000 53.515163 53.383396 5713.659668
6.040000 5.880000 2.120000 0.386940 42.206039 1781.499512
6.040000 5.880000 2.160000 -20.952589 2.994968 447.980835
6.040000 5.880000 2.200000 -6.374420 -27.680168 806.824951
6.040000 5.920000 1.800000 27.443426 -51.396515 3394.743408
6.040000 5.920000 1.840000 17.588408 -69.896645 5194.893066
6.040000 5.920000 1.880000 42.038551 -104.722534 12734.048828
6.040000 5.920000 1.920000 105.773666 -111.259048 23566.644531
6.040000 5.920000 1.960000 167.966476 -59.223160 31720.119141
6.040000 5.920000 2.000000 176.248444 31.419697 32050.710938
6.040000 5.920000 2.040000 117.010559 102.675201 24233.667969
6.040000 5.920000 2.080000 30.981001 109.385994 12925.118164
6.040000 5.920000 2.120000 -22.719114 59.120743 4011.420410
6.040000 5.920000 2.160000 -18.757191 2.073139 356.130127
6.040000 5.920000 2.200000 16.877197 -17.554005 592.982849
6.040000 5.960000 1.800000 43.211143 -27.111914 2602.258789
6.040000 5.960000 1.840000 45.802929 -61.001080 5819.040039
6.040000 5.960000 1.880000 98.418671 -86.239807 17123.539062
6.040000 5.960000 1.920000 173.729919 -52.760647 32965.769531
6.040000 5.960000 1.960000 207.866180 42.394238 45005.617188
6.040000 5.960000 2.000000 160.076462 142.849213 46030.371094
6.040000 5.960000 2.040000 54.998592 179.992523 35422.152344
6.040000 5.960000 2.080000 -36.502853 134.706924 19478.414062
6.040000 5.960000 2.120000 -60.230125 52.833122 6419.006836
6.040000 5.960000 2.160000 -23.518366 0.035494 553.114807
6.040000 5.960000 2.200000 20.157784 2.370979 411.957794
6.040000 6.000000 1.800000 43.857159 0.013304 1923.450439
6.040000 6.000000 1.840000 66.752762 -31.593346 5454.070801
6.040000 6.000000 1.880000 129.592865 -25.790159 17459.443359
6.040000 6.000000 1.920000 179.330658 45.675430 34245.730469
6.040000 6.000000 1.960000 158.013596 149.188904 47225.625000
6.040000 6.000000 2.000000 61.228088 212.479263 48896.316406
6.040000 6.000000 2.040000 -51.748981 189.006210 38401.304688
6.040000 6.000000 2.080000 -108.799583 100.538765 21945.392578
6.040000 6.000000 2.120000 -87.522316 15.835484 7910.918457
6.040000 6.000000 2.160000 -28.971922 -12.514791 995.992249
6.040000 6.000000 2.200000 7.703969 9.719583 153.821426
6.040000 6.040000 1.800000 30.943884 22.256594 1452.879883
6.040000 6.040000 1.840000 63.397587 8.414091 4090.050781
6.040000 6.040000 1.880000 108.078812 42.218124 13463.399414
6.040000 6.040000 1.920000 111.614990 119.431320 26721.746094
6.040000 6.040000 1.960000 46.347347 187.356827 37250.660156
6.040000 6.040000 2.000000 -57.255951 189.539337 39203.402344
6.040000 6.040000 2.040000 -133.031067 118.255531 31681.636719
6.040000 6.040000 2.080000 -136.425705 22.759798 19129.980469
6.040000 6.040000 2.120000 -81.220078 -34.980095 7820.308105
6.040000 6.040000 2.160000 -21.353846 -33.134296 1553.868286
6.040000 6.040000 2.200000 1.151747 -1.037854 2.403662
6.040000 6.080000 1.800000 9.106668 33.362965 1196.018799
6.040000 6.080000 1.840000 33.199841 36.266628 2417.497559
6.040000 6.080000 1.880000 46.451916 73.375023 7541.674805
6.040000 6.080000 1.920000 17.419571 121.262085 15007.934570
6.040000 6.080000 1.960000 -50.788048 136.478943 21205.927734
6.040000 6.080000 2.000000 -117.559753 95.268463 22896.375000
6.040000 6.080000 2.040000 -138.150513 17.573322 19394.386719
6.040000 6.080000 2.080000 -102.107979 -48.787701 12806.279297
6.040000 6.080000 2.120000 -40.265961 -68.575005 6323.878906
6.040000 6.080000 2.160000 4.777466 -45.634300 2105.313477
6.040000 6.080000 2.200000 14.557932 -12.282637 362.796539
6.040000 6.120000 1.800000 -13.545238 29.953400 1080.679688
6.040000 6.120000 1.840000 -5.624168 34.980152 1255.242310
6.040000 6.120000 1.880000 -11.613224 51.980347 2836.823486
6.040000 6.120000 1.920000 -39.048500 61.629471 5322.977051
6.040000 6.120000 1.960000 -74.479004 45.084496 7579.733887
6.040000 6.120000 2.000000 -92.581116 2.357124 8576.818359
6.040000 6.120000 2.040000 -77.108086 -45.234756 7991.839844
6.040000 6.120000 2.080000 -34.681355 -71.240021 6277.937012
6.040000 6.120000 2.120000 10.720045 -64.254776 4243.595703
6.040000 6.120000 2.160000 36.698029 -34.529808 2539.052979
6.040000 6.120000 2.200000 37.449570 -2.951477 1411.181396
6.040000 6.160000 1.800000 -27.312634 14.936870 969.089966
6.040000 6.160000 1.840000 -27.862391 9.444719 865.515503
6.040000 6.160000 1.880000 -29.439920 3.899250 881.913086
6.040000 6.160000 1.920000 -31.230633 -4.147491 992.554077
6.040000 6.160000 1.960000 -30.363310 -15.854130 1173.284058
6.040000 6.160000 2.000000 -23.022818 -29.744278 1414.772217
6.040000 6.160000 2.040000 -6.627552 -40.926834 1718.930176
6.040000 6.160000 2.080000 17.088165 -42.267624 2078.557373
6.040000 6.160000 2.120000 40.359535 -28.605558 2447.169922
6.040000 6.160000 2.160000 52.094009 -1.934784 2717.529297
6.040000 6.160000 2.200000 44.875454 27.141048 2750.442871
6.040000 6.200000 1.800000 -26.996101 -1.712616 731.722534
6.040000 6.200000 1.840000 -23.280706 -17.162670 836.548523
6.040000 6.200000 1.880000 -7.913769 -28.961950 901.422302
6.040000 6.200000 1.920000 12.438694 -27.813740 928.325256
6.040000 6.200000 1.960000 25.541693 -14.823242 872.106567
6.040000 6.200000 2.000000 26.348549 -1.280151 695.884827
6.040000 6.200000 2.040000 22.528687 3.614159 520.603882
6.040000 6.200000 2.080000 25.298912 3.441008 651.875488
6.040000 6.200000 2.120000 35.178467 10.687000 1351.736572
6.040000 6.200000 2.160000 39.134907 31.379395 2516.207275
6.040000 6.200000 2.200000 23.909569 55.072792 3604.679932
6.080000 5.800000 1.800000 -36.095230 -46.545418 3469.341309
6.080000 5.800000 1.840000 -7.670115 -52.360653 2800.468506
6.080000 5.800000 1.880000 17.103577 -38.798653 1797.867798
6.080000 5.800000 1.920000 26.149857 -14.818796 903.411743
6.080000 5.800000 1.960000 18.916924 5.395951 386.966309
6.080000 5.800000 2.000000 5.106728 13.884823 218.866974
6.080000 5.800000 2.040000 -5.361982 13.587654 213.375198
6.080000 5.800000 2.080000 -10.851462 12.330578 269.797394
6.080000 5.800000 2.120000 -16.732767 13.214869 454.618256
6.080000 5.800000 2.160000 -26.728455 11.783218 853.254517
6.080000 5.800000 2.200000 -37.026917 2.452919 1377.009399
6.080000 5.840000 1.800000 -9.590206 -63.848221 4168.567383
6.080000 5.840000 1.840000 9.446604 -61.126381 3825.672607
6.080000 5.840000 1.880000 24.456478 -52.941963 3400.970947
6.080000 5.840000 1.920000 36.181484 -41.063133 2995.280762
6.080000 5.840000 1.960000 43.888760 -24.505371 2526.736328
6.080000 5.840000 2.000000 43.415932 -3.797432 1899.363647
6.080000 5.840000 2.040000 30.886318 15.272827 1187.223877
6.080000 5.840000 2.080000 8.564106 23.735497 636.717712
6.080000 5.840000 2.120000 -13.919201 16.510162 466.329590
6.080000 5.840000 2.160000 -25.572035 -2.245332 658.970459
6.080000 5.840000 2.200000 -22.364199 -21.420040 958.975464
6.080000 5.880000 1.800000 23.834923 -61.445045 4343.597168
6.080000 5.880000 1.840000 32.942913 -61.726456 4895.390625
6.080000 5.880000 1.880000 50.727222 -63.799049 6643.569336
6.080000 5.880000 1.920000 78.080414 -52.754013 8879.537109
6.080000 5.880000 1.960000 98.616882 -19.174919 10092.966797
6.080000 5.880000 2.000000 92.157402 26.173321 9178.029297
6.080000 5.880000 2.040000 55.577015 57.398735 6383.419434
6.080000 5.880000 2.080000 9.342728 55.325401 3148.186768
6.080000 5.880000 2.120000 -18.426382 25.058781 967.474060
6.080000 5.880000 2.160000 -15.652241 -8.476608 316.845520
6.080000 5.880000 2.200000 5.184446 -22.859337 549.427734
6.080000 5.920000 1.800000 49.686020 -39.186577 4004.288574
6.080000 5.920000 1.840000 58.170464 -48.138836 5701.150391
6.080000 5.920000 1.880000 89.240952 -50.578835 10522.166016
6.080000 5.920000 1.920000 127.703339 -20.998371 16749.074219
6.080000 5.920000 1.960000 138.643280 39.944565 20817.527344
6.080000 5.920000 2.000000 101.251503 98.542183 19962.429688
6.080000 5.920000 2.040000 32.839550 115.547867 14429.746094
6.080000 5.920000 2.080000 -23.172684 82.179619 7290.462891
6.080000 5.920000 2.120000 -35.024605 28.440716 2035.597168
6.080000 5.920000 2.160000 -9.141792 -4.867194 107.261948
6.080000 5.920000 2.200000 20.112852 -2.448035 410.519714
6.080000 5.960000 1.800000 57.299393 -6.361644 3323.690918
6.080000 5.960000 1.840000 73.971390 -18.435753 5811.643555
6.080000 5.960000 1.880000 113.961052 -5.881573 13021.713867
6.080000 5.960000 1.920000 141.726562 49.306999 22517.597656
6.080000 5.960000 1.960000 118.735603 122.588440 29126.070312
6.080000 5.960000 2.000000 44.506691 163.410278 28683.765625
6.080000 5.960000 2.040000 -36.992264 141.080460 21272.123047
6.080000 5.960000 2.080000 -74.734238 74.385826 11118.457031
6.080000 5.960000 2.120000 -55.575249 14.469372 3297.970947
6.080000 5.960000 2.160000 -12.415962 -2.028682 158.271667
6.080000 5.960000 2.200000 11.016264 17.215042 417.715729
6.080000 6.000000 1.800000 44.543507 23.501352 2536.437500
6.080000 6.000000 1.840000 68.265923 18.545761 5004.181641
6.080000 6.000000 1.880000 100.072227 50.498848 12564.584961
6.080000 6.000000 1.920000 97.007210 115.392265 22725.773438
6.080000 6.000000 1.960000 37.859360 169.301147 30096.210938
6.080000 6.000000 2.000000 -49.862347 166.569855 30231.769531
6.080000 6.000000 2.040000 -110.383255 103.974258 22995.109375
6.080000 6.000000 2.080000 -109.096802 25.635389 12559.285156
6.080000 6.000000 2.120000 -62.135300 -17.025057 4150.647949
6.080000 6.000000 2.160000 -17.292925 -10.285911 404.845215
6.080000 6.000000 2.200000 -7.323275 15.943867 307.837250
6.080000 6.040000 1.800000 18.126709 38.883389 1840.495361
6.080000 6.040000 1.840000 39.152664 44.755558 3535.991211
6.080000 6.040000 1.880000 48.827286 83.193161 9305.206055
6.080000 6.040000 1.920000 16.285332 130.332993 17251.902344
6.080000 6.040000 1.960000 -53.546459 142.755783 23246.435547
6.080000 6.040000 2.000000 -118.382004 99.094589 23834.035156
6.080000 6.040000 2.040000 -134.939545 23.002567 18737.798828
6.080000 6.040000 2.080000 -97.786880 -36.665611 10906.641602
6.080000 6.040000 2.120000 -42.223095 -49.123638 4195.921875
6.080000 6.040000 2.160000 -9.494129 -25.551815 743.033752
6.080000 6.040000 2.200000 -10.340939 -1.893679 110.521034
6.080000 6.080000 1.800000 -9.598868 35.225716 1332.989380
6.080000 6.080000 1.840000 0.669334 45.180744 2041.747681
6.080000 6.080000 1.880000 -8.889286 70.711815 5079.180176
6.080000 6.080000 1.920000 -47.487907 84.587250 9410.104492
6.080000 6.080000 1.960000 -94.615036 62.352413 12839.828125
6.080000 6.080000 2.000000 -116.051483 7.885902 13530.133789
6.080000 6.080000 2.040000 -94.723511 -47.459270 11224.925781
6.080000 6.080000 2.080000 -45.963860 -71.785721 7265.866211
6.080000 6.080000 2.120000 -2.664337 -59.228451 3515.107910
6.080000 6.080000 2.160000 13.913314 -30.927742 1150.105469
6.080000 6.080000 2.200000 8.857733 -11.931238 220.813873
6.080000 6.120000 1.800000 -26.355356 17.238049 991.755127
6.080000 6.120000 1.840000 -25.237469 21.139946 1083.827148
6.080000 6.120000 1.880000 -36.765961 25.186729 1986.107178
6.080000 6.120000 1.920000 -55.744415 15.159760 3337.258301
6.080000 6.120000 1.960000 -65.877319 -12.184956 4488.294434
6.080000 6.120000 2.000000 -54.420868 -44.374996 4930.770996
6.080000 6.120000 2.040000 -23.797955 -63.183388 4558.482910
6.080000 6.120000 2.080000 10.497021 -59.349667 3632.570312
6.080000 6.120000 2.120000 32.700909 -38.474361 2549.625977
6.080000 6.120000 2.160000 37.664906 -14.138530 1618.543213
6.080000 6.120000 2.200000 30.947479 3.423519 969.466919
6.080000 6.160000 1.800000 -26.575871 -3.150837 716.204712
6.080000 6.160000 1.840000 -25.793261 -8.965842 745.678650
6.080000 6.160000 1.880000 -23.529007 -17.711559 867.313538
6.080000 6.160000 1.920000 -15.929629 -27.270649 997.441406
6.080000 6.160000 1.960000 -3.004599 -32.951141 1094.805298
6.080000 6.160000 2.000000 11.613564 -32.207756 1172.214478
6.080000 6.160000 2.040000 24.581593 -25.918985 1276.048584
6.080000 6.160000 2.080000 34.868919 -15.554741 1457.791504
6.080000 6.160000 2.120000 41.573822 -0.975263 1729.333862
6.080000 6.160000 2.160000 41.350590 17.424095 2013.470337
6.080000 6.160000 2.200000 30.405537 34.925213 2144.267090
6.080000 6.200000 1.800000 -15.206031 -13.816959 422.131744
6.080000 6.200000 1.840000 -8.054362 -24.396572 660.065491
6.080000 6.200000 1.880000 9.350653 -30.036215 989.608887
6.080000 6.200000 1.920000 29.316307 -21.759573 1332.924805
6.080000 6.200000 1.960000 38.999218 -2.117744 1525.423828
6.080000 6.200000 2.000000 34.034126 16.062899 1416.338501
6.080000 6.200000 2.040000 23.395321 23.048843 1078.590332
6.080000 6.200000 2.080000 19.064240 22.614305 874.852051
6.080000 6.200000 2.120000 21.829792 26.949865 1202.835083
6.080000 6.200000 2.160000 19.863083 41.146515 2087.577637
6.080000 6.200000 2.200000 2.735407 54.969311 3029.107666
6.120000 5.800000 1.800000 -19.182827 -45.066208 2398.944092
6.120000 5.800000 1.840000 6.397209 -44.525108 2023.409546
6.120000 5.800000 1.880000 26.315042 -26.533049 1396.484131
6.120000 5.800000 1.920000 29.146505 -0.385077 849.667053
6.120000 5.800000 1.960000 15.044889 19.074486 590.184692
6.120000 5.800000 2.000000 -4.744958 23.350090 567.741333
6.120000 5.800000 2.040000 -18.173531 16.132826 590.545288
6.120000 5.800000 2.080000 -22.379450 7.637329 559.168579
6.120000 5.800000 2.120000 -23.675512 3.654884 573.888062
6.120000 5.800000 2.160000 -28.359341 0.727995 804.782166
6.120000 5.800000 2.200000 -34.665764 -8.061842 1266.708496
6.120000 5.840000 1.800000 8.503634 -56.721794 3289.673584
6.120000 5.840000 1.840000 30.010746 -48.633442 3265.856445
6.120000 5.840000 1.880000 44.058647 -29.761497 2826.911133
6.120000 5.840000 1.920000 45.609493 -6.784145 2126.250488
6.120000 5.840000 1.960000 35.202248 12.243011 1389.089600
6.120000 5.840000 2.000000 17.937153 21.980782 804.896240
6.120000 5.840000 2.040000 0.133169 21.511688 462.770447
6.120000 5.840000 2.080000 -13.530699 13.190887 357.079315
6.120000 5.840000 2.120000 -20.783453 0.487499 432.189545
6.120000 5.840000 2.160000 -21.027393 -13.281183 618.541138
6.120000 5.840000 2.200000 -14.725796 -25.035475 843.624084
6.120000 5.880000 1.800000 40.534027 -46.831409 3836.188232
6.120000 5.880000 1.840000 55.692894 -35.789326 4382.574219
6.120000 5.880000 1.880000 67.370422 -17.991852 4862.480469
6.120000 5.880000 1.920000 70.702148 6.620758 5042.628418
6.120000 5.880000 1.960000 59.795441 32.579685 4636.930664
6.120000 5.880000 2.000000 34.448395 49.013016 3588.967529
6.120000 5.880000 2.040000 4.092419 46.844788 2211.181885
6.120000 5.880000 2.080000 -16.818821 27.100647 1017.317810
6.120000 5.880000 2.120000 -19.254408 1.726622 373.713440
6.120000 5.880000 2.160000 -6.445690 -15.107366 269.779419
6.120000 5.880000 2.200000 9.654931 -17.633896 404.171997
6.120000 5.920000 1.800000 59.998493 -17.077713 3891.467285
6.120000 5.920000 1.840000 70.330887 -6.479305 4988.415039
6.120000 5.920000 1.880000 81.387192 13.063849 6794.539062
6.120000 5.920000 1.920000 81.506210 44.487991 8622.443359
6.120000 5.920000 1.960000 59.121746 76.152237 9294.543945
6.120000 5.920000 2.000000 17.879192 88.073090 8076.534668
6.120000 5.920000 2.040000 -21.401823 70.013191 5359.885254
6.120000 5.920000 2.080000 -36.579994 33.186932 2439.468262
6.120000 5.920000 2.120000 -23.424917 2.277618 553.914307
6.120000 5.920000 2.160000 1.160398 -5.631077 33.055550
6.120000 5.920000 2.200000 15.531652 5.302077 269.344238
6.120000 5.960000 1.800000 55.980827 18.728600 3484.613525
6.120000 5.960000 1.840000 63.435154 28.516045 4837.183594
6.120000 5.960000 1.880000 70.222969 52.293343 7665.859375
6.120000 5.960000 1.920000 57.941460 87.237244 10967.549805
6.120000 5.960000 1.960000 18.359196 111.598373 12791.257812
6.120000 5.960000 2.000000 -32.397026 103.329750 11726.604492
6.120000 5.960000 2.040000 -64.163040 63.182644 8108.941895
6.120000 5.960000 2.080000 -59.412407 17.323460 3829.936279
6.120000 5.960000 2.120000 -29.523891 -5.137170 898.050659
6.120000 5.960000 2.160000 -3.466798 2.119748 16.512020
6.120000 5.960000 2.200000 -0.139848 19.564056 382.771851
6.120000 6.000000 1.800000 30.721550 42.920113 2785.949707
6.120000 6.000000 1.840000 35.134888 52.401222 3980.348633
6.120000 6.000000 1.880000 32.165058 76.856110 6941.452637
6.120000 6.000000 1.920000 4.852980 103.012718 10635.171875
6.120000 6.000000 1.960000 -42.790161 105.364731 12932.724609
6.120000 6.000000 2.000000 -83.704620 72.169601 12214.914062
6.120000 6.000000 2.040000 -90.967171 20.615231 8700.013672
6.120000 6.000000 2.080000 -63.497017 -16.503086 4304.223145
6.120000 6.000000 2.120000 -27.327957 -20.359306 1161.318604
6.120000 6.000000 2.160000 -10.539877 -1.993017 115.061119
6.120000 6.000000 2.200000 -17.474930 11.444616 436.352417
6.120000 6.040000 1.800000 -1.719164 44.819683 2011.759521
6.120000 6.040000 1.840000 -1.453575 52.583313 2767.117676
6.120000 6.040000 1.880000 -14.162004 69.051544 4968.678223
6.120000 6.040000 1.920000 -46.357338 75.291428 7817.801758
6.120000 6.040000 1.960000 -82.279663 53.953575 9680.931641
6.120000 6.040000 2.000000 -96.021225 9.732021 9314.787109
6.120000 6.040000 2.040000 -76.418839 -31.550081 6835.246582
6.120000 6.040000 2.080000 -38.803703 -45.812431 3604.506348
6.120000 6.040000 2.120000 -10.757695 -32.475498 1170.385986
6.120000 6.040000 2.160000 -6.373449 -12.859559 205.989105
6.120000 6.040000 2.200000 -15.343742 -7.495013 291.605652
6.120000 6.080000 1.800000 -24.366619 27.062401 1326.105713
6.120000 6.080000 1.840000 -27.318260 30.115637 1653.239014
6.120000 6.080000 1.880000 -41.489128 32.467693 2775.499023
6.120000 6.080000 1.920000 -61.822678 20.252626 4232.212402
6.120000 6.080000 1.960000 -71.460983 -8.970619 5187.144531
6.120000 6.080000 2.000000 -58.227272 -40.698517 5046.784668
6.120000 6.080000 2.040000 -27.714718 -55.724487 3873.324219
6.120000 6.080000 2.080000 1.067219 -47.803032 2286.268799
6.120000 6.080000 2.120000 13.153748 -28.542213 987.679016
6.120000 6.080000 2.160000 10.108759 -14.908148 324.439880
6.120000 6.080000 2.200000 5.379567 -12.983298 197.505783
6.120000 6.120000 1.800000 -28.001068 3.255032 794.655029
6.120000 6.120000 1.840000 -30.486626 0.088604 929.442200
6.120000 6.120000 1.880000 -35.326588 -8.702475 1323.700806
6.120000 6.120000 1.920000 -34.196255 -24.611336 1775.101562
6.120000 6.120000 1.960000 -21.082882 -39.936275 2039.394043
6.120000 6.120000 2.000000 0.380003 -44.590267 1988.436279
6.120000 6.120000 2.040000 19.551704 -35.770493 1661.797363
6.120000 6.120000 2.080000 28.404274 -20.197611 1214.746338
6.120000 6.120000 2.120000 27.786819 -7.037599 821.635132
6.120000 6.120000 2.160000 24.303860 0.397713 590.835815
6.120000 6.120000 2.200000 22.258907 5.456640 525.233887
6.120000 6.160000 1.800000 -16.479086 -11.600185 406.124573
6.120000 6.160000 1.840000 -14.772517 -19.050781 581.159546
6.120000 6.160000 1.880000 -5.882769 -28.626266 854.070129
6.120000 6.160000 1.920000 11.054439 -31.744099 1129.888428
6.120000 6.160000 1.960000 27.984903 -22.810684 1303.482178
6.120000 6.160000 2.000000 35.416920 -5.998048 1290.334717
6.120000 6.160000 2.040000 31.948811 8.625016 1095.117432
6.120000 6.160000 2.080000 24.938629 15.397062 859.004761
6.120000 6.160000 2.120000 21.550037 18.023432 789.248169
6.120000 6.160000 2.160000 20.650093 23.554794 981.254639
6.120000 6.160000 2.200000 15.085584 32.618973 1291.572266
6.120000 6.200000 1.800000 -2.909010 -11.384014 138.058121
6.120000 6.200000 1.840000 3.802690 -19.421646 391.660797
6.120000 6.200000 1.880000 21.313663 -20.596294 878.479614
6.120000 6.200000 1.920000 38.581734 -5.751177 1521.626221
6.120000 6.200000 1.960000 40.918228 19.232571 2044.193115
6.120000 6.200000 2.000000 25.940214 37.910007 2110.063477
6.120000 6.200000 2.040000 6.681942 40.024406 1646.601440
6.120000 6.200000 2.080000 -2.278881 31.847933 1019.484131
6.120000 6.200000 2.120000 -0.306463 28.270973 799.341858
6.120000 6.200000 2.160000 -0.285478 35.332443 1248.463135
6.120000 6.200000 2.200000 -12.597347 43.127869 2018.706177
6.160000 5.800000 1.800000 -11.624281 -37.819416 1565.432129
6.160000 5.800000 1.840000 9.635092 -33.659363 1225.787720
6.160000 5.800000 1.880000 23.273279 -13.881823 734.350525
6.160000 5.800000 1.920000 18.762289 10.451141 461.249847
6.160000 5.800000 1.960000 -0.998048 23.729555 564.087891
6.160000 5.800000 2.000000 -21.795870 19.330570 848.730896
6.160000 5.800000 2.040000 -30.972200 4.788078 982.202942
6.160000 5.800000 2.080000 -28.272846 -6.690710 844.119385
6.160000 5.800000 2.120000 -23.751961 -9.531266 655.000671
6.160000 5.800000 2.160000 -25.398788 -10.065980 746.422424
6.160000 5.800000 2.200000 -29.891842 -17.644142 1204.838013
6.160000 5.840000 1.800000 16.275833 -45.151520 2303.562500
6.160000 5.840000 1.840000 35.150940 -30.049421 2138.556396
6.160000 5.840000 1.880000 39.502911 -5.124401 1586.739502
6.160000 5.840000 1.920000 26.560503 15.911786 958.645264
6.160000 5.840000 1.960000 4.997549 22.508114 531.590698
6.160000 5.840000 2.000000 -12.570763 14.785871 376.646057
6.160000 5.840000 2.040000 -19.512184 1.442808 382.807037
6.160000 5.840000 2.080000 -18.395247 -9.152353 422.150665
6.160000 5.840000 2.120000 -15.444963 -15.508257 479.052917
6.160000 5.840000 2.160000 -12.934623 -21.403835 625.428650
6.160000 5.840000 2.200000 -7.529066 -28.893114 891.498840
6.160000 5.880000 1.800000 44.986912 -29.230648 2878.252930
6.160000 5.880000 1.840000 53.791016 -6.693959 2938.282471
6.160000 5.880000 1.880000 47.312477 16.530582 2511.730713
6.160000 5.880000 1.920000 29.476917 30.683233 1810.349487
6.160000 5.880000 1.960000 8.965729 31.913723 1098.869995
6.160000 5.880000 2.000000 -6.475966 22.818310 562.613403
6.160000 5.880000 2.040000 -13.369649 9.138871 262.266479
6.160000 5.880000 2.080000 -12.264765 -3.893473 165.583588
6.160000 5.880000 2.120000 -5.659025 -13.152727 205.018799
6.160000 5.880000 2.160000 3.654984 -17.392200 315.847565
6.160000 5.880000 2.200000 13.217296 -16.536741 448.160706
6.160000 5.920000 1.800000 55.889599 4.397175 3142.982422
6.160000 5.920000 1.840000 51.644707 26.174623 3352.286621
6.160000 5.920000 1.880000 37.417915 41.975677 3162.057861
6.160000 5.920000 1.920000 18.338533 48.563660 2694.730713
6.160000 5.920000 1.960000 -0.712209 45.359573 2057.998291
6.160000 5.920000 2.000000 -14.991220 33.445801 1343.358276
6.160000 5.920000 2.040000 -20.069864 16.535957 676.237305
6.160000 5.920000 2.080000 -14.415447 1.372843 209.689819
6.160000 5.920000 2.120000 -1.994439 -5.392904 33.061203
6.160000 5.920000 2.160000 9.278216 -2.165052 90.772743
6.160000 5.920000 2.200000 13.381742 6.033482 215.473938
6.160000 5.960000 1.800000 40.752945 37.176834 3042.919434
6.160000 5.960000 1.840000 26.978748 50.372925 3265.284424
6.160000 5.960000 1.880000 10.201242 56.314426 3275.380127
6.160000 5.960000 1.920000 -7.521012 55.484322 3135.075684
6.160000 5.960000 1.960000 -24.045845 46.695454 2758.667969
6.160000 5.960000 2.000000 -34.135941 29.935129 2061.374512
6.160000 5.960000 2.040000 -32.364799 10.759302 1163.242798
6.160000 5.960000 2.080000 -19.690975 -1.206630 389.190460
6.160000 5.960000 2.120000 -5.327458 -0.256450 28.447580
6.160000 5.960000 2.160000 0.333337 9.185728 84.488716
6.160000 5.960000 2.200000 -4.563479 16.074203 279.205353
6.160000 6.000000 1.800000 8.407721 50.506172 2621.563232
6.160000 6.000000 1.840000 -7.501705 52.031849 2763.588867
6.160000 6.000000 1.880000 -21.832140 48.619728 2840.520264
6.160000 6.000000 1.920000 -35.119656 40.484673 2872.398926
6.160000 6.000000 1.960000 -44.800751 25.841806 2674.906250
6.160000 6.000000 2.000000 -45.127892 6.961908 2084.994873
6.160000 6.000000 2.040000 -33.955418 -7.739627 1212.872192
6.160000 6.000000 2.080000 -18.057392 -10.274853 431.641998
6.160000 6.000000 2.120000 -8.901670 -1.899682 82.848526
6.160000 6.000000 2.160000 -11.748773 6.599316 181.584625
6.160000 6.000000 2.200000 -19.814838 5.163274 419.287201
6.160000 6.040000 1.800000 -21.559946 39.052361 1989.918213
6.160000 6.040000 1.840000 -32.909576 31.306973 2063.166748
6.160000 6.040000 1.880000 -40.860207 20.993061 2110.265137
6.160000 6.040000 1.920000 -45.314693 7.623028 2111.531982
6.160000 6.040000 1.960000 -43.066257 -8.014328 1918.932007
6.160000 6.040000 2.000000 -31.995321 -20.406372 1440.120605
6.160000 6.040000 2.040000 -16.478249 -22.892391 795.594238
6.160000 6.040000 2.080000 -5.921137 -15.201881 266.157043
6.160000 6.040000 2.120000 -6.233109 -5.763337 72.067703
6.160000 6.040000 2.160000 -13.116928 -4.439605 191.763885
6.160000 6.040000 2.200000 -15.557374 -12.399004 395.767212
6.160000 6.080000 1.800000 -33.134018 13.895836 1290.957397
6.160000 6.080000 1.840000 -37.119511 2.112366 1382.320068
6.160000 6.080000 1.880000 -36.167465 -11.106438 1431.438477
6.160000 6.080000 1.920000 -28.667000 -23.681305 1382.601074
6.160000 6.080000 1.960000 -14.749966 -30.863121 1170.093750
6.160000 6.080000 2.000000 0.570216 -28.389843 806.308350
6.160000 6.080000 2.040000 9.466618 -17.726814 403.856781
6.160000 6.080000 2.080000 8.040016 -6.829701 111.286682
6.160000 6.080000 2.120000 0.849751 -3.846984 15.521363
6.160000 6.080000 2.160000 -2.571270 -9.339666 93.840805
6.160000 6.080000 2.200000 3.259385 -15.313242 245.118973
6.160000 6.120000 1.800000 -24.877487 -6.796539 665.082275
6.160000 6.120000 1.840000 -22.618073 -18.175877 841.939697
6.160000 6.120000 1.880000 -12.596560 -29.237759 1013.519897
6.160000 6.120000 1.920000 4.649700 -32.902042 1104.164185
6.160000 6.120000 1.960000 21.535713 -24.336098 1056.032593
6.160000 6.120000 2.000000 28.343258 -7.211320 855.343384
6.160000 6.120000 2.040000 22.098354 7.659622 547.007080
6.160000 6.120000 2.080000 10.128201 11.448719 233.653610
6.160000 6.120000 2.120000 3.671424 5.389953 42.530945
6.160000 6.120000 2.160000 7.418907 -0.685087 55.509521
6.160000 6.120000 2.200000 15.509865 1.834222 243.920273
6.160000 6.160000 1.800000 -9.116385 -11.781017 221.900848
6.160000 6.160000 1.840000 -3.290917 -21.094381 455.803070
6.160000 6.160000 1.880000 12.861540 -25.545124 817.972534
6.160000 6.160000 1.920000 31.627108 -15.633555 1244.682007
6.160000 6.160000 1.960000 39.048206 6.734756 1570.119385
6.160000 6.160000 2.000000 28.676910 27.641796 1586.434082
6.160000 6.160000 2.040000 8.996662 33.650871 1213.321045
6.160000 6.160000 2.080000 -4.232280 24.783377 632.127930
6.160000 6.160000 2.120000 -3.284197 14.020952 207.373047
6.160000 6.160000 2.160000 4.719754 13.634302 208.170273
6.160000 6.160000 2.200000 6.513429 22.961029 569.633606
6.160000 6.200000 1.800000 -0.616627 -4.055987 16.831257
6.160000 6.200000 1.840000 7.122588 -11.867397 191.566376
6.160000 6.200000 1.880000 24.359886 -8.137585 659.624329
6.160000 6.200000 1.920000 35.249611 12.428903 1397.012695
6.160000 6.200000 1.960000 26.365553 37.463348 2098.644775
6.160000 6.200000 2.000000 1.833910 48.128738 2319.738770
6.160000 6.200000 2.040000 -19.762314 38.259872 1854.366943
6.160000 6.200000 2.080000 -24.045128 20.533110 999.776733
6.160000 6.200000 2.120000 -14.958317 12.761599 386.609619
6.160000 6.200000 2.160000 -9.074480 19.264038 453.449341
6.160000 6.200000 2.200000 -16.735813 27.637222 1043.903442
6.200000 5.800000 1.800000 -11.589493 -33.988148 1289.510498
6.200000 5.800000 1.840000 5.044156 -29.193365 877.696045
6.200000 5.800000 1.880000 12.968843 -11.673077 304.451599
6.200000 5.800000 1.920000 4.355424 6.391677 59.823257
6.200000 5.800000 1.960000 -14.710756 11.283346 343.720276
6.200000 5.800000 2.000000 -29.464985 0.633726 868.586975
6.200000 5.800000 2.040000 -30.516048 -14.790494 1149.987915
6.200000 5.800000 2.080000 -22.139481 -22.521507 997.374878
6.200000 5.800000 2.120000 -16.174574 -20.952276 700.614746
6.200000 5.800000 2.160000 -18.206806 -19.642250 717.305786
6.200000 5.800000 2.200000 -21.154078 -27.126787 1183.357666
6.200000 5.840000 1.800000 16.259857 -37.414673 1664.240723
6.200000 5.840000 1.840000 27.941963 -19.666687 1167.531860
6.200000 5.840000 1.880000 22.445383 1.160288 505.141510
6.200000 5.840000 1.920000 4.022885 10.530469 127.074387
6.200000 5.840000 1.960000 -13.475648 3.662522 195.007156
6.200000 5.840000 2.000000 -19.069695 -11.395683 493.514862
6.200000 5.840000 2.040000 -13.388069 -22.549641 687.726685
6.200000 5.840000 2.080000 -5.584974 -25.044003 658.394043
6.200000 5.840000 2.120000 -2.536761 -24.035547 584.142700
6.200000 5.840000 2.160000 -1.934449 -26.655470 714.256165
6.200000 5.840000 2.200000 3.751842 -32.624931 1078.462402
6.200000 5.880000 1.800000 40.421524 -17.154331 1928.170776
6.200000 5.880000 1.840000 36.860069 6.312488 1398.512207
6.200000 5.880000 1.880000 18.310349 18.698441 684.900513
6.200000 5.880000 1.920000 -0.881650 13.932241 194.884659
6.200000 5.880000 1.960000 -8.694349 -0.617297 75.972771
6.200000 5.880000 2.000000 -4.447483 -12.760212 182.603119
6.200000 5.880000 2.040000 3.749163 -16.551569 288.010651
6.200000 5.880000 2.080000 8.715324 -15.213939 307.420807
6.200000 5.880000 2.120000 10.557911 -14.751062 329.063324
6.200000 5.880000 2.160000 14.115335 -16.313488 465.372559
6.200000 5.880000 2.200000 21.651493 -15.333176 703.893433
6.200000 5.920000 1.800000 42.710316 16.525354 2097.258301
6.200000 5.920000 1.840000 22.897747 32.227028 1562.888184
6.200000 5.920000 1.880000 0.707837 28.456062 810.248535
6.200000 5.920000 1.920000 -9.220875 12.530939 242.048950
6.200000 5.920000 1.960000 -4.892913 -1.426124 25.974430
6.200000 5.920000 2.000000 4.828541 -5.546024 54.073196
6.200000 5.920000 2.040000 10.998325 -2.493302 127.179718
6.200000 5.920000 2.080000 12.205650 0.929512 149.841904
6.200000 5.920000 2.120000 12.600024 1.985670 162.703491
6.200000 5.920000 2.160000 14.881893 3.314339 232.455597
6.200000 5.920000 2.200000 17.017872 7.826026 350.854645
6.200000 5.960000 1.800000 19.808624 42.184124 2171.881836
6.200000 5.960000 1.840000 -6.368687 40.309662 1665.429077
6.200000 5.960000 1.880000 -20.277283 22.063259 897.955566
6.200000 5.960000 1.920000 -16.338383 3.688543 280.548096
6.200000 5.960000 1.960000 -3.421588 -2.903768 20.139130
6.200000 5.960000 2.000000 6.221503 1.661937 41.469139
6.200000 5.960000 2.040000 7.841101 9.066161 143.678131
6.200000 5.960000 2.080000 4.865874 13.234628 198.832092
6.200000 5.960000 2.120000 1.891095 14.359839 209.781235
6.200000 5.960000 2.160000 -0.399525 14.992682 224.940155
6.200000 5.960000 2.200000 -3.523971 15.271586 245.639725
6.200000 6.000000 1.800000 -13.385056 43.789055 2096.641113
6.200000 6.000000 1.840000 -32.314426 25.267918 1682.689819
6.200000 6.000000 1.880000 -31.278757 1.746543 981.411072
6.200000 6.000000 1.920000 -15.792988 -10.636221 362.547668
6.200000 6.000000 1.960000 -0.083673 -7.498216 56.230240
6.200000 6.000000 2.000000 5.886973 3.739837 48.642834
6.200000 6.000000 2.040000 2.108899 13.242246 179.804535
6.200000 6.000000 2.080000 -5.700333 16.551712 306.452972
6.200000 6.000000 2.120000 -12.823623 14.568598 376.689331
6.200000 6.000000 2.160000 -17.469316 9.317092 391.985229
6.200000 6.000000 2.200000 -18.532444 2.159536 348.115082
6.200000 6.040000 1.800000 -35.550320 23.118179 1798.275391
6.200000 6.040000 1.840000 -39.475849 -2.008338 1562.376099
6.200000 6.040000 1.880000 -25.073341 -20.805029 1061.521729
6.200000 6.040000 1.920000 -4.052272 -23.012852 546.012268
6.200000 6.040000 1.960000 9.782786 -10.961834 215.864716
6.200000 6.040000 2.000000 10.171470 4.852996 127.010361
6.200000 6.040000 2.040000 0.183778 14.526945 211.065903
6.200000 6.040000 2.080000 -12.505984 14.113703 355.596252
6.200000 6.040000 2.120000 -20.952942 5.453549 468.766998
6.200000 6.040000 2.160000 -21.401356 -6.455797 499.695343
6.200000 6.040000 2.200000 -13.781084 -15.654972 434.996429
6.200000 6.080000 1.800000 -35.672653 -2.752257 1280.113159
6.200000 6.080000 1.840000 -26.724438 -23.595032 1270.921143
6.200000 6.080000 1.880000 -5.681150 -32.497475 1088.361328
6.200000 6.080000 1.920000 15.057011 -24.498957 826.912415
6.200000 6.080000 1.960000 23.690666 -5.311604 589.460815
6.200000 6.080000 2.000000 16.499842 12.907305 438.843292
6.200000 6.080000 2.040000 -0.396255 19.540936 382.005188
6.200000 6.080000 2.080000 -15.558436 11.922501 384.210968
6.200000 6.080000 2.120000 -19.642330 -3.664387 399.248871
6.200000 6.080000 2.160000 -11.003949 -16.560299 395.330383
6.200000 6.080000 2.200000 3.880719 -18.712513 365.218109
6.200000 6.120000 1.800000 -20.346163 -16.245253 677.874573
6.200000 6.120000 1.840000 -6.429579 -28.429447 849.572937
6.200000 6.120000 1.880000 14.685012 -27.922882 995.336914
6.200000 6.120000 1.920000 30.960865 -11.802408 1097.871948
6.200000 6.120000 1.960000 31.302526 11.842437 1120.091431
6.200000 6.120000 2.000000 14.805455 28.300541 1020.122070
6.200000 6.120000 2.040000 -7.224284 27.194662 791.739868
6.200000 6.120000 2.080000 -19.434126 10.990749 498.481812
6.200000 6.120000 2.120000 -14.495199 -6.809058 256.474060
6.200000 6.120000 2.160000 1.446625 -12.719780 163.885529
6.200000 6.120000 2.200000 14.708391 -3.846294 231.130753
6.200000 6.160000 1.800000 -5.946814 -13.073131 206.271332
6.200000 6.160000 1.840000 6.748206 -19.335806 419.411682
6.200000 6.160000 1.880000 24.536255 -12.625629 761.434326
6.200000 6.160000 1.920000 33.502148 8.465351 1194.056152
6.200000 6.160000 1.960000 23.473265 31.665354 1553.688721
6.200000 6.160000 2.000000 -0.811812 40.224232 1618.647827
6.200000 6.160000 2.040000 -22.046595 28.230301 1283.002197
6.200000 6.160000 2.080000 -25.387825 6.780034 690.510559
6.200000 6.160000 2.120000 -11.756379 -5.941885 173.518448
6.200000 6.160000 2.160000 3.795412 -1.168190 15.769819
6.200000 6.160000 2.200000 6.850059 13.608915 232.125885
6.200000 6.200000 1.800000 -3.668760 -3.249149 24.016769
6.200000 6.200000 1.840000 7.279106 -8.208965 120.372498
6.200000 6.200000 1.880000 21.065365 1.826966 447.087402
6.200000 6.200000 1.920000 21.427002 23.584759 1015.357300
6.200000 6.200000 1.960000 2.641996 39.929077 1601.311279
6.200000 6.200000 2.000000 -22.843466 36.288063 1838.647461
6.200000 6.200000 2.040000 -35.557762 15.753136 1512.515747
6.200000 6.200000 2.080000 -27.996830 -3.511467 796.152893
6.200000 6.200000 2.120000 -11.529549 -6.194440 171.301575
6.200000 6.200000 2.160000 -4.125020 5.663242 49.088097
6.200000 6.200000 2.200000 -12.265663 16.516403 423.238037
