#kx 	ky 	kz 	real 	imag 	intensity
5.800000 5.800000 1.983333 -22.928059 -78.573753 6699.530273
5.800000 5.800000 1.991667 24.906765 -37.804787 2049.548828
5.800000 5.800000 2.000000 1.494233 -19.564915 385.018616
5.800000 5.800000 2.008333 -14.551607 -96.951195 9611.283203
5.800000 5.800000 2.016667 129.136185 -60.463478 20331.986328
5.800000 5.900000 1.983333 -68.980919 24.111034 5339.708984
5.800000 5.900000 1.991667 -6.863247 -45.669540 2132.811279
5.800000 5.900000 2.000000 30.887402 5.052776 979.562134
5.800000 5.900000 2.008333 -3.647415 -2.063362 17.561100
5.800000 5.900000 2.016667 40.855591 -22.349083 2168.660889
5.800000 6.000000 1.983333 -76.520309 -129.971649 22747.986328
5.800000 6.000000 1.991667 156.550125 -94.746910 33484.917969
5.800000 6.000000 2.000000 38.838730 146.507629 22972.933594
5.800000 6.000000 2.008333 -55.556290 -58.591293 6519.440918
5.800000 6.000000 2.016667 114.419044 63.535301 17128.453125
5.800000 6.100000 1.983333 45.097977 -62.193909 5901.909668
5.800000 6.100000 1.991667 157.689636 189.445099 60755.468750
5.800000 6.100000 2.000000 -226.088028 99.318604 60979.980469
5.800000 6.100000 2.008333 29.788780 -43.502731 2779.859131
5.800000 6.100000 2.016667 -189.134979 75.770294 41513.175781
5.800000 6.200000 1.983333 -11.814453 -39.293945 1683.595459
5.800000 6.200000 1.991667 -101.497253 139.698944 29817.488281
5.800000 6.200000 2.000000 -96.990189 -147.668137 31212.976562
5.800000 6.200000 2.008333 -30.846872 16.284615 1216.718262
5.800000 6.200000 2.016667 -19.810074 -258.944427 67444.656250
5.900000 5.800000 1.983333 -57.058105 32.296776 4298.708984
5.900000 5.800000 1.991667 24.364271 -162.611816 27036.220703
5.900000 5.800000 2.000000 51.532387 90.259323 10802.332031
5.900000 5.800000 2.008333 -49.698902 -118.347885 16476.203125
5.900000 5.800000 2.016667 139.707336 36.863091 20877.027344
5.900000 5.900000 1.983333 167.747040 -707.009094 528000.937500
5.900000 5.900000 1.991667 216.259506 165.208038 74061.875000
5.900000 5.900000 2.000000 -208.363007 -155.998978 67750.820312
5.900000 5.900000 2.008333 -65.334213 -289.673401 88179.242188
5.900000 5.900000 2.016667 236.413101 -490.485046 296466.750000
5.900000 6.000000 1.983333 1039.700684 115.201683 1094248.875000
5.900000 6.000000 1.991667 -180.338577 248.938156 94492.210938
5.900000 6.000000 2.000000 190.385803 -215.956665 82884.031250
5.900000 6.000000 2.008333 282.783081 -297.516113 168482.109375
5.900000 6.000000 2.016667 915.886780 210.900040 883327.375000
5.900000 6.100000 1.983333 97.799301 587.054810 354198.062500
5.900000 6.100000 1.991667 -186.125183 27.642632 35406.695312
5.900000 6.100000 2.000000 25.805273 32.606670 1729.107056
5.900000 6.100000 2.008333 242.999908 58.524094 62474.027344
5.900000 6.100000 2.016667 -12.044985 548.935181 301474.937500
5.900000 6.200000 1.983333 100.412201 139.760620 29615.640625
5.900000 6.200000 1.991667 -223.423813 -17.289463 50217.125000
5.900000 6.200000 2.000000 62.877827 -148.726425 26073.169922
5.900000 6.200000 2.008333 34.751686 -10.539036 1318.750977
5.900000 6.200000 2.016667 103.526215 -2.968261 10726.487305
6.000000 5.800000 1.983333 -106.620811 -121.514236 26133.707031
6.000000 5.800000 1.991667 205.759766 -89.486115 50344.847656
6.000000 5.800000 2.000000 -43.168968 71.754776 7012.307617
6.000000 5.800000 2.008333 85.139679 -167.605408 35340.335938
6.000000 5.800000 2.016667 157.016327 88.787750 32537.390625
6.000000 5.900000 1.983333 1117.743774 125.646034 1265138.000000
6.000000 5.900000 1.991667 -203.598236 323.622345 146183.656250
6.000000 5.900000 2.000000 244.270172 -329.936584 168526.062500
6.000000 5.900000 2.008333 442.189728 -180.752808 228203.328125
6.000000 5.900000 2.016667 876.986389 290.376312 853423.500000
6.000000 6.000000 1.983333 -33.186813 1577.963013 2491068.500000
6.000000 6.000000 1.991667 -375.803497 -344.684937 260035.968750
6.000000 6.000000 2.000000 460.504272 333.580505 323340.125000
6.000000 6.000000 2.008333 440.039337 342.289185 310796.500000
6.000000 6.000000 2.016667 -7.296021 1445.778564 2090328.875000
6.000000 6.100000 1.983333 -861.179871 200.432556 781803.937500
6.000000 6.100000 1.991667 102.740677 -217.941086 58053.960938
6.000000 6.100000 2.000000 -168.648468 174.440140 58871.671875
6.000000 6.100000 2.008333 6.217865 306.278198 93845.000000
6.000000 6.100000 2.016667 -909.535278 223.933136 877400.500000
6.000000 6.200000 1.983333 -174.803848 174.223175 60910.101562
6.000000 6.200000 1.991667 -74.235146 -181.066345 38295.875000
6.000000 6.200000 2.000000 170.620117 -39.902821 30703.458984
6.000000 6.200000 2.008333 30.110863 126.368759 16875.726562
6.000000 6.200000 2.016667 -27.403820 -30.160797 1660.643066
6.100000 5.800000 1.983333 31.062750 -105.194916 12030.865234
6.100000 5.800000 1.991667 142.306427 46.283813 22393.310547
6.100000 5.800000 2.000000 -58.491131 100.302727 13481.849609
6.100000 5.800000 2.008333 64.888939 -67.431458 8757.576172
6.100000 5.800000 2.016667 66.196022 178.402832 36209.484375
6.100000 5.900000 1.983333 -3.845499 759.763123 577254.812500
6.100000 5.900000 1.991667 -211.377777 -112.225067 57275.031250
6.100000 5.900000 2.000000 191.189011 116.608704 50150.828125
6.100000 5.900000 2.008333 230.796814 240.773071 111238.843750
6.100000 5.900000 2.016667 -148.481750 661.130615 459140.531250
6.100000 6.000000 1.983333 -1078.252441 64.011841 1166725.875000
6.100000 6.000000 1.991667 220.305695 -361.745453 179394.375000
6.100000 6.000000 2.000000 -124.216812 321.374084 118711.125000
6.100000 6.000000 2.008333 -158.682922 302.317932 116576.406250
6.100000 6.000000 2.016667 -881.809509 119.711044 791918.750000
6.100000 6.100000 1.983333 -148.516479 -575.200928 352913.250000
6.100000 6.100000 1.991667 236.578384 40.154182 57581.691406
6.100000 6.100000 2.000000 -73.189789 -64.117432 9467.790039
6.100000 6.100000 2.008333 -128.365692 69.806190 21350.654297
6.100000 6.100000 2.016667 -201.338531 -478.185638 269198.687500
6.100000 6.200000 1.983333 -113.488434 -56.784237 16104.074219
6.100000 6.200000 1.991667 115.952568 -59.709908 17010.271484
6.100000 6.200000 2.000000 75.186478 195.760315 43975.109375
6.100000 6.200000 2.008333 -142.970505 77.536644 26452.496094
6.100000 6.200000 2.016667 12.546295 22.883804 681.078003
6.200000 5.800000 1.983333 50.613430 -60.683968 6244.263184
6.200000 5.800000 1.991667 91.801231 57.900742 11779.961914
6.200000 5.800000 2.000000 -137.991547 -29.136894 19890.625000
6.200000 5.800000 2.008333 141.006805 -109.536629 31881.193359
6.200000 5.800000 2.016667 -6.445280 121.233177 14739.025391
6.200000 5.900000 1.983333 -79.174721 -47.767090 8550.331055
6.200000 5.900000 1.991667 55.333839 -5.527793 3092.390137
6.200000 5.900000 2.000000 44.379513 -36.794701 3323.391113
6.200000 5.900000 2.008333 61.579758 129.800323 20640.189453
6.200000 5.900000 2.016667 -103.109718 -18.338718 10967.922852
6.200000 6.000000 1.983333 93.829330 -174.974045 39419.859375
6.200000 6.000000 1.991667 165.546753 30.543549 28338.634766
6.200000 6.000000 2.000000 46.940136 85.510971 9515.501953
6.200000 6.000000 2.008333 -18.853439 36.955379 1721.152222
6.200000 6.000000 2.016667 59.576229 21.025902 3991.415771
6.200000 6.100000 1.983333 128.114960 71.091957 21467.509766
6.200000 6.100000 1.991667 91.075371 149.425354 30622.660156
6.200000 6.100000 2.000000 -32.210678 162.013428 27285.878906
6.200000 6.100000 2.008333 -47.288918 85.508896 9548.013672
6.200000 6.100000 2.016667 -87.179245 118.294891 21593.902344
6.200000 6.200000 1.983333 -32.653831 40.530113 2708.962891
6.200000 6.200000 1.991667 -3.981117 99.231354 9862.710938
6.200000 6.200000 2.000000 -191.094269 63.005836 40486.753906
6.200000 6.200000 2.008333 -78.310646 -73.815254 11581.249023
6.200000 6.200000 2.016667 -110.745926 -30.878517 13218.142578
