#kx 	ky 	kz 	real 	imag 	intensity
7.800000 1.800000 -4.200000 -20.149969 7.559970 463.174377
7.800000 1.800000 -4.160000 -14.037356 -5.538444 227.721741
7.800000 1.800000 -4.120000 -4.383390 -4.580571 40.195740
7.800000 1.800000 -4.080000 -6.270720 3.161264 49.315514
7.800000 1.800000 -4.040000 -18.112774 1.024323 329.121796
7.800000 1.800000 -4.000000 -23.009407 -15.691759 775.664124
7.800000 1.800000 -3.960000 -9.169941 -32.201141 1121.001221
7.800000 1.800000 -3.920000 14.382999 -30.164906 1116.792236
7.800000 1.800000 -3.880000 25.901131 -9.317904 757.691956
7.800000 1.800000 -3.840000 14.569482 10.426808 320.988129
7.800000 1.800000 -3.800000 -6.862843 9.806445 143.264969
7.800000 1.840000 -4.200000 -16.967678 -12.727708 449.896667
7.800000 1.840000 -4.160000 -3.852065 -21.594410 481.156952
7.800000 1.840000 -4.120000 7.590878 -17.550241 365.632416
7.800000 1.840000 -4.080000 8.806560 -10.172071 181.026520
7.800000 1.840000 -4.040000 4.754266 -9.867632 119.973213
7.800000 1.840000 -4.000000 6.015740 -15.599648 279.538147
7.800000 1.840000 -3.960000 14.884455 -17.254543 519.266235
7.800000 1.840000 -3.920000 22.275879 -9.173607 580.369873
7.800000 1.840000 -3.880000 19.077896 1.826971 367.303955
7.800000 1.840000 -3.840000 8.124868 3.947108 81.593155
7.800000 1.840000 -3.800000 2.024548 -5.269318 31.864502
7.800000 1.880000 -4.200000 -2.393745 -22.527256 513.207275
7.800000 1.880000 -4.160000 14.393341 -24.901588 827.257385
7.800000 1.880000 -4.120000 26.951710 -15.876538 978.459106
7.800000 1.880000 -4.080000 29.760445 -3.293015 896.528015
7.800000 1.880000 -4.040000 25.343224 5.506554 672.601135
7.800000 1.880000 -4.000000 19.103043 8.816609 442.658844
7.800000 1.880000 -3.960000 13.878694 8.560432 265.899139
7.800000 1.880000 -3.920000 10.009251 5.916914 135.194977
7.800000 1.880000 -3.880000 8.687727 0.858665 76.213905
7.800000 1.880000 -3.840000 12.376977 -4.598605 174.336731
7.800000 1.880000 -3.800000 20.840448 -5.406025 463.549377
7.800000 1.920000 -4.200000 11.426866 -19.104670 495.561646
7.800000 1.920000 -4.160000 28.492880 -14.171350 1012.671387
7.800000 1.920000 -4.120000 38.506691 1.611094 1485.360840
7.800000 1.920000 -4.080000 35.677116 20.310179 1685.360107
7.800000 1.920000 -4.040000 21.418907 32.218140 1496.778076
7.800000 1.920000 -4.000000 3.524885 31.247200 988.812317
7.800000 1.920000 -3.960000 -7.957660 18.397038 401.775330
7.800000 1.920000 -3.920000 -6.312253 1.663636 42.612225
7.800000 1.920000 -3.880000 7.426357 -8.126758 121.194977
7.800000 1.920000 -3.840000 24.306894 -4.028927 607.057373
7.800000 1.920000 -3.800000 32.777504 11.877791 1215.446655
7.800000 1.960000 -4.200000 16.595659 -9.131332 358.797119
7.800000 1.960000 -4.160000 29.907509 2.703020 901.765442
7.800000 1.960000 -4.120000 31.658665 22.843803 1524.110352
7.800000 1.960000 -4.080000 17.816498 40.127151 1927.615845
7.800000 1.960000 -4.040000 -5.497997 42.857456 1866.989624
7.800000 1.960000 -4.000000 -24.229574 27.477163 1342.066772
7.800000 1.960000 -3.960000 -25.482105 2.885082 657.661377
7.800000 1.960000 -3.920000 -7.533251 -14.355822 262.839478
7.800000 1.960000 -3.880000 17.551462 -11.771019 446.610718
7.800000 1.960000 -3.840000 32.071373 9.258895 1114.300171
7.800000 1.960000 -3.800000 25.904879 34.125000 1835.578369
7.800000 2.000000 -4.200000 13.384595 -0.628893 179.542892
7.800000 2.000000 -4.160000 18.641541 14.848354 567.980652
7.800000 2.000000 -4.120000 9.623379 31.456144 1082.098389
7.800000 2.000000 -4.080000 -10.969649 36.815144 1475.687988
7.800000 2.000000 -4.040000 -30.611174 24.274235 1526.282471
7.800000 2.000000 -4.000000 -34.805695 -0.264118 1211.506104
7.800000 2.000000 -3.960000 -18.454807 -20.635532 766.405151
7.800000 2.000000 -3.920000 8.624118 -21.727898 546.476929
7.800000 2.000000 -3.880000 27.800747 -1.467614 775.035400
7.800000 2.000000 -3.840000 25.424107 26.828163 1366.135498
7.800000 2.000000 -3.800000 3.149955 44.303452 1972.718018
7.800000 2.040000 -4.200000 6.159033 2.834542 45.968319
7.800000 2.040000 -4.160000 1.860071 15.177099 233.804214
7.800000 2.040000 -4.120000 -12.462641 19.675388 542.438354
7.800000 2.040000 -4.080000 -26.847477 10.141035 823.627625
7.800000 2.040000 -4.040000 -29.308525 -9.174946 943.169250
7.800000 2.040000 -4.000000 -15.270505 -25.387390 877.707886
7.800000 2.040000 -3.960000 7.820726 -26.032169 738.837585
7.800000 2.040000 -3.920000 24.982035 -8.645073 698.839355
7.800000 2.040000 -3.880000 24.286854 16.760311 870.759277
7.800000 2.040000 -3.840000 5.412111 34.578224 1224.944458
7.800000 2.040000 -3.800000 -20.449646 34.456429 1605.433472
7.800000 2.080000 -4.200000 -1.734326 1.324760 4.762876
7.800000 2.080000 -4.160000 -11.086344 3.442035 134.754623
7.800000 2.080000 -4.120000 -19.072395 -5.677878 395.994568
7.800000 2.080000 -4.080000 -15.893103 -20.420443 669.585205
7.800000 2.080000 -4.040000 -0.443898 -29.004398 841.452148
7.800000 2.080000 -4.000000 18.227406 -23.211126 870.994751
7.800000 2.080000 -3.960000 27.940599 -4.991719 805.594360
7.800000 2.080000 -3.920000 22.412025 15.333417 737.412598
7.800000 2.080000 -3.880000 4.886568 26.793743 741.783203
7.800000 2.080000 -3.840000 -15.428332 24.552650 840.866089
7.800000 2.080000 -3.800000 -29.774593 11.056261 1008.767334
7.800000 2.120000 -4.200000 -8.462438 -4.896482 95.588387
7.800000 2.120000 -4.160000 -13.450899 -14.766389 398.972900
7.800000 2.120000 -4.120000 -5.605361 -28.759460 858.526611
7.800000 2.120000 -4.080000 14.379458 -32.684933 1275.073608
7.800000 2.120000 -4.040000 33.233658 -18.976868 1464.597656
7.800000 2.120000 -4.000000 36.655418 5.401974 1372.801025
7.800000 2.120000 -3.960000 21.963766 24.796011 1097.249146
7.800000 2.120000 -3.920000 -0.435920 28.308268 801.548035
7.800000 2.120000 -3.880000 -17.183434 17.488930 601.133057
7.800000 2.120000 -3.840000 -22.686008 1.905530 518.286011
7.800000 2.120000 -3.800000 -20.251392 -10.997723 531.068787
7.800000 2.160000 -4.200000 -11.301180 -15.633722 372.129944
7.800000 2.160000 -4.160000 -3.683290 -31.187695 986.238953
7.800000 2.160000 -4.120000 19.403730 -36.530334 1710.970093
7.800000 2.160000 -4.080000 42.819912 -19.975052 2232.547363
7.800000 2.160000 -4.040000 46.813194 11.419563 2321.881592
7.800000 2.160000 -4.000000 25.901669 36.223400 1983.031250
7.800000 2.160000 -3.960000 -5.274398 37.538483 1436.956909
7.800000 2.160000 -3.920000 -25.260193 17.595200 947.668335
7.800000 2.160000 -3.880000 -24.568148 -6.227050 642.369995
7.800000 2.160000 -3.840000 -11.276239 -18.754427 478.882080
7.800000 2.160000 -3.800000 0.575604 -19.315662 373.426147
7.800000 2.200000 -4.200000 -6.778350 -28.003542 830.144409
7.800000 2.200000 -4.160000 14.218237 -38.602982 1692.348389
7.800000 2.200000 -4.120000 41.859451 -26.991611 2480.760742
7.800000 2.200000 -4.080000 53.049458 5.835655 2848.299805
7.800000 2.200000 -4.040000 34.779938 38.182617 2667.556152
7.800000 2.200000 -4.000000 -1.784966 45.857437 2106.090576
7.800000 2.200000 -3.960000 -30.073137 24.208448 1490.442627
7.800000 2.200000 -3.920000 -31.653179 -8.091625 1067.398193
7.800000 2.200000 -3.880000 -11.250603 -27.025364 856.946350
7.800000 2.200000 -3.840000 10.878463 -24.359709 711.736328
7.800000 2.200000 -3.800000 19.687267 -11.201811 513.069092
7.840000 1.800000 -4.200000 -4.953105 5.750494 57.601429
7.840000 1.800000 -4.160000 -3.337040 4.655705 32.811428
7.840000 1.800000 -4.120000 -6.482716 6.698721 86.898468
7.840000 1.800000 -4.080000 -14.769915 2.565205 224.730652
7.840000 1.800000 -4.040000 -17.627417 -11.548306 444.089172
7.840000 1.800000 -4.000000 -5.806976 -25.643864 691.328674
7.840000 1.800000 -3.960000 15.034025 -24.730385 837.613831
7.840000 1.800000 -3.920000 26.880100 -6.308867 762.341614
7.840000 1.800000 -3.880000 17.594196 13.774517 499.293091
7.840000 1.800000 -3.840000 -4.660570 15.862825 273.350128
7.840000 1.800000 -3.800000 -17.905617 -2.931822 329.206696
7.840000 1.840000 -4.200000 -1.198039 -3.377819 12.844959
7.840000 1.840000 -4.160000 5.973653 -5.393852 64.778168
7.840000 1.840000 -4.120000 11.000793 -1.714096 123.955582
7.840000 1.840000 -4.080000 11.448268 2.501537 137.320526
7.840000 1.840000 -4.040000 10.582428 4.174076 129.410690
7.840000 1.840000 -4.000000 11.218735 5.578002 156.974121
7.840000 1.840000 -3.960000 10.988770 9.581211 212.552673
7.840000 1.840000 -3.920000 5.718496 13.618752 218.171600
7.840000 1.840000 -3.880000 -3.254429 11.217089 136.414383
7.840000 1.840000 -3.840000 -7.782063 0.277209 60.637356
7.840000 1.840000 -3.800000 -0.930502 -11.922579 143.013718
7.840000 1.880000 -4.200000 5.785161 -5.649824 65.388596
7.840000 1.880000 -4.160000 19.712955 -2.969175 397.416626
7.840000 1.880000 -4.120000 28.514820 11.570452 946.970337
7.840000 1.880000 -4.080000 23.952934 30.074604 1478.224854
7.840000 1.880000 -4.040000 6.913605 41.046955 1732.650513
7.840000 1.880000 -4.000000 -13.484968 37.639374 1598.566772
7.840000 1.880000 -3.960000 -26.352566 21.749088 1167.480469
7.840000 1.880000 -3.920000 -25.654388 2.034973 662.288757
7.840000 1.880000 -3.880000 -12.973627 -11.652685 304.100067
7.840000 1.880000 -3.840000 4.245358 -13.550238 201.632004
7.840000 1.880000 -3.800000 17.116039 -4.489717 313.116364
7.840000 1.920000 -4.200000 9.925186 -2.757755 106.114540
7.840000 1.920000 -4.160000 25.752548 10.502417 773.494507
7.840000 1.920000 -4.120000 26.105297 37.340378 2075.790283
7.840000 1.920000 -4.080000 2.790215 59.908142 3596.770996
7.840000 1.920000 -4.040000 -34.009048 59.048248 4643.311035
7.840000 1.920000 -4.000000 -61.341965 30.564816 4697.044434
7.840000 1.920000 -3.960000 -60.712402 -9.654671 3779.208496
7.840000 1.920000 -3.920000 -32.693554 -36.903641 2430.747070
7.840000 1.920000 -3.880000 3.592729 -36.181877 1322.035889
7.840000 1.920000 -3.840000 25.516344 -12.531869 808.131531
7.840000 1.920000 -3.800000 23.528257 14.832376 773.578247
7.840000 1.960000 -4.200000 9.709715 0.766378 94.865898
7.840000 1.960000 -4.160000 17.977060 24.536892 925.233765
7.840000 1.960000 -4.120000 0.339554 52.850670 2793.308594
7.840000 1.960000 -4.080000 -40.366802 60.042320 5234.559082
7.840000 1.960000 -4.040000 -78.966141 31.536659 7230.212402
7.840000 1.960000 -4.000000 -86.094040 -20.428154 7829.493164
7.840000 1.960000 -3.960000 -52.884068 -63.290035 6802.353516
7.840000 1.960000 -3.920000 0.005028 -69.227768 4792.483887
7.840000 1.960000 -3.880000 38.114845 -37.236984 2839.334473
7.840000 1.960000 -3.840000 40.222988 7.155912 1669.095825
7.840000 1.960000 -3.800000 13.032880 33.756630 1309.365967
7.840000 2.000000 -4.200000 7.030687 2.275317 54.607632
7.840000 2.000000 -4.160000 0.772233 27.975742 783.238464
7.840000 2.000000 -4.120000 -31.449821 41.816383 2737.701172
7.840000 2.000000 -4.080000 -70.974976 22.529686 5545.034180
7.840000 2.000000 -4.040000 -85.980339 -27.006088 8121.947266
7.840000 2.000000 -4.000000 -58.000389 -76.971413 9288.643555
7.840000 2.000000 -3.960000 -0.207663 -92.436058 8544.467773
7.840000 2.000000 -3.920000 50.628754 -61.955326 6401.733398
7.840000 2.000000 -3.880000 62.848045 -7.367381 4004.155029
7.840000 2.000000 -3.840000 34.200089 34.236202 2341.763672
7.840000 2.000000 -3.800000 -9.248748 39.954067 1681.866821
7.840000 2.040000 -4.200000 3.626668 1.526451 15.482775
7.840000 2.040000 -4.160000 -14.758664 17.101086 510.265320
7.840000 2.040000 -4.120000 -45.609715 8.811033 2157.880371
7.840000 2.040000 -4.080000 -62.540516 -28.041687 4697.652344
7.840000 2.040000 -4.040000 -43.857517 -72.591034 7192.939941
7.840000 2.040000 -4.000000 6.461811 -92.147186 8532.858398
7.840000 2.040000 -3.960000 58.328506 -68.802750 8136.033203
7.840000 2.040000 -3.920000 78.035309 -15.497471 6329.680664
7.840000 2.040000 -3.880000 54.705330 33.392826 4107.753906
7.840000 2.040000 -3.840000 7.645061 48.919167 2451.531982
7.840000 2.040000 -3.800000 -30.860971 28.238140 1749.792114
7.840000 2.080000 -4.200000 0.212955 -1.722899 3.013731
7.840000 2.080000 -4.160000 -18.825176 -2.478434 360.529907
7.840000 2.080000 -4.120000 -31.727608 -24.850510 1624.188965
7.840000 2.080000 -4.080000 -19.889076 -56.165611 3550.151367
7.840000 2.080000 -4.040000 17.428616 -71.464233 5410.893555
7.840000 2.080000 -4.000000 59.135937 -53.777611 6389.090820
7.840000 2.080000 -3.960000 77.416519 -9.544362 6084.412109
7.840000 2.080000 -3.920000 59.485275 34.973896 4761.671387
7.840000 2.080000 -3.880000 17.288380 53.430481 3153.704590
7.840000 2.080000 -3.840000 -22.574112 38.328396 1978.656494
7.840000 2.080000 -3.800000 -38.953384 3.740415 1531.356934
7.840000 2.120000 -4.200000 -1.500432 -8.250695 70.325272
7.840000 2.120000 -4.160000 -8.889692 -20.356804 493.426086
7.840000 2.120000 -4.120000 0.266006 -38.868481 1510.829590
7.840000 2.120000 -4.080000 26.674208 -45.746578 2804.262939
7.840000 2.120000 -4.040000 54.729973 -28.957813 3833.924805
7.840000 2.120000 -4.000000 64.196396 5.955202 4156.641602
7.840000 2.120000 -3.960000 46.537083 39.106384 3695.009277
7.840000 2.120000 -3.920000 11.507239 51.283531 2762.416992
7.840000 2.120000 -3.880000 -20.888288 37.470661 1840.370972
7.840000 2.120000 -3.840000 -34.921833 8.150612 1285.966919
7.840000 2.120000 -3.800000 -27.748203 -20.403223 1186.254272
7.840000 2.160000 -4.200000 1.752978 -16.832855 286.417938
7.840000 2.160000 -4.160000 9.848286 -27.928871 877.010559
7.840000 2.160000 -4.120000 30.152557 -28.743076 1735.341064
7.840000 2.160000 -4.080000 48.757858 -10.659201 2490.947510
7.840000 2.160000 -4.040000 49.379883 19.109028 2803.527832
7.840000 2.160000 -4.000000 28.047810 42.306419 2576.512695
7.840000 2.160000 -3.960000 -3.145866 44.572838 1996.634399
7.840000 2.160000 -3.920000 -26.275768 26.309057 1382.582520
7.840000 2.160000 -3.880000 -31.240910 0.150757 976.017151
7.840000 2.160000 -3.840000 -20.486858 -20.550043 842.015625
7.840000 2.160000 -3.800000 -2.723171 -30.259481 923.051880
7.840000 2.200000 -4.200000 11.533052 -22.649349 646.004333
7.840000 2.200000 -4.160000 28.367010 -22.704224 1320.168945
7.840000 2.200000 -4.120000 43.674095 -5.738199 1940.353516
7.840000 2.200000 -4.080000 41.629871 21.632511 2201.011719
7.840000 2.200000 -4.040000 18.517359 40.977554 2022.052490
7.840000 2.200000 -4.000000 -12.160545 37.865955 1581.709473
7.840000 2.200000 -3.960000 -30.733957 14.631565 1158.658813
7.840000 2.200000 -3.920000 -27.735126 -12.407600 923.185791
7.840000 2.200000 -3.880000 -9.771417 -27.657516 860.418823
7.840000 2.200000 -3.840000 9.404029 -27.801233 861.344360
7.840000 2.200000 -3.800000 21.739456 -19.919325 869.383423
7.880000 1.800000 -4.200000 3.187778 20.863321 445.440094
7.880000 1.800000 -4.160000 -8.091402 21.849064 542.852356
7.880000 1.800000 -4.120000 -19.972458 13.604595 583.984070
7.880000 1.800000 -4.080000 -23.313061 -3.356083 554.762085
7.880000 1.800000 -4.040000 -11.966637 -18.866199 499.133850
7.880000 1.800000 -4.000000 8.038799 -20.011261 465.072845
7.880000 1.800000 -3.960000 20.612103 -4.442135 444.591339
7.880000 1.800000 -3.920000 13.985730 14.323467 400.762360
7.880000 1.800000 -3.880000 -6.328772 17.828106 357.894714
7.880000 1.800000 -3.840000 -20.736141 0.671788 430.438843
7.880000 1.800000 -3.800000 -13.732306 -22.858505 711.087524
7.880000 1.840000 -4.200000 -2.222176 17.113815 297.820740
7.880000 1.840000 -4.160000 -3.241385 14.119904 209.878250
7.880000 1.840000 -4.120000 -2.276320 13.343319 183.225784
7.880000 1.840000 -4.080000 -1.968651 14.908920 226.151489
7.880000 1.840000 -4.040000 -4.009151 17.513023 322.779297
7.880000 1.840000 -4.000000 -9.202652 19.062180 448.055511
7.880000 1.840000 -3.960000 -16.828785 16.608910 559.063843
7.880000 1.840000 -3.920000 -23.263445 7.752274 601.285583
7.880000 1.840000 -3.880000 -22.785782 -6.119085 556.635010
7.880000 1.840000 -3.840000 -11.967101 -18.370975 480.704224
7.880000 1.840000 -3.800000 5.724630 -20.815319 466.048889
7.880000 1.880000 -4.200000 -5.297871 11.651031 163.813965
7.880000 1.880000 -4.160000 3.698179 16.876026 298.476807
7.880000 1.880000 -4.120000 3.388773 33.540237 1136.431274
7.880000 1.880000 -4.080000 -14.524548 48.241058 2538.162109
7.880000 1.880000 -4.040000 -43.057602 45.312881 3907.214355
7.880000 1.880000 -4.000000 -64.355713 20.800491 4574.318359
7.880000 1.880000 -3.960000 -63.770126 -13.343342 4244.673828
7.880000 1.880000 -3.920000 -41.197174 -38.252609 3160.469238
7.880000 1.880000 -3.880000 -10.380337 -42.128136 1882.531128
7.880000 1.880000 -3.840000 12.153456 -27.458405 901.670471
7.880000 1.880000 -3.800000 18.504425 -6.753334 388.021271
7.880000 1.920000 -4.200000 -5.375449 5.610981 60.378555
7.880000 1.920000 -4.160000 2.034000 26.159130 688.437256
7.880000 1.920000 -4.120000 -17.141834 52.623932 3063.120850
7.880000 1.920000 -4.080000 -60.579941 56.508850 6863.179688
7.880000 1.920000 -4.040000 -100.466705 21.975006 10576.458984
7.880000 1.920000 -4.000000 -105.111427 -36.614807 12389.056641
7.880000 1.920000 -3.960000 -66.480133 -83.634087 11414.268555
7.880000 1.920000 -3.920000 -8.092926 -90.583755 8270.912109
7.880000 1.920000 -3.880000 34.091042 -58.464836 4580.335938
7.880000 1.920000 -3.840000 40.197170 -14.442006 1824.384033
7.880000 1.920000 -3.800000 18.897957 12.471871 512.680359
7.880000 1.960000 -4.200000 -2.556299 0.921437 7.383712
7.880000 1.960000 -4.160000 -10.355789 30.661079 1047.344238
7.880000 1.960000 -4.120000 -52.054813 46.137436 4838.366699
7.880000 1.960000 -4.080000 -103.310638 17.956436 10995.521484
7.880000 1.960000 -4.040000 -121.238861 -50.064995 17205.365234
7.880000 1.960000 -4.000000 -81.715370 -117.528000 20490.232422
7.880000 1.960000 -3.960000 -3.576300 -138.480209 19189.556641
7.880000 1.960000 -3.920000 64.376396 -99.773819 14099.135742
7.880000 1.960000 -3.880000 82.814560 -31.522732 7851.934082
7.880000 1.960000 -3.840000 51.881031 19.528419 3073.000488
7.880000 1.960000 -3.800000 5.742496 28.141420 824.915771
7.880000 2.000000 -4.200000 1.299673 -0.957130 2.605249
7.880000 2.000000 -4.160000 -24.921461 22.329319 1119.677734
7.880000 2.000000 -4.120000 -73.236099 10.672253 5477.423340
7.880000 2.000000 -4.080000 -102.612686 -47.289078 12765.620117
7.880000 2.000000 -4.040000 -76.055672 -120.783607 20373.144531
7.880000 2.000000 -4.000000 3.014053 -157.213608 24725.203125
7.880000 2.000000 -3.960000 87.895035 -126.064583 23617.816406
7.880000 2.000000 -3.920000 124.878777 -46.323479 17740.574219
7.880000 2.000000 -3.880000 96.587906 28.693174 10152.521484
7.880000 2.000000 -3.840000 33.216877 55.202515 4150.678711
7.880000 2.000000 -3.800000 -16.706736 31.293913 1258.423950
7.880000 2.040000 -4.200000 3.758192 -0.864182 14.870817
7.880000 2.040000 -4.160000 -29.975361 3.605177 911.519592
7.880000 2.040000 -4.120000 -61.634663 -32.052322 4826.182617
7.880000 2.040000 -4.080000 -52.498100 -93.767624 11548.417969
7.880000 2.040000 -4.040000 9.498117 -136.567734 18740.960938
7.880000 2.040000 -4.000000 92.355858 -120.666084 23089.908203
7.880000 2.040000 -3.960000 141.960846 -47.734558 22431.468750
7.880000 2.040000 -3.920000 125.853073 37.260406 17227.333984
7.880000 2.040000 -3.880000 59.460209 81.750839 10218.715820
7.880000 2.040000 -3.840000 -8.687037 66.653099 4518.100586
7.880000 2.040000 -3.800000 -37.652306 16.586201 1692.798218
7.880000 2.080000 -4.200000 4.517804 -1.479933 22.600750
7.880000 2.080000 -4.160000 -20.428547 -14.750006 634.888184
7.880000 2.080000 -4.120000 -23.729191 -54.256729 3506.867188
7.880000 2.080000 -4.080000 13.713834 -90.819977 8436.337891
7.880000 2.080000 -4.040000 77.377968 -87.847054 13704.455078
7.880000 2.080000 -4.000000 125.493881 -34.352932 16928.837891
7.880000 2.080000 -3.960000 121.854935 41.456577 16567.273438
7.880000 2.080000 -3.920000 66.394440 92.430450 12951.609375
7.880000 2.080000 -3.880000 -4.320658 89.453972 8020.681152
7.880000 2.080000 -3.840000 -46.759708 42.446182 3988.148438
7.880000 2.080000 -3.800000 -43.078140 -11.688042 1992.336548
7.880000 2.120000 -4.200000 6.252310 -4.165280 56.440937
7.880000 2.120000 -4.160000 -1.242418 -22.337334 500.500092
7.880000 2.120000 -4.120000 15.652895 -45.180305 2286.273193
7.880000 2.120000 -4.080000 53.952179 -47.207611 5139.396484
7.880000 2.120000 -4.040000 88.264526 -14.600986 8003.815430
7.880000 2.120000 -4.000000 89.783417 39.348282 9609.349609
7.880000 2.120000 -3.960000 50.868256 81.730743 9267.494141
7.880000 2.120000 -3.920000 -6.975323 85.191963 7306.325684
7.880000 2.120000 -3.880000 -49.177971 48.941364 4813.729980
7.880000 2.120000 -3.840000 -53.856861 -2.169307 2905.267334
7.880000 2.120000 -3.800000 -25.327629 -38.001457 2085.599609
7.880000 2.160000 -4.200000 11.686307 -6.477059 178.522064
7.880000 2.160000 -4.160000 17.174854 -16.274181 559.824585
7.880000 2.160000 -4.120000 35.138184 -16.906679 1520.527710
7.880000 2.160000 -4.080000 52.416473 1.373219 2749.372314
7.880000 2.160000 -4.040000 51.520138 32.754005 3727.149414
7.880000 2.160000 -4.000000 25.976982 58.070457 4046.981445
7.880000 2.160000 -3.960000 -12.607491 59.216175 3665.504150
7.880000 2.160000 -3.920000 -42.339432 33.338646 2904.092773
7.880000 2.160000 -3.880000 -46.795368 -5.157652 2216.407715
7.880000 2.160000 -3.840000 -25.525322 -35.475094 1910.024414
7.880000 2.160000 -3.800000 8.016739 -44.167461 2015.032715
7.880000 2.200000 -4.200000 19.554790 -3.978389 398.217407
7.880000 2.200000 -4.160000 26.509281 -1.735480 705.753906
7.880000 2.200000 -4.120000 31.881844 9.598545 1108.583984
7.880000 2.200000 -4.080000 26.519297 25.971619 1377.798096
7.880000 2.200000 -4.040000 8.283947 36.184425 1377.936401
7.880000 2.200000 -4.000000 -14.498760 30.943747 1167.729492
7.880000 2.200000 -3.960000 -28.779842 10.760080 944.058594
7.880000 2.200000 -3.920000 -26.303555 -14.264244 895.345581
7.880000 2.200000 -3.880000 -8.624476 -31.826534 1087.309814
7.880000 2.200000 -3.840000 15.487457 -34.899940 1457.867188
7.880000 2.200000 -3.800000 36.315701 -23.850254 1887.664673
7.920000 1.800000 -4.200000 -7.866461 38.162437 1518.252808
7.920000 1.800000 -4.160000 -28.437866 28.750526 1635.304932
7.920000 1.800000 -4.120000 -37.607582 6.499828 1456.578003
7.920000 1.800000 -4.080000 -28.209930 -15.792201 1045.193848
7.920000 1.800000 -4.040000 -6.551163 -23.192497 580.809631
7.920000 1.800000 -4.000000 10.479649 -11.719730 247.175110
7.920000 1.800000 -3.960000 9.398004 6.466808 130.142090
7.920000 1.800000 -3.920000 -6.985863 12.795883 212.536896
7.920000 1.800000 -3.880000 -21.028557 -0.587664 442.545532
7.920000 1.800000 -3.840000 -16.246161 -22.699661 779.212341
7.920000 1.800000 -3.800000 6.927197 -33.343437 1159.770874
7.920000 1.840000 -4.200000 -22.695541 28.734108 1340.736572
7.920000 1.840000 -4.160000 -27.275341 18.637665 1091.306763
7.920000 1.840000 -4.120000 -26.140865 11.825306 823.182739
7.920000 1.840000 -4.080000 -24.964634 9.794377 719.162781
7.920000 1.840000 -4.040000 -27.736996 8.938740 849.242004
7.920000 1.840000 -4.000000 -33.525581 3.898956 1139.166504
7.920000 1.840000 -3.960000 -36.877129 -7.809231 1420.906738
7.920000 1.840000 -3.920000 -31.709187 -22.985714 1533.815552
7.920000 1.840000 -3.880000 -16.314713 -33.965698 1419.838501
7.920000 1.840000 -3.840000 4.211613 -33.629448 1148.677490
7.920000 1.840000 -3.800000 20.510826 -20.871078 856.295898
7.920000 1.880000 -4.200000 -28.176676 12.325516 945.843384
7.920000 1.880000 -4.160000 -24.479225 16.595505 874.643250
7.920000 1.880000 -4.120000 -34.379879 26.992075 1910.548096
7.920000 1.880000 -4.080000 -58.997711 25.449533 4128.408691
7.920000 1.880000 -4.040000 -81.730728 0.534813 6680.198242
7.920000 1.880000 -4.000000 -81.983971 -39.711155 8298.347656
7.920000 1.880000 -3.960000 -53.666626 -72.653679 8158.664062
7.920000 1.880000 -3.920000 -11.137474 -79.261154 6406.374023
7.920000 1.880000 -3.880000 22.453554 -58.861237 3968.807373
7.920000 1.880000 -3.840000 33.154873 -27.723555 1867.841064
7.920000 1.880000 -3.800000 24.490227 -4.370492 618.872375
7.920000 1.920000 -4.200000 -22.484165 -2.655790 512.590881
7.920000 1.920000 -4.160000 -28.104767 17.284330 1088.625977
7.920000 1.920000 -4.120000 -62.286720 26.037624 4557.593262
7.920000 1.920000 -4.080000 -103.751175 -2.828491 10772.306641
7.920000 1.920000 -4.040000 -114.438538 -65.350479 17366.863281
7.920000 1.920000 -4.000000 -74.032333 -124.897827 21080.253906
7.920000 1.920000 -3.960000 -0.965359 -141.316101 19971.171875
7.920000 1.920000 -3.920000 61.074913 -104.963409 14747.462891
7.920000 1.920000 -3.880000 78.925354 -43.885124 8155.115723
7.920000 1.920000 -3.840000 54.832977 1.590605 3009.185547
7.920000 1.920000 -3.800000 18.976858 11.877093 501.186493
7.920000 1.960000 -4.200000 -10.473995 -9.587848 201.631409
7.920000 1.960000 -4.160000 -36.416504 11.330076 1454.532349
7.920000 1.960000 -4.120000 -85.426567 -4.444822 7317.454590
7.920000 1.960000 -4.080000 -112.830307 -69.091301 17504.285156
7.920000 1.960000 -4.040000 -79.193352 -148.217239 28239.937500
7.920000 1.960000 -4.000000 9.729900 -184.868103 34270.886719
7.920000 1.960000 -3.960000 102.013847 -148.303101 32400.636719
7.920000 1.960000 -3.920000 141.116913 -61.850929 23739.519531
7.920000 1.960000 -3.880000 112.004066 16.869797 12829.500977
7.920000 1.960000 -3.840000 49.467445 44.396576 4418.083984
7.920000 1.960000 -3.800000 3.478528 23.203880 550.520203
7.920000 2.000000 -4.200000 0.456148 -7.962986 63.617218
7.920000 2.000000 -4.160000 -39.690968 -3.798855 1589.804199
7.920000 2.000000 -4.120000 -78.060478 -49.600193 8553.617188
7.920000 2.000000 -4.080000 -64.934967 -128.418839 20707.949219
7.920000 2.000000 -4.040000 15.345346 -182.908386 33690.957031
7.920000 2.000000 -4.000000 121.667076 -162.618515 41247.656250
7.920000 2.000000 -3.960000 185.414597 -70.757729 39385.230469
7.920000 2.000000 -3.920000 167.219177 35.039558 29190.025391
7.920000 2.000000 -3.880000 88.799561 90.120102 16006.994141
7.920000 2.000000 -3.840000 11.014309 74.419144 5659.523926
7.920000 2.000000 -3.800000 -19.104660 21.714642 836.513672
7.920000 2.040000 -4.200000 6.079694 -2.445213 42.941746
7.920000 2.040000 -4.160000 -30.430260 -20.293501 1337.826904
7.920000 2.040000 -4.120000 -38.391167 -78.605980 7652.781738
7.920000 2.040000 -4.080000 13.992121 -136.660034 18871.744141
7.920000 2.040000 -4.040000 108.943176 -138.657898 31094.626953
7.920000 2.040000 -4.000000 185.372803 -64.707802 38550.171875
7.920000 2.040000 -3.960000 187.784241 45.847122 37364.878906
7.920000 2.040000 -3.920000 113.968338 123.646835 28277.322266
7.920000 2.040000 -3.880000 16.780550 125.653000 16070.263672
7.920000 2.040000 -3.840000 -41.213821 67.102676 6201.348145
7.920000 2.040000 -3.800000 -37.215855 1.858297 1388.473145
7.920000 2.080000 -4.200000 7.555707 2.132643 61.636871
7.920000 2.080000 -4.160000 -11.270784 -27.025169 857.390381
7.920000 2.080000 -4.120000 9.281338 -72.370056 5323.567871
7.920000 2.080000 -4.080000 73.394020 -89.641068 13422.203125
7.920000 2.080000 -4.040000 142.259720 -46.479130 22398.136719
7.920000 2.080000 -4.000000 161.970917 43.286736 28108.320312
7.920000 2.080000 -3.960000 109.992249 124.873909 27691.789062
7.920000 2.080000 -3.920000 16.971172 145.742432 21528.876953
7.920000 2.080000 -3.880000 -57.420261 98.103378 12921.359375
7.920000 2.080000 -3.840000 -72.544731 22.363981 5762.885254
7.920000 2.080000 -3.800000 -35.129837 -29.477467 2103.026367
7.920000 2.120000 -4.200000 8.468042 4.913673 95.851929
7.920000 2.120000 -4.160000 7.055176 -19.615740 434.552765
7.920000 2.120000 -4.120000 36.547718 -39.147141 2868.234375
7.920000 2.120000 -4.080000 82.159409 -24.073210 7329.687988
7.920000 2.120000 -4.040000 106.476151 30.680840 12278.484375
7.920000 2.120000 -4.000000 80.704109 94.707481 15482.660156
7.920000 2.120000 -3.960000 12.451126 123.674622 15450.442383
7.920000 2.120000 -3.920000 -57.043068 95.730591 12418.257812
7.920000 2.120000 -3.880000 -85.051125 29.790260 8121.153320
7.920000 2.120000 -3.840000 -60.180019 -30.565483 4555.883789
7.920000 2.120000 -3.800000 -7.375549 -51.880478 2745.982666
7.920000 2.160000 -4.200000 10.110510 8.476287 174.069855
7.920000 2.160000 -4.160000 14.922549 -3.750252 236.746872
7.920000 2.160000 -4.120000 34.309669 -4.318172 1195.800049
7.920000 2.160000 -4.080000 51.060730 17.865734 2926.382812
7.920000 2.160000 -4.040000 43.664619 53.326172 4750.279785
7.920000 2.160000 -4.000000 6.875797 76.190857 5852.323242
7.920000 2.160000 -3.960000 -40.082626 64.972420 5828.032227
7.920000 2.160000 -3.920000 -66.791069 21.729618 4933.223145
7.920000 2.160000 -3.880000 -55.360901 -28.020874 3849.998779
7.920000 2.160000 -3.840000 -13.899195 -54.662033 3181.125244
7.920000 2.160000 -3.800000 31.206211 -45.915695 3082.078613
7.920000 2.200000 -4.200000 9.944699 14.511674 309.485718
7.920000 2.200000 -4.160000 10.917064 10.430486 227.977310
7.920000 2.200000 -4.120000 15.813419 12.978823 418.514069
7.920000 2.200000 -4.080000 15.225121 23.200588 770.071533
7.920000 2.200000 -4.040000 2.651363 32.321415 1051.703613
7.920000 2.200000 -4.000000 -17.538475 28.505404 1120.156128
7.920000 2.200000 -3.960000 -31.543722 7.912552 1057.614868
7.920000 2.200000 -3.920000 -26.643618 -20.101982 1113.972046
7.920000 2.200000 -3.880000 -1.785406 -38.713623 1501.932251
7.920000 2.200000 -3.840000 30.724859 -35.670845 2216.426270
7.920000 2.200000 -3.800000 53.666023 -11.746995 3018.033936
7.960000 1.800000 -4.200000 -31.313772 39.481384 2539.332031
7.960000 1.800000 -4.160000 -49.074509 15.664646 2653.688477
7.960000 1.800000 -4.120000 -45.849491 -14.232964 2304.752930
7.960000 1.800000 -4.080000 -23.875778 -32.114597 1601.400146
7.960000 1.800000 -4.040000 0.474056 -28.457634 810.061646
7.960000 1.800000 -4.000000 9.770357 -11.095688 218.574158
7.960000 1.800000 -3.960000 0.835255 1.275948 2.325693
7.960000 1.800000 -3.920000 -12.376156 -3.854374 168.025436
7.960000 1.800000 -3.880000 -12.030220 -21.039894 587.403320
7.960000 1.800000 -3.840000 6.404471 -32.082634 1070.312622
7.960000 1.800000 -3.800000 29.615612 -23.481226 1428.452393
7.960000 1.840000 -4.200000 -46.608215 18.352753 2509.149170
7.960000 1.840000 -4.160000 -47.650002 1.179770 2271.914551
7.960000 1.840000 -4.120000 -42.142418 -10.316452 1882.412598
7.960000 1.840000 -4.080000 -36.706303 -16.130760 1607.554077
7.960000 1.840000 -4.040000 -34.164551 -21.045471 1610.128418
7.960000 1.840000 -4.000000 -31.580894 -29.284325 1854.924561
7.960000 1.840000 -3.960000 -23.435574 -39.911118 2142.123535
7.960000 1.840000 -3.920000 -7.293190 -46.789597 2242.457031
7.960000 1.840000 -3.880000 12.791168 -43.317055 2039.981201
7.960000 1.840000 -3.840000 28.205692 -28.215446 1591.672485
7.960000 1.840000 -3.800000 31.825006 -7.473516 1068.684448
7.960000 1.880000 -4.200000 -44.012157 -6.871555 1984.288208
7.960000 1.880000 -4.160000 -43.548706 -6.804913 1942.796631
7.960000 1.880000 -4.120000 -55.379440 -9.237782 3152.218994
7.960000 1.880000 -4.080000 -70.305161 -28.624344 5762.168457
7.960000 1.880000 -4.040000 -68.829849 -63.784508 8806.011719
7.960000 1.880000 -4.000000 -40.110374 -95.609840 10750.083008
7.960000 1.880000 -3.960000 5.957504 -102.464355 10534.436523
7.960000 1.880000 -3.920000 45.446030 -78.836487 8280.533203
7.960000 1.880000 -3.880000 59.536034 -39.757740 5125.217285
7.960000 1.880000 -3.840000 48.249222 -7.652504 2386.548096
7.960000 1.880000 -3.800000 27.192270 5.332049 767.850281
7.960000 1.920000 -4.200000 -27.067101 -22.670998 1246.602051
7.960000 1.920000 -4.160000 -42.030781 -13.214243 1941.202759
7.960000 1.920000 -4.120000 -72.614098 -29.611528 6149.649902
7.960000 1.920000 -4.080000 -85.240677 -80.333878 13719.504883
7.960000 1.920000 -4.040000 -51.435059 -138.191269 21742.390625
7.960000 1.920000 -4.000000 21.903339 -160.305603 26177.642578
7.960000 1.920000 -3.960000 93.731987 -125.843773 24622.339844
7.960000 1.920000 -3.920000 122.126297 -55.438484 17988.257812
7.960000 1.920000 -3.880000 98.540573 6.358576 9750.675781
7.960000 1.920000 -3.840000 51.407581 28.478436 3453.760742
7.960000 1.920000 -3.800000 17.891285 15.392570 557.029297
7.960000 1.960000 -4.200000 -7.185522 -23.634989 610.244385
7.960000 1.960000 -4.160000 -39.635422 -23.498859 2123.163086
7.960000 1.960000 -4.120000 -68.728027 -67.905960 9334.760742
7.960000 1.960000 -4.080000 -49.054085 -139.479675 21860.882812
7.960000 1.960000 -4.040000 31.074268 -184.318268 34938.832031
7.960000 1.960000 -4.000000 130.585663 -158.005920 42018.484375
7.960000 1.960000 -3.960000 186.090973 -67.899780 39240.230469
7.960000 1.960000 -3.920000 165.199203 30.097139 28196.615234
7.960000 1.960000 -3.880000 92.593964 78.308365 14705.842773
7.960000 1.960000 -3.840000 25.215887 63.492638 4667.155762
7.960000 1.960000 -3.800000 2.120401 20.473789 423.672150
7.960000 2.000000 -4.200000 5.864694 -14.205187 236.181976
7.960000 2.000000 -4.160000 -29.462431 -35.186172 2106.101562
7.960000 2.000000 -4.120000 -33.057999 -98.121033 10720.568359
7.960000 2.000000 -4.080000 28.290127 -157.852005 25717.587891
7.960000 2.000000 -4.040000 132.812668 -154.608337 41542.945312
7.960000 2.000000 -4.000000 213.214249 -70.082458 50371.867188
7.960000 2.000000 -3.960000 211.945633 49.860588 47407.031250
7.960000 2.000000 -3.920000 131.414459 130.630966 34334.210938
7.960000 2.000000 -3.880000 31.243172 130.647949 18045.023438
7.960000 2.000000 -3.840000 -24.166550 71.860512 5747.955078
7.960000 2.000000 -3.800000 -17.398094 12.973057 470.993896
7.960000 2.040000 -4.200000 9.801651 -2.520901 102.427307
7.960000 2.040000 -4.160000 -11.010620 -39.284470 1664.503296
7.960000 2.040000 -4.120000 17.188412 -95.514565 9418.473633
7.960000 2.040000 -4.080000 99.336395 -115.621574 23236.068359
7.960000 2.040000 -4.040000 186.045837 -59.718719 38179.378906
7.960000 2.040000 -4.000000 210.154449 53.248058 47000.250000
7.960000 2.040000 -3.960000 145.760788 154.079346 44986.652344
7.960000 2.040000 -3.920000 33.520290 179.434723 33320.429688
7.960000 2.040000 -3.880000 -53.036724 123.954521 18177.617188
7.960000 2.040000 -3.840000 -68.626053 40.244411 6329.147949
7.960000 2.040000 -3.800000 -27.901037 -10.576517 890.330627
7.960000 2.080000 -4.200000 8.024351 6.540560 107.169136
7.960000 2.080000 -4.160000 6.875313 -29.987839 946.540405
7.960000 2.080000 -4.120000 51.111534 -60.275738 6245.553711
7.960000 2.080000 -4.080000 120.454163 -40.068939 16114.724609
7.960000 2.080000 -4.040000 160.013977 39.465492 27161.998047
7.960000 2.080000 -4.000000 126.831657 134.440887 34160.621094
7.960000 2.080000 -3.960000 31.550056 180.265564 33491.078125
7.960000 2.080000 -3.920000 -66.215012 145.925415 25678.654297
7.960000 2.080000 -3.880000 -106.501045 59.942146 14935.533203
7.960000 2.080000 -3.840000 -76.716515 -15.856159 6136.841797
7.960000 2.080000 -3.800000 -15.425586 -38.669903 1733.310059
7.960000 2.120000 -4.200000 3.943129 12.819843 179.896652
7.960000 2.120000 -4.160000 13.529355 -11.841036 323.253571
7.960000 2.120000 -4.120000 51.448776 -17.157740 2941.364502
7.960000 2.120000 -4.080000 88.521942 19.735229 8225.613281
7.960000 2.120000 -4.040000 84.475250 85.248444 14403.365234
7.960000 2.120000 -4.000000 26.094879 133.942688 18621.587891
7.960000 2.120000 -3.960000 -55.387627 125.532639 18826.232422
7.960000 2.120000 -3.920000 -107.005760 60.937233 15163.579102
7.960000 2.120000 -3.880000 -97.360336 -17.065506 9770.266602
7.960000 2.120000 -3.840000 -40.796173 -59.357109 5187.594238
7.960000 2.120000 -3.800000 18.457842 -48.928074 2734.648193
7.960000 2.160000 -4.200000 -1.987739 17.276981 302.445190
7.960000 2.160000 -4.160000 6.457396 3.549903 54.299767
7.960000 2.160000 -4.120000 27.708540 7.483356 823.763794
7.960000 2.160000 -4.080000 38.335587 35.629234 2739.059570
7.960000 2.160000 -4.040000 17.798664 69.179611 5102.611328
7.960000 2.160000 -4.000000 -29.114601 77.250793 6815.345215
7.960000 2.160000 -3.960000 -71.793076 44.674225 7150.032227
7.960000 2.160000 -3.920000 -78.058739 -11.945076 6235.851562
7.960000 2.160000 -3.880000 -41.503471 -56.065910 4865.924316
7.960000 2.160000 -3.840000 13.260532 -60.542183 3841.197754
7.960000 2.160000 -3.800000 51.525696 -27.752666 3425.107666
7.960000 2.200000 -4.200000 -10.285839 18.746143 457.216370
7.960000 2.200000 -4.160000 -6.679370 7.698528 103.881317
7.960000 2.200000 -4.120000 3.753853 7.365633 68.343964
7.960000 2.200000 -4.080000 6.994305 18.700226 398.618744
7.960000 2.200000 -4.040000 -5.363792 28.782053 857.176819
7.960000 2.200000 -4.000000 -25.733360 22.295765 1159.306885
7.960000 2.200000 -3.960000 -35.320362 -2.791801 1255.322144
7.960000 2.200000 -3.920000 -20.687004 -30.858131 1380.176514
7.960000 2.200000 -3.880000 13.228081 -40.549999 1819.284668
7.960000 2.200000 -3.840000 45.916119 -22.435272 2611.631348
7.960000 2.200000 -3.800000 57.325260 13.540414 3469.528320
8.000000 1.800000 -4.200000 -48.001709 21.347380 2759.874756
8.000000 1.800000 -4.160000 -53.194588 -9.645123 2922.692383
8.000000 1.800000 -4.120000 -36.385689 -36.640083 2666.414062
8.000000 1.800000 -4.080000 -7.711206 -44.396469 2030.509155
8.000000 1.800000 -4.040000 14.142893 -31.720982 1206.242188
8.000000 1.800000 -4.000000 17.511232 -12.900978 473.078491
8.000000 1.800000 -3.960000 7.672035 -4.881634 82.690475
8.000000 1.800000 -3.920000 1.097717 -11.711187 138.356903
8.000000 1.800000 -3.880000 8.999655 -21.388081 538.443787
8.000000 1.800000 -3.840000 26.230871 -18.431364 1027.773804
8.000000 1.800000 -3.800000 36.519974 0.267115 1333.779907
8.000000 1.840000 -4.200000 -54.175621 -7.495398 2991.178711
8.000000 1.840000 -4.160000 -47.850750 -26.638926 2999.326660
8.000000 1.840000 -4.120000 -35.448658 -39.185024 2792.073486
8.000000 1.840000 -4.080000 -21.919849 -45.039856 2509.068359
8.000000 1.840000 -4.040000 -9.762341 -46.827522 2288.120117
8.000000 1.840000 -4.000000 1.669556 -46.779205 2191.081299
8.000000 1.840000 -3.960000 14.083946 -44.407536 2170.386719
8.000000 1.840000 -3.920000 27.073151 -37.009277 2102.642090
8.000000 1.840000 -3.880000 36.734840 -22.885601 1873.199219
8.000000 1.840000 -3.840000 37.946331 -4.598990 1461.074829
8.000000 1.840000 -3.800000 28.868244 11.194908 958.701538
8.000000 1.880000 -4.200000 -39.562477 -32.042290 2591.897949
8.000000 1.880000 -4.160000 -38.389011 -37.274399 2863.097168
8.000000 1.880000 -4.120000 -41.088593 -50.272251 4215.571777
8.000000 1.880000 -4.080000 -34.379021 -73.740532 6619.583008
8.000000 1.880000 -4.040000 -7.951134 -95.272232 9140.018555
8.000000 1.880000 -4.000000 32.778824 -96.970154 10477.662109
8.000000 1.880000 -3.960000 68.421745 -71.892258 9850.031250
8.000000 1.880000 -3.920000 80.771065 -31.376751 7508.465332
8.000000 1.880000 -3.880000 67.184250 3.612328 4526.772461
8.000000 1.880000 -3.840000 41.250504 18.827156 2056.065918
8.000000 1.880000 -3.800000 20.250717 15.825281 660.531067
8.000000 1.920000 -4.200000 -14.746857 -40.000641 1817.520996
8.000000 1.920000 -4.160000 -28.315639 -44.649132 2795.320312
8.000000 1.920000 -4.120000 -37.111984 -75.259415 7041.278809
8.000000 1.920000 -4.080000 -13.299183 -118.265511 14163.599609
8.000000 1.920000 -4.040000 46.831657 -138.238342 21303.042969
8.000000 1.920000 -4.000000 113.164009 -109.448669 24785.105469
8.000000 1.920000 -3.960000 144.636703 -41.635555 22653.294922
8.000000 1.920000 -3.920000 124.050285 25.833124 16055.824219
8.000000 1.920000 -3.880000 71.852005 56.525154 8357.803711
8.000000 1.920000 -3.840000 26.565727 45.531162 2778.824463
8.000000 1.920000 -3.800000 11.629026 18.283957 469.537323
8.000000 1.960000 -4.200000 6.129745 -31.554956 1033.289062
8.000000 1.960000 -4.160000 -15.302691 -50.339691 2768.256836
8.000000 1.960000 -4.120000 -9.344471 -99.145210 9917.091797
8.000000 1.960000 -4.080000 47.563030 -139.828934 21814.373047
8.000000 1.960000 -4.040000 133.478058 -126.113953 33721.121094
8.000000 1.960000 -4.000000 192.740631 -48.686680 39519.343750
8.000000 1.960000 -3.960000 182.732544 50.633255 35954.910156
8.000000 1.960000 -3.920000 111.769516 111.854401 25003.832031
8.000000 1.960000 -3.880000 31.527988 106.770477 12393.948242
8.000000 1.960000 -3.840000 -8.404312 58.994667 3551.003418
8.000000 1.960000 -3.800000 -0.128331 17.199509 295.839569
8.000000 2.000000 -4.200000 15.609859 -15.484886 483.449371
8.000000 2.000000 -4.160000 2.263737 -49.952736 2500.400391
8.000000 2.000000 -4.120000 35.315815 -98.617813 10972.679688
8.000000 2.000000 -4.080000 115.669174 -109.091599 25280.333984
8.000000 2.000000 -4.040000 193.896408 -47.651707 39866.500000
8.000000 2.000000 -4.000000 208.354919 62.402962 47305.902344
8.000000 2.000000 -3.960000 140.654388 153.813309 43442.187500
8.000000 2.000000 -3.920000 34.663200 170.969208 30432.007812
8.000000 2.000000 -3.880000 -40.592506 116.158463 15140.540039
8.000000 2.000000 -3.840000 -49.028492 43.118835 4263.026855
8.000000 2.000000 -3.800000 -12.055710 6.232639 184.185928
8.000000 2.040000 -4.200000 14.669699 -0.268696 215.272263
8.000000 2.040000 -4.160000 18.822475 -38.238823 1816.493164
8.000000 2.040000 -4.120000 70.751007 -65.840729 9340.707031
8.000000 2.040000 -4.080000 145.484222 -36.802670 22520.093750
8.000000 2.040000 -4.040000 183.018265 54.135719 36426.359375
8.000000 2.040000 -4.000000 140.607376 155.977600 44099.445312
8.000000 2.040000 -3.960000 35.475616 200.150497 41318.742188
8.000000 2.040000 -3.920000 -65.608818 159.286789 29676.798828
8.000000 2.040000 -3.880000 -102.191017 70.192551 15369.998047
8.000000 2.040000 -3.840000 -68.970352 -0.612152 4757.284180
8.000000 2.040000 -3.800000 -12.718177 -14.627426 375.713623
8.000000 2.080000 -4.200000 7.420937 10.481907 164.940674
8.000000 2.080000 -4.160000 24.411060 -17.684698 908.648376
8.000000 2.080000 -4.120000 74.307365 -18.852428 5876.998535
8.000000 2.080000 -4.080000 118.875717 32.918816 15215.084961
8.000000 2.080000 -4.040000 109.092621 117.053665 25602.761719
8.000000 2.080000 -4.000000 32.750256 175.737457 31956.234375
8.000000 2.080000 -3.960000 -67.566521 162.237854 30886.355469
8.000000 2.080000 -3.920000 -127.151016 83.398872 23122.753906
8.000000 2.080000 -3.880000 -113.426842 -5.254318 12893.255859
8.000000 2.080000 -3.840000 -50.767159 -47.534573 4836.839844
8.000000 2.080000 -3.800000 6.027688 -31.842167 1050.256592
8.000000 2.120000 -4.200000 -3.393722 15.964345 266.377655
8.000000 2.120000 -4.160000 14.655091 0.349392 214.893768
8.000000 2.120000 -4.120000 47.588707 13.228973 2439.690918
8.000000 2.120000 -4.080000 60.237000 60.665573 7308.807617
8.000000 2.120000 -4.040000 25.038837 112.074020 13187.529297
8.000000 2.120000 -4.000000 -46.867077 122.747406 17263.449219
8.000000 2.120000 -3.960000 -109.068962 74.646523 17468.140625
8.000000 2.120000 -3.920000 -117.931694 -4.180462 13925.361328
8.000000 2.120000 -3.880000 -70.104187 -61.827984 8737.296875
8.000000 2.120000 -3.840000 -3.929163 -65.960648 4366.245605
8.000000 2.120000 -3.800000 35.491447 -27.623274 2022.688110
8.000000 2.160000 -4.200000 -15.766353 14.928907 471.450134
8.000000 2.160000 -4.160000 -3.188849 4.790939 33.121861
8.000000 2.160000 -4.120000 14.231426 15.593576 445.693115
8.000000 2.160000 -4.080000 12.371082 43.577187 2052.014893
8.000000 2.160000 -4.040000 -19.054695 62.897049 4319.120117
8.000000 2.160000 -4.000000 -61.780716 48.315819 6151.275391
8.000000 2.160000 -3.960000 -81.811569 0.972710 6694.079102
8.000000 2.160000 -3.920000 -59.380177 -49.021229 5929.085938
8.000000 2.160000 -3.880000 -7.486691 -67.187302 4570.183594
8.000000 2.160000 -3.840000 38.975475 -43.550690 3415.750244
8.000000 2.160000 -3.800000 52.674843 1.145849 2775.952148
8.000000 2.200000 -4.200000 -25.765642 6.385044 704.637085
8.000000 2.200000 -4.160000 -15.647375 -4.858179 268.442261
8.000000 2.200000 -4.120000 -2.483385 -1.618210 8.785805
8.000000 2.200000 -4.080000 -1.230858 11.275040 128.641525
8.000000 2.200000 -4.040000 -15.061058 17.321053 526.854309
8.000000 2.200000 -4.000000 -30.191605 4.749298 934.088806
8.000000 2.200000 -3.960000 -28.010277 -20.242989 1194.354248
8.000000 2.200000 -3.920000 -3.261330 -37.281120 1400.518188
8.000000 2.200000 -3.880000 29.567383 -29.671122 1754.605469
8.000000 2.200000 -3.840000 48.044479 0.686689 2308.743408
8.000000 2.200000 -3.800000 40.316093 35.181877 2863.151855
8.040000 1.800000 -4.200000 -45.196106 -1.915936 2046.358765
8.040000 1.800000 -4.160000 -38.071465 -28.989225 2289.811523
8.040000 1.800000 -4.120000 -13.907937 -46.426849 2348.883057
8.040000 1.800000 -4.080000 15.213375 -43.730278 2143.783936
8.040000 1.800000 -4.040000 32.760742 -24.193626 1658.597778
8.040000 1.800000 -4.000000 31.577122 -3.061356 1006.486511
8.040000 1.800000 -3.960000 19.861717 5.759048 427.654449
8.040000 1.800000 -3.920000 12.658062 1.993773 164.201660
8.040000 1.800000 -3.880000 16.859108 -2.175676 288.963104
8.040000 1.800000 -3.840000 24.850571 4.296410 636.009949
8.040000 1.800000 -3.800000 23.317785 19.241314 913.947266
8.040000 1.840000 -4.200000 -40.303749 -28.943129 2462.096924
8.040000 1.840000 -4.160000 -28.135506 -44.768074 2795.787109
8.040000 1.840000 -4.120000 -9.064304 -53.868717 2984.000244
8.040000 1.840000 -4.080000 12.210896 -52.665703 2922.782227
8.040000 1.840000 -4.040000 29.135818 -41.832043 2598.815674
8.040000 1.840000 -4.000000 37.653027 -26.478386 2118.855225
8.040000 1.840000 -3.960000 38.711479 -12.242313 1648.452881
8.040000 1.840000 -3.920000 36.040581 -1.155464 1300.258545
8.040000 1.840000 -3.880000 31.640276 8.157728 1067.655640
8.040000 1.840000 -3.840000 24.293400 16.434713 860.269043
8.040000 1.840000 -3.800000 12.873600 21.004627 606.923950
8.040000 1.880000 -4.200000 -18.879349 -44.845600 2367.557617
8.040000 1.880000 -4.160000 -13.312840 -53.300022 3018.124023
8.040000 1.880000 -4.120000 -1.592045 -66.187012 4383.255371
8.040000 1.880000 -4.080000 22.469231 -75.047462 6136.987793
8.040000 1.880000 -4.040000 53.913544 -67.872635 7513.364258
8.040000 1.880000 -4.000000 78.044128 -41.061920 7776.966797
8.040000 1.880000 -3.960000 81.790421 -4.621357 6711.029785
8.040000 1.880000 -3.920000 64.363647 24.649639 4750.284180
8.040000 1.880000 -3.880000 37.519901 35.628326 2677.120605
8.040000 1.880000 -3.840000 15.893961 29.823294 1142.046875
8.040000 1.880000 -3.800000 6.614113 17.653563 355.394775
8.040000 1.920000 -4.200000 5.645609 -43.012527 1881.950439
8.040000 1.920000 -4.160000 3.160325 -55.543739 3095.094482
8.040000 1.920000 -4.120000 18.477839 -79.118477 6601.164062
8.040000 1.920000 -4.080000 59.528637 -90.493591 11732.748047
8.040000 1.920000 -4.040000 108.410622 -67.335602 16286.947266
8.040000 1.920000 -4.000000 133.119598 -11.658901 17856.757812
8.040000 1.920000 -3.960000 114.957924 47.786148 15498.839844
8.040000 1.920000 -3.920000 65.662811 78.040756 10401.964844
8.040000 1.920000 -3.880000 17.673588 68.684998 5029.984375
8.040000 1.920000 -3.840000 -3.110684 38.099461 1461.245239
8.040000 1.920000 -3.800000 3.427162 14.720863 228.449249
8.040000 1.960000 -4.200000 21.672533 -28.273865 1269.110107
8.040000 1.960000 -4.160000 20.590231 -50.915207 3016.315918
8.040000 1.960000 -4.120000 51.633469 -77.476387 8668.605469
8.040000 1.960000 -4.080000 110.063217 -72.244949 17333.244141
8.040000 1.960000 -4.040000 158.267792 -17.344645 25349.529297
8.040000 1.960000 -4.000000 155.984650 64.342316 28471.144531
8.040000 1.960000 -3.960000 97.636505 123.802505 24859.947266
8.040000 1.960000 -3.920000 19.987726 126.676369 16446.412109
8.040000 1.960000 -3.880000 -28.570730 81.944954 7531.262207
8.040000 1.960000 -3.840000 -28.350742 31.470179 1794.136719
8.040000 1.960000 -3.800000 -0.628459 11.461138 131.752640
8.040000 2.000000 -4.200000 25.575844 -9.694990 748.116638
8.040000 2.000000 -4.160000 35.478218 -36.774624 2611.076904
8.040000 2.000000 -4.120000 81.561317 -50.482224 9200.703125
8.040000 2.000000 -4.080000 139.485809 -16.188320 19718.353516
8.040000 2.000000 -4.040000 160.279129 64.369759 29832.863281
8.040000 2.000000 -4.000000 114.391617 145.344269 34210.398438
8.040000 2.000000 -3.960000 23.032616 172.521790 30294.269531
8.040000 2.000000 -3.920000 -56.202843 130.646729 20227.328125
8.040000 2.000000 -3.880000 -77.925598 56.674942 9284.448242
8.040000 2.000000 -3.840000 -45.872822 5.831856 2138.326172
8.040000 2.000000 -3.800000 -3.825426 3.491756 26.826248
8.040000 2.040000 -4.200000 19.416880 6.104441 414.279419
8.040000 2.040000 -4.160000 39.981899 -14.520140 1809.386719
8.040000 2.040000 -4.120000 86.723938 -6.829830 7567.687988
8.040000 2.040000 -4.080000 122.047630 48.992958 17295.933594
8.040000 2.040000 -4.040000 102.845306 128.685364 27137.078125
8.040000 2.040000 -4.000000 24.115023 177.138550 31959.601562
8.040000 2.040000 -3.960000 -69.156982 155.595154 28992.539062
8.040000 2.040000 -3.920000 -117.490585 78.116486 19906.222656
8.040000 2.040000 -3.880000 -97.744286 0.513882 9554.208984
8.040000 2.040000 -3.840000 -40.651768 -28.635693 2472.569092
8.040000 2.040000 -3.800000 0.987902 -7.837357 62.400105
8.040000 2.080000 -4.200000 6.385592 15.540965 282.297363
8.040000 2.080000 -4.160000 28.634361 6.223679 858.660828
8.040000 2.080000 -4.120000 60.977276 28.451660 4527.725098
8.040000 2.080000 -4.080000 66.185951 83.669106 11381.099609
8.040000 2.080000 -4.040000 19.631618 135.882050 18849.332031
8.040000 2.080000 -4.000000 -60.591766 139.399963 23103.710938
8.040000 2.080000 -3.960000 -122.800797 81.775787 21767.314453
8.040000 2.080000 -3.920000 -125.202469 -0.934711 15676.532227
8.040000 2.080000 -3.880000 -72.697586 -53.917282 8192.011719
8.040000 2.080000 -3.840000 -10.916154 -50.717541 2691.431396
8.040000 2.080000 -3.800000 16.231579 -12.469565 418.954224
8.040000 2.120000 -4.200000 -9.840678 15.760332 345.227020
8.040000 2.120000 -4.160000 6.498922 12.954746 210.061447
8.040000 2.120000 -4.120000 21.683470 34.728958 1676.273438
8.040000 2.120000 -4.080000 8.828960 71.135620 5138.227051
8.040000 2.120000 -4.040000 -38.196526 89.164314 9409.250000
8.040000 2.120000 -4.000000 -91.741493 62.627029 12338.646484
8.040000 2.120000 -3.960000 -111.138474 0.321064 12351.864258
8.040000 2.120000 -3.920000 -79.338264 -57.504456 9601.322266
8.040000 2.120000 -3.880000 -19.418756 -73.263802 5744.672363
8.040000 2.120000 -3.840000 25.963135 -44.142517 2622.645996
8.040000 2.120000 -3.800000 32.075726 -1.306184 1030.558350
8.040000 2.160000 -4.200000 -23.149958 5.381211 564.877991
8.040000 2.160000 -4.160000 -11.853168 1.704165 143.401779
8.040000 2.160000 -4.120000 -4.415453 14.010909 215.801804
8.040000 2.160000 -4.080000 -16.401943 30.477785 1197.919189
8.040000 2.160000 -4.040000 -44.458260 28.999252 2817.493652
8.040000 2.160000 -4.000000 -65.218933 0.039551 4253.510742
8.040000 2.160000 -3.960000 -55.963715 -40.404919 4764.494629
8.040000 2.160000 -3.920000 -17.266338 -62.745094 4235.073242
8.040000 2.160000 -3.880000 25.635601 -50.053589 3162.545898
8.040000 2.160000 -3.840000 44.742470 -12.949665 2169.582275
8.040000 2.160000 -3.800000 32.931618 21.247616 1535.952637
8.040000 2.200000 -4.200000 -26.227364 -11.844645 828.170166
8.040000 2.200000 -4.160000 -14.004906 -17.622843 506.701965
8.040000 2.200000 -4.120000 -4.378593 -11.812649 158.710754
8.040000 2.200000 -4.080000 -6.042416 -3.285374 47.304466
8.040000 2.200000 -4.040000 -14.900410 -4.327309 240.747818
8.040000 2.200000 -4.000000 -17.365517 -17.115059 594.486389
8.040000 2.200000 -3.960000 -4.297363 -29.989632 917.845337
8.040000 2.200000 -3.920000 18.669827 -28.086294 1137.402344
8.040000 2.200000 -3.880000 35.234833 -7.794064 1302.240845
8.040000 2.200000 -3.840000 32.913406 19.449352 1461.569702
8.040000 2.200000 -3.800000 13.461769 37.367081 1577.517944
8.080000 1.800000 -4.200000 -28.223217 -12.610987 955.586975
8.080000 1.800000 -4.160000 -16.885052 -30.513367 1216.170532
8.080000 1.800000 -4.120000 7.479956 -38.717037 1554.958618
8.080000 1.800000 -4.080000 33.427971 -27.706921 1885.102661
8.080000 1.800000 -4.040000 44.781292 -1.806427 2008.627319
8.080000 1.800000 -4.000000 35.351887 22.431965 1752.948975
8.080000 1.800000 -3.960000 15.222647 30.528564 1163.722168
8.080000 1.800000 -3.920000 1.156716 23.026363 531.551453
8.080000 1.800000 -3.880000 0.523089 13.436457 180.811981
8.080000 1.800000 -3.840000 5.431207 13.268715 205.556793
8.080000 1.800000 -3.800000 3.131757 20.063599 412.355896
8.080000 1.840000 -4.200000 -18.434452 -31.538582 1334.511108
8.080000 1.840000 -4.160000 -4.677460 -42.528122 1830.519775
8.080000 1.840000 -4.120000 18.060024 -44.787506 2332.085205
8.080000 1.840000 -4.080000 40.443108 -31.241844 2611.697754
8.080000 1.840000 -4.040000 49.687878 -5.990252 2504.768311
8.080000 1.840000 -4.000000 41.311214 17.512947 2013.319824
8.080000 1.840000 -3.960000 23.391960 27.952168 1328.507446
8.080000 1.840000 -3.920000 8.584930 25.475288 722.691345
8.080000 1.840000 -3.880000 2.478465 19.217133 375.440979
8.080000 1.840000 -3.840000 0.611976 16.381212 268.718628
8.080000 1.840000 -3.800000 -3.477427 15.332929 247.191193
8.080000 1.880000 -4.200000 1.352857 -38.733994 1502.152466
8.080000 1.880000 -4.160000 12.278035 -46.397827 2303.508545
8.080000 1.880000 -4.120000 33.203838 -48.430214 3447.980469
8.080000 1.880000 -4.080000 56.972858 -35.023361 4472.542480
8.080000 1.880000 -4.040000 69.507652 -6.581593 4874.631348
8.080000 1.880000 -4.000000 61.897480 24.435234 4428.378906
8.080000 1.880000 -3.960000 38.381226 42.995110 3321.697998
8.080000 1.880000 -3.920000 12.653027 43.094158 2017.205566
8.080000 1.880000 -3.880000 -3.291073 30.735607 955.508728
8.080000 1.880000 -3.840000 -6.906709 16.876480 332.518219
8.080000 1.880000 -3.800000 -3.505957 8.418015 83.154701
8.080000 1.920000 -4.200000 20.404861 -32.032883 1442.463989
8.080000 1.920000 -4.160000 29.985355 -41.351967 2609.106689
8.080000 1.920000 -4.120000 54.419754 -43.853279 4884.619629
8.080000 1.920000 -4.080000 83.326721 -24.744884 7555.651367
8.080000 1.920000 -4.040000 95.575455 15.604134 9378.157227
8.080000 1.920000 -4.000000 77.487839 57.959263 9363.641602
8.080000 1.920000 -3.960000 36.372841 78.295471 7453.164062
8.080000 1.920000 -3.920000 -4.023140 67.347549 4551.877930
8.080000 1.920000 -3.880000 -22.364971 37.684559 1920.317871
8.080000 1.920000 -3.840000 -15.798803 12.207596 398.627563
8.080000 1.920000 -3.800000 0.666140 5.247326 27.978172
8.080000 1.960000 -4.200000 31.173817 -16.154980 1232.790161
8.080000 1.960000 -4.160000 44.273121 -26.730511 2674.629395
8.080000 1.960000 -4.120000 74.431442 -23.377195 6086.532715
8.080000 1.960000 -4.080000 102.718864 9.331394 10638.240234
8.080000 1.960000 -4.040000 101.558304 62.871349 14266.895508
8.080000 1.960000 -4.000000 60.640770 106.285828 14973.979492
8.080000 1.960000 -3.960000 0.170143 110.700027 12254.525391
8.080000 1.960000 -3.920000 -43.450287 74.897461 7497.557129
8.080000 1.960000 -3.880000 -47.690239 27.123844 3010.061768
8.080000 1.960000 -3.840000 -21.830973 0.679398 477.052948
8.080000 1.960000 -3.800000 3.774470 5.999222 50.237289
8.080000 2.000000 -4.200000 30.968391 2.372095 964.668091
8.080000 2.000000 -4.160000 48.629028 -4.183599 2382.284912
8.080000 2.000000 -4.120000 78.319885 11.025416 6255.563965
8.080000 2.000000 -4.080000 93.346329 56.315674 11884.992188
8.080000 2.000000 -4.040000 67.960068 110.319473 16788.957031
8.080000 2.000000 -4.000000 5.348481 134.958038 18242.277344
8.080000 2.000000 -3.960000 -58.789989 108.740662 15280.793945
8.080000 2.000000 -3.920000 -84.392044 48.555237 9479.627930
8.080000 2.000000 -3.880000 -61.721176 -3.127807 3819.286865
8.080000 2.000000 -3.840000 -19.066565 -15.089630 591.230835
8.080000 2.000000 -3.800000 4.420881 6.721238 64.719231
8.080000 2.040000 -4.200000 20.160526 17.366499 708.042114
8.080000 2.040000 -4.160000 37.365356 18.263153 1729.712646
8.080000 2.040000 -4.120000 56.694450 42.828518 5048.542969
8.080000 2.040000 -4.080000 50.754509 87.969894 10314.722656
8.080000 2.040000 -4.040000 5.105723 123.557320 15292.479492
8.080000 2.040000 -4.000000 -60.800385 116.263245 17213.828125
8.080000 2.040000 -3.960000 -104.621048 62.464092 14847.326172
8.080000 2.040000 -3.920000 -97.368095 -3.746668 9494.583008
8.080000 2.040000 -3.880000 -50.311813 -38.585709 4020.135498
8.080000 2.040000 -3.840000 -4.849604 -27.029537 754.114563
8.080000 2.040000 -3.800000 5.771502 5.835748 67.366196
8.080000 2.080000 -4.200000 2.009657 22.796953 523.739746
8.080000 2.080000 -4.160000 13.034924 28.080685 958.434082
8.080000 2.080000 -4.120000 18.187786 51.660942 2999.648682
8.080000 2.080000 -4.080000 -2.913746 81.771027 6694.990723
8.080000 2.080000 -4.040000 -50.529060 89.534950 10569.693359
8.080000 2.080000 -4.000000 -96.509872 56.279560 12481.543945
8.080000 2.080000 -3.960000 -105.979019 -3.819750 11246.143555
8.080000 2.080000 -3.920000 -70.075821 -51.693378 7582.826172
8.080000 2.080000 -3.880000 -16.380592 -57.196495 3539.762695
8.080000 2.080000 -3.840000 15.444689 -26.177353 923.792175
8.080000 2.080000 -3.800000 9.655987 6.706291 138.212433
8.080000 2.120000 -4.200000 -15.860459 14.728680 468.488159
8.080000 2.120000 -4.160000 -11.009506 17.928680 442.646820
8.080000 2.120000 -4.120000 -13.773712 31.569683 1186.360107
8.080000 2.120000 -4.080000 -34.837120 42.130161 2988.575195
8.080000 2.120000 -4.040000 -65.663376 30.161106 5221.371094
8.080000 2.120000 -4.000000 -81.291771 -7.629108 6666.555176
8.080000 2.120000 -3.960000 -63.178261 -49.621170 6453.752930
8.080000 2.120000 -3.920000 -19.431267 -66.139503 4752.008301
8.080000 2.120000 -3.880000 19.905621 -46.818966 2588.249268
8.080000 2.120000 -3.840000 29.716604 -10.624691 995.960571
8.080000 2.120000 -3.800000 12.184712 12.533604 305.558441
8.080000 2.160000 -4.200000 -23.233974 -4.058404 556.288208
8.080000 2.160000 -4.160000 -19.062948 -5.604443 394.805786
8.080000 2.160000 -4.120000 -19.726498 -1.670185 391.924225
8.080000 2.160000 -4.080000 -28.974892 -2.029173 843.661926
8.080000 2.160000 -4.040000 -37.837639 -15.484730 1671.463745
8.080000 2.160000 -4.000000 -32.060219 -37.420773 2428.171875
8.080000 2.160000 -3.960000 -7.818100 -50.959854 2658.029541
8.080000 2.160000 -3.920000 21.449678 -42.471096 2263.882568
8.080000 2.160000 -3.880000 35.920185 -15.782980 1539.362061
8.080000 2.160000 -3.840000 27.674276 10.419520 874.432007
8.080000 2.160000 -3.800000 7.503881 19.983307 455.640778
8.080000 2.200000 -4.200000 -14.407078 -22.537840 715.518127
8.080000 2.200000 -4.160000 -6.684019 -24.991241 669.238220
8.080000 2.200000 -4.120000 -1.072337 -23.279625 543.090820
8.080000 2.200000 -4.080000 1.375730 -22.071659 489.050781
8.080000 2.200000 -4.040000 4.856749 -23.659889 583.378357
8.080000 2.200000 -4.000000 13.221813 -24.220901 761.468384
8.080000 2.200000 -3.960000 24.028004 -17.639561 888.499084
8.080000 2.200000 -3.920000 29.508476 -2.939680 879.391907
8.080000 2.200000 -3.880000 24.067917 13.156456 752.356995
8.080000 2.200000 -3.840000 10.184179 21.901180 583.379211
8.080000 2.200000 -3.800000 -3.893213 20.453049 433.484314
8.120000 1.800000 -4.200000 -13.988425 -6.291289 235.256348
8.120000 1.800000 -4.160000 -5.715158 -18.483192 374.291443
8.120000 1.800000 -4.120000 15.898266 -21.431896 712.081055
8.120000 1.800000 -4.080000 36.782921 -3.975513 1368.787964
8.120000 1.800000 -4.040000 37.985023 26.504833 2145.368164
8.120000 1.800000 -4.000000 15.371900 48.348232 2573.846924
8.120000 1.800000 -3.960000 -14.516228 45.843910 2312.385010
8.120000 1.800000 -3.920000 -29.811001 24.425390 1485.295410
8.120000 1.800000 -3.880000 -24.094324 4.459981 600.427856
8.120000 1.800000 -3.840000 -10.747151 0.234631 115.556320
8.120000 1.800000 -3.800000 -6.685093 6.682358 89.344376
8.120000 1.840000 -4.200000 -6.879358 -18.684788 396.446869
8.120000 1.840000 -4.160000 5.698611 -27.034924 763.361267
8.120000 1.840000 -4.120000 27.726780 -21.814407 1244.642700
8.120000 1.840000 -4.080000 42.066166 2.392511 1775.286377
8.120000 1.840000 -4.040000 33.808121 32.287308 2185.459229
8.120000 1.840000 -4.000000 6.362550 46.900017 2240.093506
8.120000 1.840000 -3.960000 -20.640863 37.498459 1832.179688
8.120000 1.840000 -3.920000 -29.857002 15.338661 1126.715088
8.120000 1.840000 -3.880000 -21.669523 -0.660833 470.004944
8.120000 1.840000 -3.840000 -10.635927 -2.638975 120.087135
8.120000 1.840000 -3.800000 -8.128541 1.142649 67.378830
8.120000 1.880000 -4.200000 7.462700 -23.329388 599.952209
8.120000 1.880000 -4.160000 21.569241 -27.129444 1201.238892
8.120000 1.880000 -4.120000 40.570686 -16.095207 1905.036255
8.120000 1.880000 -4.080000 48.158047 10.238970 2424.033936
8.120000 1.880000 -4.040000 34.265957 37.083504 2549.342041
8.120000 1.880000 -4.000000 5.701921 46.976570 2239.310059
8.120000 1.880000 -3.960000 -19.427921 35.374763 1628.817993
8.120000 1.880000 -3.920000 -27.678995 13.655062 952.587463
8.120000 1.880000 -3.880000 -20.413784 -2.553006 423.240417
8.120000 1.880000 -3.840000 -9.079376 -6.862852 129.533813
8.120000 1.880000 -3.800000 -2.550549 -4.251275 24.578640
8.120000 1.920000 -4.200000 22.507832 -17.358984 807.936768
8.120000 1.920000 -4.160000 36.487366 -16.646812 1608.444214
8.120000 1.920000 -4.120000 51.523224 -1.662390 2657.406006
8.120000 1.920000 -4.080000 53.424633 25.448509 3501.818115
8.120000 1.920000 -4.040000 34.797215 50.285210 3739.448486
8.120000 1.920000 -4.000000 3.122774 57.059464 3265.534180
8.120000 1.920000 -3.960000 -24.032463 41.672714 2314.174316
8.120000 1.920000 -3.920000 -32.581287 15.084873 1289.093750
8.120000 1.920000 -3.880000 -22.148771 -5.748013 523.607727
8.120000 1.920000 -3.840000 -4.590965 -10.795222 137.613785
8.120000 1.920000 -3.800000 6.608946 -2.730192 51.132114
8.120000 1.960000 -4.200000 31.244864 -2.071564 980.532898
8.120000 1.960000 -4.160000 43.188232 3.424181 1876.948364
8.120000 1.960000 -4.120000 52.885559 21.589277 3262.979248
8.120000 1.960000 -4.080000 47.717278 48.800812 4658.458008
8.120000 1.960000 -4.040000 21.930735 70.011116 5382.513184
8.120000 1.960000 -4.000000 -14.855648 69.179428 5006.483887
8.120000 1.960000 -3.960000 -42.112034 43.568687 3671.653809
8.120000 1.960000 -3.920000 -44.015091 8.418165 2008.193726
8.120000 1.960000 -3.880000 -22.891514 -13.938489 718.302917
8.120000 1.960000 -3.840000 2.229270 -11.978919 148.464142
8.120000 1.960000 -3.800000 11.517212 5.946512 168.007172
8.120000 2.000000 -4.200000 28.084770 16.845829 1072.536255
8.120000 2.000000 -4.160000 34.909023 26.135220 1901.689575
8.120000 2.000000 -4.120000 36.754814 45.074409 3382.618652
8.120000 2.000000 -4.080000 22.581705 68.252373 5168.319824
8.120000 2.000000 -4.040000 -10.026561 79.402473 6405.284668
8.120000 2.000000 -4.000000 -46.630840 64.265167 6304.447266
8.120000 2.000000 -3.960000 -64.001282 26.363644 4791.205566
8.120000 2.000000 -3.920000 -50.002296 -11.486740 2632.175049
8.120000 2.000000 -3.880000 -16.541933 -24.814791 889.409424
8.120000 2.000000 -3.840000 9.024461 -9.239035 166.800659
8.120000 2.000000 -3.800000 7.979719 15.087745 291.315948
8.120000 2.040000 -4.200000 12.179731 29.975363 1046.868286
8.120000 2.040000 -4.160000 11.628357 39.140900 1667.228760
8.120000 2.040000 -4.120000 5.147080 53.468998 2885.426270
8.120000 2.040000 -4.080000 -15.346089 65.917709 4580.646973
8.120000 2.040000 -4.040000 -46.983711 61.426250 5980.653320
8.120000 2.040000 -4.000000 -71.550194 32.307083 6163.177734
8.120000 2.040000 -3.960000 -69.094345 -8.861496 4852.554199
8.120000 2.040000 -3.920000 -38.262691 -35.627605 2733.359863
8.120000 2.040000 -3.880000 -1.529366 -30.668415 942.890686
8.120000 2.040000 -3.840000 13.374898 -3.329264 189.971893
8.120000 2.040000 -3.800000 -0.590080 17.852026 319.043030
8.120000 2.080000 -4.200000 -9.424042 28.543327 903.534119
8.120000 2.080000 -4.160000 -15.686818 32.390102 1295.195068
8.120000 2.080000 -4.120000 -25.951799 36.983696 2041.289795
8.120000 2.080000 -4.080000 -44.114876 35.569759 3211.330078
8.120000 2.080000 -4.040000 -63.168064 18.362822 4327.397461
8.120000 2.080000 -4.000000 -66.851250 -13.337293 4646.972656
8.120000 2.080000 -3.960000 -45.442692 -41.893421 3820.097168
8.120000 2.080000 -3.920000 -9.492248 -46.666470 2267.862061
8.120000 2.080000 -3.880000 15.928558 -24.659611 861.815308
8.120000 2.080000 -3.840000 13.898970 3.887388 208.293137
8.120000 2.080000 -3.800000 -7.186264 13.566216 235.684586
8.120000 2.120000 -4.200000 -23.698732 11.645987 697.258911
8.120000 2.120000 -4.160000 -30.135826 8.030440 972.656006
8.120000 2.120000 -4.120000 -36.562103 2.986765 1345.708130
8.120000 2.120000 -4.080000 -43.346405 -7.255085 1931.547119
8.120000 2.120000 -4.040000 -43.835720 -25.180429 2555.624268
8.120000 2.120000 -4.000000 -29.887321 -43.819244 2813.378174
8.120000 2.120000 -3.960000 -3.396900 -49.221230 2434.268311
8.120000 2.120000 -3.920000 20.479927 -33.945705 1571.738281
8.120000 2.120000 -3.880000 25.370842 -7.451556 699.205322
8.120000 2.120000 -3.840000 10.180790 10.161074 206.895905
8.120000 2.120000 -3.800000 -8.152810 7.049242 116.160126
8.120000 2.160000 -4.200000 -20.387268 -10.186977 519.415161
8.120000 2.160000 -4.160000 -22.011599 -17.993177 808.264893
8.120000 2.160000 -4.120000 -19.855097 -26.628147 1103.283081
8.120000 2.160000 -4.080000 -13.228943 -35.310982 1421.870361
8.120000 2.160000 -4.040000 -0.512337 -41.246078 1701.501465
8.120000 2.160000 -4.000000 16.700459 -38.820827 1785.961914
8.120000 2.160000 -3.960000 30.760620 -24.674032 1555.023682
8.120000 2.160000 -3.920000 32.410652 -3.821255 1065.052246
8.120000 2.160000 -3.880000 19.921494 11.688396 533.484497
8.120000 2.160000 -3.840000 2.902539 12.790018 172.009293
8.120000 2.160000 -3.800000 -5.326613 2.639865 35.341698
8.120000 2.200000 -4.200000 -1.503397 -21.061998 445.867981
8.120000 2.200000 -4.160000 1.488105 -27.370878 751.379456
8.120000 2.200000 -4.120000 10.278495 -32.761299 1178.950195
8.120000 2.200000 -4.080000 23.946474 -32.262447 1614.299072
8.120000 2.200000 -4.040000 37.327560 -22.241415 1888.027344
8.120000 2.200000 -4.000000 42.883301 -4.109543 1855.865845
8.120000 2.200000 -3.960000 35.844753 14.565337 1496.995361
8.120000 2.200000 -3.920000 19.035698 24.215490 948.747742
8.120000 2.200000 -3.880000 2.221981 20.659140 431.737244
8.120000 2.200000 -3.840000 -5.126981 9.159358 110.179771
8.120000 2.200000 -3.800000 -1.842351 0.341910 3.511159
8.160000 1.800000 -4.200000 -14.182999 5.736563 234.065613
8.160000 1.800000 -4.160000 -9.213562 -7.428169 140.067413
8.160000 1.800000 -4.120000 10.624816 -7.748579 172.927185
8.160000 1.800000 -4.080000 24.444141 14.344217 803.272644
8.160000 1.800000 -4.040000 12.378263 43.379406 2034.994263
8.160000 1.800000 -4.000000 -21.578173 52.512276 3223.156494
8.160000 1.800000 -3.960000 -51.121773 30.971474 3572.667725
8.160000 1.800000 -3.920000 -53.135643 -4.158267 2840.687744
8.160000 1.800000 -3.880000 -30.243479 -24.971851 1538.261475
8.160000 1.800000 -3.840000 -6.462193 -20.426743 459.011749
8.160000 1.800000 -3.800000 -1.177260 -5.169051 28.105032
8.160000 1.840000 -4.200000 -11.989132 -6.472558 185.633301
8.160000 1.840000 -4.160000 0.078450 -14.964767 223.950409
8.160000 1.840000 -4.120000 18.058708 -4.547566 346.797302
8.160000 1.840000 -4.080000 19.584074 22.162653 874.719116
8.160000 1.840000 -4.040000 -4.368072 42.483376 1823.917236
8.160000 1.840000 -4.000000 -37.794838 36.035095 2726.978027
8.160000 1.840000 -3.960000 -54.230343 6.005219 2976.992920
8.160000 1.840000 -3.920000 -42.603180 -23.630650 2373.438477
8.160000 1.840000 -3.880000 -16.941307 -32.016296 1312.051025
8.160000 1.840000 -3.840000 -0.222446 -20.712786 429.068970
8.160000 1.840000 -3.800000 -0.709900 -8.450108 71.908279
8.160000 1.880000 -4.200000 0.046106 -13.923221 193.858200
8.160000 1.880000 -4.160000 14.239891 -13.713686 390.839661
8.160000 1.880000 -4.120000 23.871677 3.452559 581.777161
8.160000 1.880000 -4.080000 13.874627 25.944359 865.614990
8.160000 1.880000 -4.040000 -13.113369 33.488098 1293.413208
8.160000 1.880000 -4.000000 -37.647408 17.235901 1714.403564
8.160000 1.880000 -3.960000 -41.603226 -11.181042 1855.844116
8.160000 1.880000 -3.920000 -24.784765 -30.955246 1572.511841
8.160000 1.880000 -3.880000 -3.218502 -31.482409 1001.500793
8.160000 1.880000 -3.840000 7.756240 -19.820311 453.003967
8.160000 1.880000 -3.800000 6.980859 -10.022455 149.182007
8.160000 1.920000 -4.200000 15.825842 -9.284286 336.655243
8.160000 1.920000 -4.160000 25.462524 -0.660995 648.777039
8.160000 1.920000 -4.120000 24.546501 16.611744 878.480713
8.160000 1.920000 -4.080000 8.419345 29.852772 962.073364
8.160000 1.920000 -4.040000 -14.537928 27.241911 953.473022
8.160000 1.920000 -4.000000 -29.315746 8.615050 933.632080
8.160000 1.920000 -3.960000 -26.787653 -14.184049 918.765625
8.160000 1.920000 -3.920000 -10.558913 -27.319971 857.871460
8.160000 1.920000 -3.880000 7.389635 -25.532867 706.533997
8.160000 1.920000 -3.840000 16.923485 -14.109616 485.485596
8.160000 1.920000 -3.800000 16.129295 -2.300316 265.445618
8.160000 1.960000 -4.200000 24.140579 7.789463 643.443298
8.160000 1.960000 -4.160000 24.177891 19.969040 983.332886
8.160000 1.960000 -4.120000 14.718869 31.240276 1192.599976
8.160000 1.960000 -4.080000 -1.859893 34.485107 1192.681885
8.160000 1.960000 -4.040000 -18.299597 25.929955 1007.237793
8.160000 1.960000 -4.000000 -26.097515 8.050089 745.884277
8.160000 1.960000 -3.960000 -20.497789 -10.889049 538.730713
8.160000 1.960000 -3.920000 -4.074078 -21.017443 458.331024
8.160000 1.960000 -3.880000 13.759197 -16.968893 477.258850
8.160000 1.960000 -3.840000 22.145096 -2.151405 495.033813
8.160000 1.960000 -3.800000 16.278284 12.638049 424.702820
8.160000 2.000000 -4.200000 16.388201 27.685646 1035.068115
8.160000 2.000000 -4.160000 6.291085 36.141720 1345.801636
8.160000 2.000000 -4.120000 -6.942101 37.635796 1464.645874
8.160000 2.000000 -4.080000 -19.715260 32.150360 1422.337158
8.160000 2.000000 -4.040000 -28.960562 19.995110 1238.518555
8.160000 2.000000 -4.000000 -30.308371 2.870613 926.837769
8.160000 2.000000 -3.960000 -20.038424 -13.041996 571.632080
8.160000 2.000000 -3.920000 -0.788277 -18.259264 334.022095
8.160000 2.000000 -3.880000 16.235504 -7.781449 324.142548
8.160000 2.000000 -3.840000 18.409519 11.490782 470.948486
8.160000 2.000000 -3.800000 3.771594 23.543842 568.537415
8.160000 2.040000 -4.200000 -5.097241 36.083603 1328.008179
8.160000 2.040000 -4.160000 -20.669388 34.968842 1650.043457
8.160000 2.040000 -4.120000 -31.656185 26.064228 1681.458008
8.160000 2.040000 -4.080000 -36.958618 14.065224 1563.770020
8.160000 2.040000 -4.040000 -37.074875 0.380374 1374.691040
8.160000 2.040000 -4.000000 -29.812645 -13.684237 1076.052246
8.160000 2.040000 -3.960000 -13.540924 -22.113842 672.378662
8.160000 2.040000 -3.920000 5.859191 -17.106359 326.957642
8.160000 2.040000 -3.880000 15.443991 1.021903 239.561127
8.160000 2.040000 -3.840000 6.691758 19.117874 410.272736
8.160000 2.040000 -3.800000 -13.133982 20.723383 601.960083
8.160000 2.080000 -4.200000 -26.348505 25.325626 1335.631104
8.160000 2.080000 -4.160000 -40.010216 13.670514 1787.700317
8.160000 2.080000 -4.120000 -43.266327 -2.658367 1879.041992
8.160000 2.080000 -4.080000 -37.959591 -16.979980 1729.250244
8.160000 2.080000 -4.040000 -27.117924 -27.196507 1475.031738
8.160000 2.080000 -4.000000 -11.730168 -31.660629 1139.992310
8.160000 2.080000 -3.960000 5.392829 -26.472691 729.885925
8.160000 2.080000 -3.920000 16.014616 -10.315004 362.867249
8.160000 2.080000 -3.880000 11.615862 8.898035 214.103271
8.160000 2.080000 -3.840000 -5.911065 16.792841 316.940186
8.160000 2.080000 -3.800000 -21.359856 5.879329 490.809937
8.160000 2.120000 -4.200000 -31.745308 2.397357 1013.511902
8.160000 2.120000 -4.160000 -37.890701 -15.386683 1672.455200
8.160000 2.120000 -4.120000 -30.827570 -33.271744 2057.347900
8.160000 2.120000 -4.080000 -14.533705 -43.485996 2102.260498
8.160000 2.120000 -4.040000 4.712796 -43.034351 1874.165894
8.160000 2.120000 -4.000000 20.908123 -32.035473 1463.421143
8.160000 2.120000 -3.960000 28.049149 -13.297412 963.575928
8.160000 2.120000 -3.920000 21.777308 5.853509 508.514709
8.160000 2.120000 -3.880000 4.499260 14.898511 242.208969
8.160000 2.120000 -3.840000 -12.302719 7.761931 211.604477
8.160000 2.120000 -3.800000 -15.070162 -9.288491 313.385834
8.160000 2.160000 -4.200000 -17.454252 -15.097383 532.581848
8.160000 2.160000 -4.160000 -15.679028 -32.504845 1302.396851
8.160000 2.160000 -4.120000 -0.203995 -45.913116 2108.055664
8.160000 2.160000 -4.080000 22.734182 -46.148384 2646.516357
8.160000 2.160000 -4.040000 42.098492 -30.863827 2724.858887
8.160000 2.160000 -4.000000 47.855164 -6.011475 2326.254639
8.160000 2.160000 -3.960000 36.530659 16.636368 1611.257812
8.160000 2.160000 -3.920000 14.212866 25.541931 854.395813
8.160000 2.160000 -3.880000 -5.764090 16.920719 319.535461
8.160000 2.160000 -3.840000 -11.143612 -1.303686 125.879677
8.160000 2.160000 -3.800000 -0.306180 -14.005475 196.247086
8.160000 2.200000 -4.200000 4.039167 -13.310961 193.496552
8.160000 2.200000 -4.160000 9.457466 -26.609882 797.529480
8.160000 2.200000 -4.120000 28.162750 -32.858337 1872.810791
8.160000 2.200000 -4.080000 50.353161 -21.801723 3010.756104
8.160000 2.200000 -4.040000 60.332687 5.142642 3666.479980
8.160000 2.200000 -4.000000 48.505386 33.743744 3491.412598
8.160000 2.200000 -3.960000 20.111893 46.496628 2566.424561
8.160000 2.200000 -3.920000 -7.303154 36.170654 1361.652344
8.160000 2.200000 -3.880000 -16.951885 12.149273 434.971252
8.160000 2.200000 -3.840000 -6.102075 -6.701942 82.151352
8.160000 2.200000 -3.800000 11.967666 -7.374987 197.615448
8.200000 1.800000 -4.200000 -25.463634 8.889621 727.421997
8.200000 1.800000 -4.160000 -18.504276 -7.866263 404.286346
8.200000 1.800000 -4.120000 0.785975 -5.203694 27.696192
8.200000 1.800000 -4.080000 5.857696 18.195452 365.387054
8.200000 1.800000 -4.040000 -17.022573 37.582516 1702.213379
8.200000 1.800000 -4.000000 -51.315506 27.729939 3402.230713
8.200000 1.800000 -3.960000 -65.411964 -9.095754 4361.458008
8.200000 1.800000 -3.920000 -45.054939 -43.682487 3938.107178
8.200000 1.800000 -3.880000 -8.142786 -49.071629 2474.329590
8.200000 1.800000 -3.840000 14.138113 -27.200325 939.743896
8.200000 1.800000 -3.800000 9.214421 -4.641527 106.449326
8.200000 1.840000 -4.200000 -24.268997 -7.685032 648.043945
8.200000 1.840000 -4.160000 -9.976060 -16.703743 378.536804
8.200000 1.840000 -4.120000 3.426706 -4.401180 31.112705
8.200000 1.840000 -4.080000 -4.791777 16.451021 293.597229
8.200000 1.840000 -4.040000 -32.425331 20.178671 1458.580811
8.200000 1.840000 -4.000000 -54.492374 -3.979712 2985.257080
8.200000 1.840000 -3.960000 -48.484428 -38.965767 3869.070801
8.200000 1.840000 -3.920000 -17.770325 -56.420135 3499.016113
8.200000 1.840000 -3.880000 12.074816 -45.086639 2178.606201
8.200000 1.840000 -3.840000 19.742041 -20.619400 814.907837
8.200000 1.840000 -3.800000 8.565841 -7.082250 123.531891
8.200000 1.880000 -4.200000 -8.923865 -17.484272 385.335144
8.200000 1.880000 -4.160000 4.193048 -15.117801 246.129547
8.200000 1.880000 -4.120000 5.934279 -0.239389 35.272980
8.200000 1.880000 -4.080000 -10.171374 9.364098 191.143188
8.200000 1.880000 -4.040000 -30.728447 -1.210592 945.702942
8.200000 1.880000 -4.000000 -35.226089 -27.461458 1995.009033
8.200000 1.880000 -3.960000 -16.848679 -48.961926 2681.148193
8.200000 1.880000 -3.920000 10.675616 -49.326340 2547.056641
8.200000 1.880000 -3.880000 27.135933 -31.483063 1727.541992
8.200000 1.880000 -3.840000 25.305874 -12.677612 801.109131
8.200000 1.880000 -3.800000 15.323198 -5.823347 268.711761
8.200000 1.920000 -4.200000 9.548547 -10.076885 192.718353
8.200000 1.920000 -4.160000 12.535923 -0.658442 157.582916
8.200000 1.920000 -4.120000 3.646261 7.505526 69.628136
8.200000 1.920000 -4.080000 -10.842243 3.587992 130.427917
8.200000 1.920000 -4.040000 -17.737825 -12.786440 478.123505
8.200000 1.920000 -4.000000 -9.260555 -30.465111 1013.880859
8.200000 1.920000 -3.960000 9.813124 -36.761536 1447.707886
8.200000 1.920000 -3.920000 26.943008 -28.371624 1530.874756
8.200000 1.920000 -3.880000 32.996422 -12.771156 1251.866211
8.200000 1.920000 -3.840000 28.553638 -0.054133 815.313171
8.200000 1.920000 -3.800000 20.375158 5.526284 445.686890
8.200000 1.960000 -4.200000 14.808001 11.063972 341.688354
8.200000 1.960000 -4.160000 4.879402 17.538523 331.408356
8.200000 1.960000 -4.120000 -7.421082 13.077814 226.101685
8.200000 1.960000 -4.080000 -12.513889 -0.036868 156.598785
8.200000 1.960000 -4.040000 -6.652822 -13.267859 220.296112
8.200000 1.960000 -4.000000 6.267871 -19.126871 405.123383
8.200000 1.960000 -3.960000 19.253107 -15.871211 622.577454
8.200000 1.960000 -3.920000 27.322584 -6.407132 787.574951
8.200000 1.960000 -3.880000 28.735056 5.242271 853.184814
8.200000 1.960000 -3.840000 23.511141 15.494236 792.845093
8.200000 1.960000 -3.800000 13.048436 20.645561 596.500854
8.200000 2.000000 -4.200000 -0.061378 29.355305 861.737671
8.200000 2.000000 -4.160000 -17.262569 23.994125 873.714355
8.200000 2.000000 -4.120000 -23.937326 7.507998 629.365662
8.200000 2.000000 -4.080000 -16.771946 -7.601152 339.075684
8.200000 2.000000 -4.040000 -2.980460 -12.928698 176.034348
8.200000 2.000000 -4.000000 8.808041 -9.315356 164.357452
8.200000 2.000000 -3.960000 15.657386 -1.800203 248.394470
8.200000 2.000000 -3.920000 18.575228 7.128521 395.854919
8.200000 2.000000 -3.880000 16.905708 17.324993 585.958374
8.200000 2.000000 -3.840000 8.145458 25.762405 730.050049
8.200000 2.000000 -3.800000 -5.959100 25.598351 690.786438
8.200000 2.040000 -4.200000 -24.780083 28.856876 1446.771729
8.200000 2.040000 -4.160000 -39.117264 9.879429 1627.763428
8.200000 2.040000 -4.120000 -34.173607 -12.550475 1325.349854
8.200000 2.040000 -4.080000 -16.233055 -23.314342 807.070679
8.200000 2.040000 -4.040000 1.177821 -19.606831 385.815063
8.200000 2.040000 -4.000000 10.388224 -8.770082 184.829529
8.200000 2.040000 -3.960000 12.506263 2.334093 161.854599
8.200000 2.040000 -3.920000 10.228910 12.444954 259.507477
8.200000 2.040000 -3.880000 2.607144 21.055637 450.137085
8.200000 2.040000 -3.840000 -10.771262 23.137758 651.375916
8.200000 2.040000 -3.800000 -23.022072 13.250864 705.601196
8.200000 2.080000 -4.200000 -39.720112 9.055599 1659.691162
8.200000 2.080000 -4.160000 -43.523216 -17.687134 2207.104980
8.200000 2.080000 -4.120000 -26.395187 -38.269512 2161.261475
8.200000 2.080000 -4.080000 -1.356960 -40.610092 1651.020874
8.200000 2.080000 -4.040000 16.670269 -27.368454 1026.930176
8.200000 2.080000 -4.000000 21.926603 -8.982312 561.457886
8.200000 2.080000 -3.960000 16.955276 6.626719 331.394806
8.200000 2.080000 -3.920000 5.606881 16.378859 299.704102
8.200000 2.080000 -3.880000 -9.255365 17.919823 406.781860
8.200000 2.080000 -3.840000 -22.082039 8.751105 564.198303
8.200000 2.080000 -3.800000 -23.949013 -8.203020 640.844788
8.200000 2.120000 -4.200000 -33.240196 -13.761334 1294.284912
8.200000 2.120000 -4.160000 -25.763226 -39.700348 2239.861328
8.200000 2.120000 -4.120000 -0.451036 -52.792618 2787.263916
8.200000 2.120000 -4.080000 27.104980 -44.731148 2735.555664
8.200000 2.120000 -4.040000 41.976456 -21.326509 2216.842773
8.200000 2.120000 -4.000000 38.834049 4.438312 1527.781982
8.200000 2.120000 -3.960000 21.819820 21.251637 927.736572
8.200000 2.120000 -3.920000 -0.106065 23.487164 551.658081
8.200000 2.120000 -3.880000 -16.842285 11.617395 418.626465
8.200000 2.120000 -3.840000 -20.037224 -7.556255 458.587311
8.200000 2.120000 -3.800000 -7.737232 -22.000359 543.880554
8.200000 2.160000 -4.200000 -12.500059 -20.761303 587.283203
8.200000 2.160000 -4.160000 1.242821 -40.695305 1657.652344
8.200000 2.160000 -4.120000 29.053833 -44.726273 2844.564697
8.200000 2.160000 -4.080000 54.156151 -26.462038 3633.128174
8.200000 2.160000 -4.040000 60.564816 5.574963 3699.177246
8.200000 2.160000 -4.000000 43.790546 33.864330 3064.404785
8.200000 2.160000 -3.960000 13.396149 43.217159 2047.179688
8.200000 2.160000 -3.920000 -13.180601 30.062092 1077.457642
8.200000 2.160000 -3.880000 -21.455894 4.516522 480.754395
8.200000 2.160000 -3.840000 -9.055899 -15.987380 337.605621
8.200000 2.160000 -3.800000 12.495230 -18.143375 485.312836
8.200000 2.200000 -4.200000 2.915350 -7.607772 66.377457
8.200000 2.200000 -4.160000 17.247215 -22.140257 787.657410
8.200000 2.200000 -4.120000 43.215271 -19.095943 2232.214844
8.200000 2.200000 -4.080000 61.604866 6.588525 3838.568115
8.200000 2.200000 -4.040000 55.399605 41.771858 4814.004395
8.200000 2.200000 -4.000000 24.380232 63.577175 4636.452637
8.200000 2.200000 -3.960000 -12.936528 56.931843 3408.588379
8.200000 2.200000 -3.920000 -32.705994 27.044815 1801.104004
8.200000 2.200000 -3.880000 -24.268469 -4.103819 605.799866
8.200000 2.200000 -3.840000 1.643955 -15.029959 228.602249
8.200000 2.200000 -3.800000 22.121546 -1.637599 492.044525
