#kx 	ky 	kz 	real 	imag 	intensity
4.800000 2.800000 2.800000 -21.834911 2.280434 481.963745
4.800000 2.800000 2.840000 -19.525965 -4.457974 401.136841
4.800000 2.800000 2.880000 -16.484783 -8.269560 340.133698
4.800000 2.800000 2.920000 -13.928055 -11.853532 334.496918
4.800000 2.800000 2.960000 -9.244556 -16.317659 351.727844
4.800000 2.800000 3.000000 -0.366033 -18.422419 339.519470
4.800000 2.800000 3.040000 9.949574 -13.793564 289.256409
4.800000 2.800000 3.080000 15.421656 -2.459673 243.877457
4.800000 2.800000 3.120000 12.129606 9.916718 245.468628
4.800000 2.800000 3.160000 2.345383 16.824892 288.577820
4.800000 2.800000 3.200000 -7.948288 16.470440 334.450684
4.800000 2.840000 2.800000 -19.027050 -15.898916 614.804199
4.800000 2.840000 2.840000 -12.736981 -18.871706 518.372009
4.800000 2.840000 2.880000 -7.755200 -19.805443 452.398682
4.800000 2.840000 2.920000 -2.803220 -20.158197 414.210968
4.800000 2.840000 2.960000 2.924600 -18.483379 350.188599
4.800000 2.840000 3.000000 7.262131 -13.419277 232.815536
4.800000 2.840000 3.040000 7.337026 -6.965820 102.354599
4.800000 2.840000 3.080000 3.710891 -3.218943 24.132301
4.800000 2.840000 3.120000 0.616882 -3.575253 13.162974
4.800000 2.840000 3.160000 1.120804 -4.520504 21.691156
4.800000 2.840000 3.200000 2.775817 -1.627018 10.352347
4.800000 2.880000 2.800000 -3.311078 -27.832844 785.630432
4.800000 2.880000 2.840000 3.946266 -25.394613 660.459351
4.800000 2.880000 2.880000 8.911038 -22.022562 564.399841
4.800000 2.880000 2.920000 12.569875 -17.266415 456.130859
4.800000 2.880000 2.960000 12.960772 -10.910637 287.023590
4.800000 2.880000 3.000000 8.428879 -6.556296 114.031021
4.800000 2.880000 3.040000 2.544550 -8.826003 84.373062
4.800000 2.880000 3.080000 2.841049 -16.582016 283.034821
4.800000 2.880000 3.120000 12.691641 -21.062775 604.718201
4.800000 2.880000 3.160000 25.103588 -13.526989 813.169556
4.800000 2.880000 3.200000 27.169405 4.350136 757.100281
4.800000 2.920000 2.800000 17.038818 -25.044523 917.549438
4.800000 2.920000 2.840000 21.435616 -17.531687 766.845703
4.800000 2.920000 2.880000 22.792837 -10.436145 628.426514
4.800000 2.920000 2.920000 20.695148 -3.370706 439.650848
4.800000 2.920000 2.960000 13.695282 0.540931 187.853348
4.800000 2.920000 3.000000 5.586164 -3.946556 46.780529
4.800000 2.920000 3.040000 5.807712 -16.089079 292.587982
4.800000 2.920000 3.080000 20.115936 -24.874710 1023.402100
4.800000 2.920000 3.120000 40.945053 -16.949675 1963.788818
4.800000 2.920000 3.160000 50.185722 8.955790 2598.812744
4.800000 2.920000 3.200000 35.038486 36.610577 2568.029785
4.800000 2.960000 2.800000 29.438032 -8.194771 933.751953
4.800000 2.960000 2.840000 27.654762 1.306969 766.494080
4.800000 2.960000 2.880000 22.861038 8.005187 586.710083
4.800000 2.960000 2.920000 14.951430 11.002638 344.603302
4.800000 2.960000 2.960000 6.322204 6.430017 81.315369
4.800000 2.960000 3.000000 5.230729 -6.187184 65.641769
4.800000 2.960000 3.040000 19.000793 -17.286173 659.841919
4.800000 2.960000 3.080000 42.658981 -11.841637 1960.013062
4.800000 2.960000 3.120000 57.475815 15.660139 3548.709229
4.800000 2.960000 3.160000 45.478115 51.002495 4669.513672
4.800000 2.960000 3.200000 7.807953 68.425232 4742.976562
4.800000 3.000000 2.800000 25.838890 12.500280 823.905273
4.800000 3.000000 2.840000 17.361364 18.639219 648.837463
4.800000 3.000000 2.880000 8.351883 19.272181 441.170898
4.800000 3.000000 2.920000 0.772132 13.980787 196.058609
4.800000 3.000000 2.960000 -0.357057 2.857835 8.294709
4.800000 3.000000 3.000000 10.869819 -7.494168 174.315521
4.800000 3.000000 3.040000 32.117783 -4.382819 1050.761108
4.800000 3.000000 3.080000 48.124252 19.704769 2704.221436
4.800000 3.000000 3.120000 40.230186 55.200096 4665.518555
4.800000 3.000000 3.160000 4.296138 77.911057 6088.589844
4.800000 3.000000 3.200000 -40.926529 67.843803 6277.762695
4.800000 3.040000 2.800000 8.641522 24.215313 661.057312
4.800000 3.040000 2.840000 -2.653860 22.132034 496.869904
4.800000 3.040000 2.880000 -9.282088 14.233173 288.740387
4.800000 3.040000 2.920000 -8.620653 3.597684 87.258987
4.800000 3.040000 2.960000 1.497137 -4.496489 22.459833
4.800000 3.040000 3.000000 18.651436 -1.589957 350.404022
4.800000 3.040000 3.040000 31.806164 18.013577 1336.121094
4.800000 3.040000 3.080000 25.974728 48.126091 2990.807129
4.800000 3.040000 3.120000 -4.584922 69.740128 4884.707031
4.800000 3.040000 3.160000 -46.874924 63.778442 6264.948242
4.800000 3.040000 3.200000 -75.393349 28.238066 6481.545410
4.800000 3.080000 2.800000 -11.236281 20.532574 547.840576
4.800000 3.080000 2.840000 -18.456120 9.491098 430.709290
4.800000 3.080000 2.880000 -15.858912 -3.014163 260.590302
4.800000 3.080000 2.920000 -4.381382 -10.104540 121.298233
4.800000 3.080000 2.960000 10.842621 -5.946168 152.919342
4.800000 3.080000 3.000000 20.401920 11.271594 543.287170
4.800000 3.080000 3.040000 14.039082 35.241486 1439.058105
4.800000 3.080000 3.080000 -11.502384 51.557816 2790.513184
4.800000 3.080000 3.120000 -46.322182 45.896515 4252.234375
4.800000 3.080000 3.160000 -70.854782 15.873349 5272.363770
4.800000 3.080000 3.200000 -69.244263 -24.158594 5378.405762
4.800000 3.120000 2.800000 -22.553551 5.247598 536.199951
4.800000 3.120000 2.840000 -20.032276 -10.043865 502.171326
4.800000 3.120000 2.880000 -6.672837 -18.865910 400.449310
4.800000 3.120000 2.920000 9.870066 -14.525474 308.407593
4.800000 3.120000 2.960000 18.669834 2.458123 354.605072
4.800000 3.120000 3.000000 11.514479 23.346073 677.622314
4.800000 3.120000 3.040000 -11.282778 34.896664 1345.078125
4.800000 3.120000 3.080000 -39.140877 27.132931 2268.204102
4.800000 3.120000 3.120000 -56.363384 0.800381 3177.471680
4.800000 3.120000 3.160000 -52.176353 -31.512295 3715.396484
4.800000 3.120000 3.200000 -28.590176 -52.953781 3621.501221
4.800000 3.160000 2.800000 -21.343357 -11.749903 593.599121
4.800000 3.160000 2.840000 -8.522289 -23.904758 644.066895
4.800000 3.160000 2.880000 10.281615 -22.376621 606.424805
4.800000 3.160000 2.920000 22.081608 -6.134938 525.234863
4.800000 3.160000 2.960000 16.959044 14.891937 509.378967
4.800000 3.160000 3.000000 -3.975880 25.827265 682.855225
4.800000 3.160000 3.040000 -28.199173 17.355549 1096.408447
4.800000 3.160000 3.080000 -40.060097 -7.108876 1655.347534
4.800000 3.160000 3.120000 -31.823942 -33.496151 2134.755371
4.800000 3.160000 3.160000 -8.894196 -47.045452 2292.381348
4.800000 3.160000 3.200000 14.722351 -42.477215 2021.061279
4.800000 3.200000 2.800000 -11.928318 -22.467817 647.087585
4.800000 3.200000 2.840000 6.573449 -26.304543 735.139160
4.800000 3.200000 2.880000 22.743446 -14.016691 713.731995
4.800000 3.200000 2.920000 23.515665 7.222942 605.157410
4.800000 3.200000 2.960000 6.571236 21.502766 505.550079
4.800000 3.200000 3.000000 -16.204679 16.714592 541.969238
4.800000 3.200000 3.040000 -27.436253 -4.974507 777.493713
4.800000 3.200000 3.080000 -18.205095 -28.303291 1132.501831
4.800000 3.200000 3.120000 4.871866 -37.148720 1403.762451
4.800000 3.200000 3.160000 25.573692 -27.198299 1393.761230
4.800000 3.200000 3.200000 31.516743 -8.220510 1060.881836
4.840000 2.800000 2.800000 -24.224388 3.965100 602.543030
4.840000 2.800000 2.840000 -24.157595 -5.888246 618.260803
4.840000 2.800000 2.880000 -19.312996 -14.699407 589.064392
4.840000 2.800000 2.920000 -10.571344 -20.307774 524.158997
4.840000 2.800000 2.960000 0.218054 -20.802637 432.797272
4.840000 2.800000 3.000000 9.895590 -15.328308 332.879730
4.840000 2.800000 3.040000 14.886557 -5.337461 250.098068
4.840000 2.800000 3.080000 13.291353 5.391930 205.732971
4.840000 2.800000 3.120000 6.297161 12.795126 203.369492
4.840000 2.800000 3.160000 -2.782772 14.917978 230.289902
4.840000 2.800000 3.200000 -10.931128 12.367485 272.444214
4.840000 2.840000 2.800000 -17.185665 -15.001816 520.401550
4.840000 2.840000 2.840000 -6.453716 -20.584091 465.355255
4.840000 2.840000 2.880000 5.662294 -17.589170 341.440491
4.840000 2.840000 2.920000 12.107754 -7.190853 198.306076
4.840000 2.840000 2.960000 8.970861 3.844701 95.258080
4.840000 2.840000 3.000000 -0.656517 7.856300 62.152470
4.840000 2.840000 3.040000 -8.519678 2.721375 79.990791
4.840000 2.840000 3.080000 -8.055843 -5.886713 99.550003
4.840000 2.840000 3.120000 -0.458294 -9.239372 85.576027
4.840000 2.840000 3.160000 6.061713 -3.672119 50.228825
4.840000 2.840000 3.200000 3.809112 5.531082 45.102203
4.840000 2.880000 2.800000 2.701001 -22.487617 512.988342
4.840000 2.880000 2.840000 18.573997 -14.768822 563.111450
4.840000 2.880000 2.880000 24.844894 4.790882 640.221375
4.840000 2.880000 2.920000 13.028933 24.663868 778.059448
4.840000 2.880000 2.960000 -12.023294 28.776546 972.649231
4.840000 2.880000 3.000000 -32.484665 10.716976 1170.106934
4.840000 2.880000 3.040000 -31.175934 -17.946621 1294.020020
4.840000 2.880000 3.080000 -7.338881 -35.174362 1291.094849
4.840000 2.880000 3.120000 20.842295 -26.994299 1163.093506
4.840000 2.880000 3.160000 31.034107 -0.328857 963.223938
4.840000 2.880000 3.200000 16.144718 22.491074 766.500305
4.840000 2.920000 2.800000 21.552301 -11.664307 600.557739
4.840000 2.920000 2.840000 29.843723 10.904169 1009.548706
4.840000 2.920000 2.880000 16.519329 37.590874 1685.961914
4.840000 2.920000 2.920000 -17.673115 47.022327 2523.438477
4.840000 2.920000 2.960000 -51.602074 24.711636 3273.438965
4.840000 2.920000 3.000000 -57.478729 -19.756340 3694.117188
4.840000 2.920000 3.040000 -25.525568 -55.352879 3715.495850
4.840000 2.920000 3.080000 23.715412 -53.884232 3465.931152
4.840000 2.920000 3.120000 53.898453 -15.226204 3136.880371
4.840000 2.920000 3.160000 43.235424 30.848404 2820.925781
4.840000 2.920000 3.200000 3.087372 49.637650 2473.428223
4.840000 2.960000 2.800000 24.792208 10.136868 717.409668
4.840000 2.960000 2.840000 15.053746 37.223320 1612.190796
4.840000 2.960000 2.880000 -18.574255 52.075851 3056.897217
4.840000 2.960000 2.920000 -59.497498 34.218201 4710.837402
4.840000 2.960000 2.960000 -75.894653 -14.938930 5983.169922
4.840000 2.960000 3.000000 -47.109344 -64.911583 6432.803711
4.840000 2.960000 3.040000 13.421776 -76.994896 6108.357910
4.840000 2.960000 3.080000 63.676304 -37.885792 5490.004883
4.840000 2.960000 3.120000 66.380409 25.517889 5057.521484
4.840000 2.960000 3.160000 21.049072 66.641174 4884.109375
4.840000 2.960000 3.200000 -35.510590 58.052170 4631.056641
4.840000 3.000000 2.800000 9.375837 26.392782 784.485291
4.840000 3.000000 2.840000 -16.632376 41.998322 2040.494873
4.840000 3.000000 2.880000 -54.580654 31.936947 3999.016357
4.840000 3.000000 2.920000 -77.475616 -10.407923 6110.795898
4.840000 3.000000 2.960000 -59.181911 -63.533661 7539.024414
4.840000 3.000000 3.000000 -1.448527 -88.134407 7769.771973
4.840000 3.000000 3.040000 59.451668 -59.316296 7052.923828
4.840000 3.000000 3.080000 78.473465 7.801470 6218.947266
4.840000 3.000000 3.120000 39.963421 66.076492 5963.177734
4.840000 3.000000 3.160000 -27.256775 74.175659 6244.959961
4.840000 3.000000 3.200000 -73.582687 30.737806 6359.224609
4.840000 3.040000 2.800000 -13.343310 24.646526 785.495178
4.840000 3.040000 2.840000 -41.268856 19.780487 2094.386230
4.840000 3.040000 2.880000 -62.558514 -10.259197 4018.818848
4.840000 3.040000 2.920000 -54.261971 -54.767616 5943.853027
4.840000 3.040000 2.960000 -9.686354 -83.379005 7045.884277
4.840000 3.040000 3.000000 47.673172 -68.246094 6930.260742
4.840000 3.040000 3.040000 76.850533 -11.325941 6034.281250
4.840000 3.040000 3.080000 52.512093 50.743294 5332.401367
4.840000 3.040000 3.120000 -10.872414 73.456177 5514.019531
4.840000 3.040000 3.160000 -68.289139 41.193378 6360.300781
4.840000 3.040000 3.200000 -80.744186 -19.774693 6910.662109
4.840000 3.080000 2.800000 -26.937132 6.349391 765.923828
4.840000 3.080000 2.840000 -40.676086 -13.184881 1828.385132
4.840000 3.080000 2.880000 -36.433048 -43.536331 3222.779297
4.840000 3.080000 2.920000 -6.750115 -66.327263 4444.869629
4.840000 3.080000 2.960000 36.432632 -60.047871 4933.083496
4.840000 3.080000 3.000000 64.416771 -19.922968 4546.445312
4.840000 3.080000 3.040000 52.739769 31.822857 3794.177246
4.840000 3.080000 3.080000 3.989370 59.080742 3506.449219
4.840000 3.080000 3.120000 -50.028141 40.483265 4141.709961
4.840000 3.080000 3.160000 -72.047394 -11.661648 5326.821289
4.840000 3.080000 3.200000 -49.233089 -60.612137 6097.728516
4.840000 3.120000 2.800000 -23.084841 -15.232628 764.942810
4.840000 3.120000 2.840000 -17.489731 -33.652706 1438.395264
4.840000 3.120000 2.880000 2.439189 -46.101532 2131.301025
4.840000 3.120000 2.920000 29.665524 -40.934914 2555.710449
4.840000 3.120000 2.960000 47.739185 -14.951433 2502.575195
4.840000 3.120000 3.000000 41.012802 19.600510 2066.229980
4.840000 3.120000 3.040000 8.617245 40.034027 1676.980225
4.840000 3.120000 3.080000 -30.824110 29.594379 1825.953003
4.840000 3.120000 3.120000 -50.895378 -7.724463 2650.006836
4.840000 3.120000 3.160000 -37.622917 -48.178257 3736.628418
4.840000 3.120000 3.200000 -0.754005 -66.087540 4368.131348
4.840000 3.160000 2.800000 -6.945545 -26.677164 759.911682
4.840000 3.160000 2.840000 9.215830 -31.310625 1065.286743
4.840000 3.160000 2.880000 26.031406 -23.112919 1211.841064
4.840000 3.160000 2.920000 33.330105 -4.135593 1127.999023
4.840000 3.160000 2.960000 24.702736 15.938902 864.273743
4.840000 3.160000 3.000000 2.899193 24.498276 608.570862
4.840000 3.160000 3.040000 -19.998314 14.214899 601.995911
4.840000 3.160000 3.080000 -29.396870 -10.745832 979.648865
4.840000 3.160000 3.120000 -18.254974 -36.152168 1640.223389
4.840000 3.160000 3.160000 7.367329 -47.003368 2263.594238
4.840000 3.160000 3.200000 32.361732 -38.074596 2496.956543
4.840000 3.200000 2.800000 9.207031 -24.706650 695.187927
4.840000 3.200000 2.840000 22.329622 -15.185938 729.224731
4.840000 3.200000 2.880000 24.526333 1.687349 604.388184
4.840000 3.200000 2.920000 13.217916 14.954775 398.358612
4.840000 3.200000 2.960000 -4.618684 15.198792 252.335541
4.840000 3.200000 3.000000 -17.022486 1.552811 292.176239
4.840000 3.200000 3.040000 -15.449335 -17.506516 545.160034
4.840000 3.200000 3.080000 -0.596752 -30.169998 910.584900
4.840000 3.200000 3.120000 18.593592 -29.404835 1210.365967
4.840000 3.200000 3.160000 31.625538 -17.117130 1293.170776
4.840000 3.200000 3.200000 33.456650 -1.651754 1122.075684
4.880000 2.800000 2.800000 -29.129736 2.325789 853.950806
4.880000 2.800000 2.840000 -27.373604 -12.537901 906.513184
4.880000 2.800000 2.880000 -16.162546 -23.652702 820.678223
4.880000 2.800000 2.920000 -0.638359 -25.387426 644.928955
4.880000 2.800000 2.960000 11.699631 -17.760569 452.319153
4.880000 2.800000 3.000000 16.188396 -5.978065 297.801453
4.880000 2.800000 3.040000 13.543885 3.890701 198.574387
4.880000 2.800000 3.080000 7.879524 9.143406 145.688782
4.880000 2.800000 3.120000 2.476261 10.961191 126.279579
4.880000 2.800000 3.160000 -2.426203 11.309883 133.799927
4.880000 2.800000 3.200000 -7.924572 9.927982 161.363678
4.880000 2.840000 2.800000 -16.874041 -14.957822 508.469666
4.880000 2.840000 2.840000 0.239967 -16.851067 284.016022
4.880000 2.840000 2.880000 12.815765 -3.188301 174.409103
4.880000 2.840000 2.920000 8.703728 15.920361 329.212769
4.880000 2.840000 2.960000 -10.107033 23.711235 664.374756
4.880000 2.840000 3.000000 -27.788488 12.346535 924.636963
4.880000 2.840000 3.040000 -28.723625 -8.949848 905.146423
4.880000 2.840000 3.080000 -12.177933 -21.867901 626.507141
4.880000 2.840000 3.120000 6.878456 -15.988562 302.947266
4.880000 2.840000 3.160000 11.908676 1.674206 144.619537
4.880000 2.840000 3.200000 0.244095 13.756750 189.307755
4.880000 2.880000 2.800000 4.111210 -15.315780 251.475159
4.880000 2.880000 2.840000 20.235609 7.423471 464.587830
4.880000 2.880000 2.880000 8.728500 40.642532 1728.002197
4.880000 2.880000 2.920000 -31.429581 54.226662 3928.349365
4.880000 2.880000 2.960000 -72.723831 28.528637 6102.639160
4.880000 2.880000 3.000000 -80.570877 -23.820343 7059.074707
4.880000 2.880000 3.040000 -45.003998 -65.211807 6277.939453
4.880000 2.880000 3.080000 8.266022 -65.084641 4304.337402
4.880000 2.880000 3.120000 39.544777 -26.995672 2292.555664
4.880000 2.880000 3.160000 29.783096 15.318207 1121.680298
4.880000 2.880000 3.200000 -4.536276 28.954365 858.933044
4.880000 2.920000 2.800000 15.753300 1.630588 250.825272
4.880000 2.920000 2.840000 8.939583 41.524067 1804.164307
4.880000 2.920000 2.880000 -38.443943 66.627396 5917.146484
4.880000 2.920000 2.920000 -99.937981 41.729309 11728.934570
4.880000 2.920000 2.960000 -125.466278 -30.795631 16690.158203
4.880000 2.920000 3.000000 -85.489754 -104.392494 18206.291016
4.880000 2.920000 3.040000 -1.942364 -124.689781 15551.314453
4.880000 2.920000 3.080000 66.613647 -77.265053 10407.265625
4.880000 2.920000 3.120000 74.457932 -1.128199 5545.256348
4.880000 2.920000 3.160000 26.837841 45.824657 2820.168945
4.880000 2.920000 3.200000 -28.614901 36.708885 2166.354736
4.880000 2.960000 2.800000 7.317356 20.500610 473.818726
4.880000 2.960000 2.840000 -30.232195 53.104218 3734.043457
4.880000 2.960000 2.880000 -96.285339 41.453880 10989.290039
4.880000 2.960000 2.920000 -139.681702 -30.031281 20412.855469
4.880000 2.960000 2.960000 -112.384262 -123.230003 27815.855469
4.880000 2.960000 3.000000 -17.829147 -170.426575 29363.095703
4.880000 2.960000 3.040000 83.414734 -132.103760 24409.421875
4.880000 2.960000 3.080000 121.605240 -34.573265 15983.144531
4.880000 2.960000 3.120000 77.003395 50.519188 8481.710938
4.880000 2.960000 3.160000 -5.297705 67.297440 4557.011230
4.880000 2.960000 3.200000 -58.100410 20.324301 3788.734863
4.880000 3.000000 2.800000 -14.223700 23.409992 750.341309
4.880000 3.000000 2.840000 -66.736908 26.533092 5157.819824
4.880000 3.000000 2.880000 -116.082458 -25.438061 14122.231445
4.880000 3.000000 2.920000 -109.264664 -114.923676 25146.218750
4.880000 3.000000 2.960000 -27.815742 -180.200989 33246.113281
4.880000 3.000000 3.000000 84.718399 -164.463791 34225.546875
4.880000 3.000000 3.040000 151.694565 -69.221870 27802.908203
4.880000 3.000000 3.080000 127.232758 40.912727 17862.025391
4.880000 3.000000 3.120000 36.104820 90.703186 9530.626953
4.880000 3.000000 3.160000 -48.694153 56.721397 5588.437500
4.880000 3.000000 3.200000 -69.560150 -17.909735 5159.373047
4.880000 3.040000 2.800000 -29.959703 6.113499 934.958679
4.880000 3.040000 2.840000 -69.715889 -21.040134 5302.992188
4.880000 3.040000 2.880000 -77.697044 -86.744041 13561.359375
4.880000 3.040000 2.920000 -24.069958 -150.462921 23218.453125
4.880000 3.040000 2.960000 72.865120 -156.566696 29822.457031
4.880000 3.040000 3.000000 150.819778 -84.774460 29933.314453
4.880000 3.040000 3.040000 152.173523 24.144571 23739.742188
4.880000 3.040000 3.080000 74.926331 96.843918 14992.699219
4.880000 3.040000 3.120000 -23.076284 87.639801 8213.250000
4.880000 3.040000 3.160000 -72.702553 15.440666 5524.075195
4.880000 3.040000 3.200000 -50.294426 -56.524208 5724.515625
4.880000 3.080000 2.800000 -25.862871 -18.237276 1001.486328
4.880000 3.080000 2.840000 -35.984013 -54.412140 4255.530273
4.880000 3.080000 2.880000 -8.832878 -99.018486 9882.679688
4.880000 3.080000 2.920000 55.610760 -113.792084 16041.195312
4.880000 3.080000 2.960000 120.906174 -72.119934 19819.587891
4.880000 3.080000 3.000000 138.217026 11.026775 19225.535156
4.880000 3.080000 3.040000 88.390648 83.419510 14771.720703
4.880000 3.080000 3.080000 2.837502 95.830009 9191.442383
4.880000 3.080000 3.120000 -59.428703 43.411480 5416.327148
4.880000 3.080000 3.160000 -59.839203 -30.427242 4506.547363
4.880000 3.080000 3.200000 -9.810378 -71.757713 5245.413086
4.880000 3.120000 2.800000 -4.763501 -31.191988 995.631042
4.880000 3.120000 2.840000 7.995661 -51.789497 2746.082764
4.880000 3.120000 2.880000 40.650089 -60.641609 5329.834473
4.880000 3.120000 2.920000 78.600830 -40.440399 7813.516113
4.880000 3.120000 2.960000 94.395599 7.651001 8969.067383
4.880000 3.120000 3.000000 69.476532 57.735039 8160.323242
4.880000 3.120000 3.040000 13.690521 75.767899 5928.204590
4.880000 3.120000 3.080000 -37.832191 47.449863 3682.764160
4.880000 3.120000 3.120000 -51.076401 -7.821478 2669.974365
4.880000 3.120000 3.160000 -20.484795 -51.392681 3060.834473
4.880000 3.120000 3.200000 27.615925 -56.364883 3939.639160
4.880000 3.160000 2.800000 17.427204 -25.111443 934.291992
4.880000 3.160000 2.840000 31.383141 -22.338921 1483.928833
4.880000 3.160000 2.880000 43.541286 -9.471432 1985.551636
4.880000 3.160000 2.920000 45.826271 11.528316 2232.949219
4.880000 3.160000 2.960000 32.585632 31.786636 2072.213867
4.880000 3.160000 3.000000 6.800034 38.822334 1553.414062
4.880000 3.160000 3.040000 -18.431084 25.302402 979.916382
4.880000 3.160000 3.080000 -27.172894 -3.293354 749.212341
4.880000 3.160000 3.120000 -12.582829 -30.118540 1065.454102
4.880000 3.160000 3.160000 16.648380 -38.401703 1751.859375
4.880000 3.160000 3.200000 42.080921 -24.059618 2349.669189
4.880000 3.200000 2.800000 26.764046 -8.192189 783.426086
4.880000 3.200000 2.840000 25.885818 5.929600 705.235779
4.880000 3.200000 2.880000 15.301022 15.304167 468.338776
4.880000 3.200000 2.920000 1.809721 14.546591 214.878387
4.880000 3.200000 2.960000 -6.757362 5.239426 73.113525
4.880000 3.200000 3.000000 -6.815407 -6.587976 89.851189
4.880000 3.200000 3.040000 0.191429 -15.308176 234.376907
4.880000 3.200000 3.080000 10.562941 -18.347130 448.192902
4.880000 3.200000 3.120000 20.960125 -15.575503 681.923157
4.880000 3.200000 3.160000 28.830956 -7.878765 893.298950
4.880000 3.200000 3.200000 31.965780 3.009590 1030.868774
4.920000 2.800000 2.800000 -32.311714 -3.104136 1053.682495
4.920000 2.800000 2.840000 -25.055574 -20.436649 1045.438477
4.920000 2.800000 2.880000 -7.380280 -28.353315 858.378967
4.920000 2.800000 2.920000 10.169647 -22.470547 608.347168
4.920000 2.800000 2.960000 18.081879 -8.280479 395.520691
4.920000 2.800000 3.000000 15.230939 4.227219 249.850891
4.920000 2.800000 3.040000 8.209091 9.335251 154.536087
4.920000 2.800000 3.080000 3.854736 9.248276 100.389595
4.920000 2.800000 3.120000 2.892899 9.657225 101.630844
4.920000 2.800000 3.160000 0.946405 12.506077 157.297638
4.920000 2.800000 3.200000 -4.803972 13.946905 217.594315
4.920000 2.840000 2.800000 -16.877001 -15.139796 514.046570
4.920000 2.840000 2.840000 0.895050 -8.082716 66.131416
4.920000 2.840000 2.880000 3.212646 13.063726 180.982040
4.920000 2.840000 2.920000 -16.374302 27.438808 1021.005981
4.920000 2.840000 2.960000 -42.265213 17.669846 2098.571777
4.920000 2.840000 3.000000 -50.190098 -11.860306 2659.712646
4.920000 2.840000 3.040000 -30.523521 -37.403549 2330.710938
4.920000 2.840000 3.080000 1.672882 -37.661110 1421.157837
4.920000 2.840000 3.120000 20.412996 -13.746437 605.654968
4.920000 2.840000 3.160000 12.954633 12.359276 320.574219
4.920000 2.840000 3.200000 -9.333057 19.100431 451.932434
4.920000 2.880000 2.800000 -0.513819 -9.118605 83.412956
4.920000 2.880000 2.840000 0.515003 25.496704 650.347168
4.920000 2.880000 2.880000 -37.992188 51.239143 4068.855957
4.920000 2.880000 2.920000 -93.120125 32.124283 9703.327148
4.920000 2.880000 2.960000 -117.455406 -31.886963 14812.550781
4.920000 2.880000 3.000000 -82.476395 -98.168228 16439.355469
4.920000 2.880000 3.040000 -8.093506 -116.737343 13693.112305
4.920000 2.880000 3.080000 52.447216 -75.194153 8404.871094
4.920000 2.880000 3.120000 59.235352 -9.660286 3602.147949
4.920000 2.880000 3.160000 19.314274 28.926258 1209.769531
4.920000 2.880000 3.200000 -24.181791 19.922779 981.676147
4.920000 2.920000 2.800000 0.803614 6.619736 44.466694
4.920000 2.920000 2.840000 -35.407845 45.413574 3316.108398
4.920000 2.920000 2.880000 -107.875412 35.863815 12923.317383
4.920000 2.920000 2.920000 -157.200043 -42.331532 26503.812500
4.920000 2.920000 2.960000 -127.666649 -146.074051 37636.402344
4.920000 2.920000 3.000000 -23.462662 -198.980499 40143.734375
4.920000 2.920000 3.040000 87.432274 -158.346542 32718.029297
4.920000 2.920000 3.080000 129.775467 -55.108757 19878.646484
4.920000 2.920000 3.120000 85.616798 33.111847 8426.630859
4.920000 2.920000 3.160000 5.641417 50.327499 2564.682861
4.920000 2.920000 3.200000 -41.385696 6.515555 1755.228394
4.920000 2.960000 2.800000 -13.860239 13.659655 378.692383
4.920000 2.960000 2.840000 -79.624084 23.599262 6896.919922
4.920000 2.960000 2.880000 -145.867218 -40.671825 22931.443359
4.920000 2.960000 2.920000 -139.463806 -157.184631 44157.160156
4.920000 2.960000 2.960000 -34.933342 -243.727264 60623.320312
4.920000 2.960000 3.000000 110.395821 -226.162949 63336.917969
4.920000 2.960000 3.040000 198.172562 -107.966125 50929.046875
4.920000 2.960000 3.080000 172.822815 28.104498 30657.587891
4.920000 2.960000 3.120000 68.303787 90.676514 12887.637695
4.920000 2.960000 3.160000 -26.261379 56.227901 3851.236816
4.920000 2.960000 3.200000 -47.112877 -19.838535 2613.190674
4.920000 3.000000 2.800000 -28.697254 1.588272 826.054993
4.920000 3.000000 2.840000 -91.339630 -31.326004 9324.246094
4.920000 3.000000 2.880000 -109.562027 -128.377640 28484.656250
4.920000 3.000000 2.920000 -33.308731 -227.464630 52849.628906
4.920000 3.000000 2.960000 111.332550 -242.119568 71016.820312
4.920000 3.000000 3.000000 230.918610 -140.837784 73158.687500
4.920000 3.000000 3.040000 240.782730 16.348730 58243.605469
4.920000 3.000000 3.080000 139.315613 124.147659 34821.480469
4.920000 3.000000 3.120000 8.925381 120.637939 14633.174805
4.920000 3.000000 3.160000 -57.427269 35.269432 4541.824219
4.920000 3.000000 3.200000 -33.610027 -46.576420 3298.996582
4.920000 3.040000 2.800000 -26.180687 -21.161064 1133.218994
4.920000 3.040000 2.840000 -54.814178 -78.898987 9229.644531
4.920000 3.040000 2.880000 -17.347433 -161.585831 26410.914062
4.920000 3.040000 2.920000 92.444366 -197.520416 47560.277344
4.920000 3.040000 2.960000 211.480621 -134.352081 62774.539062
4.920000 3.040000 3.000000 252.690460 5.331955 63880.898438
4.920000 3.040000 3.040000 180.720108 133.254669 50416.562500
4.920000 3.040000 3.080000 46.356709 166.929916 30014.542969
4.920000 3.040000 3.120000 -55.554623 98.416199 12772.064453
4.920000 3.040000 3.160000 -66.132538 -3.816101 4388.075195
4.920000 3.040000 3.200000 -5.739375 -59.421432 3563.847168
4.920000 3.080000 2.800000 -4.190912 -34.867981 1233.339844
4.920000 3.080000 2.840000 4.797457 -83.097839 6928.266602
4.920000 3.080000 2.880000 65.903595 -118.144882 18301.496094
4.920000 3.080000 2.920000 152.749176 -92.065849 31808.431641
4.920000 3.080000 2.960000 202.734100 2.133514 41105.667969
4.920000 3.080000 3.000000 168.644150 113.073242 41226.406250
4.920000 3.080000 3.040000 64.175568 167.629227 32218.062500
4.920000 3.080000 3.080000 -42.236645 131.812256 19158.404297
4.920000 3.080000 3.120000 -82.990524 39.575150 8453.620117
4.920000 3.080000 3.160000 -45.727226 -37.845680 3523.274902
4.920000 3.080000 3.200000 22.848114 -52.731743 3302.673096
4.920000 3.120000 2.800000 21.752075 -27.081297 1206.549438
4.920000 3.120000 2.840000 44.431648 -44.594925 3962.878662
4.920000 3.120000 2.880000 86.880318 -37.760437 8974.040039
4.920000 3.120000 2.920000 120.526184 7.947449 14589.723633
4.920000 3.120000 2.960000 111.685310 75.334229 18148.855469
4.920000 3.120000 3.000000 52.948631 122.216545 17740.441406
4.920000 3.120000 3.040000 -24.255806 114.229752 13636.780273
4.920000 3.120000 3.080000 -71.352463 55.268517 8145.782715
4.920000 3.120000 3.120000 -61.447678 -13.593655 3960.604492
4.920000 3.120000 3.160000 -10.267231 -47.342258 2346.705566
4.920000 3.120000 3.200000 39.616859 -32.366226 2617.068359
4.920000 3.160000 2.800000 33.172928 -3.863951 1115.373291
4.920000 3.160000 2.840000 41.937908 2.324661 1764.192139
4.920000 3.160000 2.880000 48.546234 17.451622 2661.295898
4.920000 3.160000 2.920000 44.018333 39.568253 3503.260254
4.920000 3.160000 2.960000 22.644363 57.847969 3859.154785
4.920000 3.160000 3.000000 -9.817184 58.159500 3478.904541
4.920000 3.160000 3.040000 -36.284019 34.961887 2538.863770
4.920000 3.160000 3.080000 -39.655952 -1.117851 1573.844238
4.920000 3.160000 3.120000 -16.877104 -28.712578 1109.248779
4.920000 3.160000 3.160000 17.181261 -31.374643 1279.563965
4.920000 3.160000 3.200000 40.656807 -10.123034 1755.451782
4.920000 3.200000 2.800000 25.347824 16.959671 930.142639
4.920000 3.200000 2.840000 12.654886 23.520767 713.372681
4.920000 3.200000 2.880000 -0.437931 19.266300 371.382111
4.920000 3.200000 2.920000 -5.805630 8.558790 106.958229
4.920000 3.200000 2.960000 -2.890427 -0.287790 8.437389
4.920000 3.200000 3.000000 2.432533 -3.360634 17.211079
4.920000 3.200000 3.040000 5.373613 -3.664734 42.305996
4.920000 3.200000 3.080000 7.338055 -5.615479 85.380646
4.920000 3.200000 3.120000 12.963711 -8.442879 239.339996
4.920000 3.200000 3.160000 22.897240 -6.357378 564.699829
4.920000 3.200000 3.200000 30.959217 4.533777 979.028259
4.960000 2.800000 2.800000 -31.625414 -8.937107 1080.038696
4.960000 2.800000 2.840000 -19.000134 -24.259737 949.539917
4.960000 2.800000 2.880000 0.738655 -26.103111 681.918030
4.960000 2.800000 2.920000 14.967400 -14.493301 434.078857
4.960000 2.800000 2.960000 16.754358 0.878578 281.480438
4.960000 2.800000 3.000000 9.829124 9.908829 194.796570
4.960000 2.800000 3.040000 3.382370 10.773678 127.512566
4.960000 2.800000 3.080000 2.376961 9.698163 99.704308
4.960000 2.800000 3.120000 3.450512 12.719570 173.693497
4.960000 2.800000 3.160000 0.187985 18.664694 348.406128
4.960000 2.800000 3.200000 -8.507922 20.819424 505.833130
4.960000 2.840000 2.800000 -18.316887 -15.148441 564.983643
4.960000 2.840000 2.840000 -8.279606 -2.016006 72.616158
4.960000 2.840000 2.880000 -19.267536 14.257519 574.514771
4.960000 2.840000 2.920000 -44.278179 11.206009 2086.131836
4.960000 2.840000 2.960000 -58.463581 -16.576347 3692.765625
4.960000 2.840000 3.000000 -43.126755 -49.211651 4281.703613
4.960000 2.840000 3.040000 -5.504883 -58.841808 3492.662109
4.960000 2.840000 3.080000 26.271271 -36.084908 1992.300293
4.960000 2.840000 3.120000 28.831303 0.681808 831.708862
4.960000 2.840000 3.160000 4.653584 22.568413 530.989075
4.960000 2.840000 3.200000 -21.902050 16.697277 758.498901
4.960000 2.880000 2.800000 -10.274551 -9.030087 187.108871
4.960000 2.880000 2.840000 -30.756672 20.441906 1363.844360
4.960000 2.880000 2.880000 -81.916962 16.564415 6984.768555
4.960000 2.880000 2.920000 -118.732529 -39.570221 15663.215820
4.960000 2.880000 2.960000 -96.834930 -116.639694 22981.822266
4.960000 2.880000 3.000000 -18.003677 -155.857788 24615.783203
4.960000 2.880000 3.040000 65.848328 -123.928291 19694.224609
4.960000 2.880000 3.080000 96.963173 -44.733887 11402.976562
4.960000 2.880000 3.120000 62.282127 21.925644 4359.797363
4.960000 2.880000 3.160000 1.642469 33.923569 1153.506226
4.960000 2.880000 3.200000 -32.461098 0.613399 1054.099121
4.960000 2.920000 2.800000 -14.704781 -3.117016 225.946365
4.960000 2.920000 2.840000 -71.824333 9.055790 5240.742188
4.960000 2.920000 2.880000 -132.642639 -48.184898 19915.855469
4.960000 2.920000 2.920000 -126.569603 -155.635147 40242.164062
4.960000 2.920000 2.960000 -28.647255 -235.461517 56262.789062
4.960000 2.920000 3.000000 106.807175 -217.870193 58875.195312
4.960000 2.920000 3.040000 187.561142 -107.333817 46699.730469
4.960000 2.920000 3.080000 163.484344 17.845612 27045.597656
4.960000 2.920000 3.120000 68.624687 74.045876 10192.138672
4.960000 2.920000 3.160000 -14.293709 43.039192 2056.682129
4.960000 2.920000 3.200000 -29.980038 -21.553720 1363.365479
4.960000 2.960000 2.800000 -23.291319 -9.591824 634.488647
4.960000 2.960000 2.840000 -90.964554 -41.127907 9966.054688
4.960000 2.960000 2.880000 -112.099533 -145.367523 33698.023438
4.960000 2.960000 2.920000 -29.276478 -253.432037 65084.910156
4.960000 2.960000 2.960000 128.745529 -269.127686 89005.125000
4.960000 2.960000 3.000000 258.750732 -158.633484 92116.531250
4.960000 2.960000 3.040000 269.536224 10.902603 72768.640625
4.960000 2.960000 3.080000 162.378876 125.740570 42177.589844
4.960000 2.960000 3.120000 27.637032 122.952560 15881.137695
4.960000 2.960000 3.160000 -38.193993 38.295509 2925.327148
4.960000 2.960000 3.200000 -13.654976 -37.629105 1602.407837
4.960000 3.000000 2.800000 -20.591789 -26.271835 1114.231201
4.960000 3.000000 2.840000 -60.493042 -95.611404 12800.949219
4.960000 3.000000 2.880000 -16.439209 -200.810089 40594.937500
4.960000 3.000000 2.920000 121.519989 -248.256607 76398.453125
4.960000 3.000000 2.960000 272.425659 -170.068054 103138.882812
4.960000 3.000000 3.000000 325.707031 4.341634 106103.921875
4.960000 3.000000 3.040000 238.779205 163.457138 83733.742188
4.960000 3.000000 3.080000 77.117310 206.838409 48729.207031
4.960000 3.000000 3.120000 -43.391918 129.085938 18546.039062
4.960000 3.000000 3.160000 -56.429825 15.808355 3434.229248
4.960000 3.000000 3.200000 7.354003 -40.149300 1666.047607
4.960000 3.040000 2.800000 -0.817753 -37.333874 1394.486816
4.960000 3.040000 2.840000 4.986572 -110.003494 12125.634766
4.960000 3.040000 2.880000 92.465706 -167.588074 36635.667969
4.960000 3.040000 2.920000 222.850357 -134.068710 67636.703125
4.960000 3.040000 2.960000 300.778473 2.656345 90474.742188
4.960000 3.040000 3.000000 255.478043 165.810699 92762.218750
4.960000 3.040000 3.040000 108.198975 248.259125 73339.609375
4.960000 3.040000 3.080000 -41.495689 203.351913 43073.890625
4.960000 3.040000 3.120000 -100.179169 82.378448 16822.074219
4.960000 3.040000 3.160000 -56.172390 -15.744987 3403.241943
4.960000 3.040000 3.200000 22.846439 -31.822302 1534.618652
4.960000 3.080000 2.800000 24.498163 -28.816246 1430.536011
4.960000 3.080000 2.840000 59.399723 -71.407173 8627.311523
4.960000 3.080000 2.880000 140.187881 -70.093483 24565.738281
4.960000 3.080000 2.920000 210.562302 8.219460 44404.042969
4.960000 3.080000 2.960000 203.351547 132.308884 58857.492188
4.960000 3.080000 3.000000 103.244286 222.642487 60229.058594
4.960000 3.080000 3.040000 -32.090904 216.452103 47881.335938
4.960000 3.080000 3.080000 -116.803383 122.413071 28627.990234
4.960000 3.080000 3.120000 -107.708191 12.676243 11761.742188
4.960000 3.080000 3.160000 -35.563076 -40.100208 2872.759277
4.960000 3.080000 3.200000 29.857477 -20.708355 1320.304932
4.960000 3.120000 2.800000 36.519367 -3.183339 1343.797852
4.960000 3.120000 2.840000 66.617661 -10.388805 4545.839844
4.960000 3.120000 2.880000 105.091965 18.712883 11394.493164
4.960000 3.120000 2.920000 113.222580 83.310860 19760.050781
4.960000 3.120000 2.960000 66.038773 146.353668 25780.515625
4.960000 3.120000 3.000000 -19.849625 161.050598 26331.302734
4.960000 3.120000 3.040000 -93.896118 111.240250 21190.875000
4.960000 3.120000 3.080000 -111.225288 27.874161 13148.033203
4.960000 3.120000 3.120000 -68.930511 -35.283024 5996.307129
4.960000 3.120000 3.160000 -5.918653 -45.016159 2061.485107
4.960000 3.120000 3.200000 32.204216 -11.674812 1173.412842
4.960000 3.160000 2.800000 26.919724 22.222757 1218.522461
4.960000 3.160000 2.840000 31.623007 28.173599 1793.766357
4.960000 3.160000 2.880000 32.378044 43.727932 2960.469727
4.960000 3.160000 2.920000 18.857979 63.362007 4370.367188
4.960000 3.160000 2.960000 -11.107498 72.501709 5379.874512
4.960000 3.160000 3.000000 -45.359711 58.275101 5453.490723
4.960000 3.160000 3.040000 -63.664177 22.151497 4543.816406
4.960000 3.160000 3.080000 -53.058647 -17.803116 3132.170898
4.960000 3.160000 3.120000 -19.292046 -38.980278 1891.645020
4.960000 3.160000 3.160000 16.490444 -31.138290 1241.527832
4.960000 3.160000 3.200000 33.574623 -3.601168 1140.223755
4.960000 3.200000 2.800000 5.422131 31.342783 1011.769531
4.960000 3.200000 2.840000 -8.398436 25.548691 723.269287
4.960000 3.200000 2.880000 -13.876450 12.054970 337.878143
4.960000 3.200000 2.920000 -8.631790 0.906540 75.329620
4.960000 3.200000 2.960000 -0.110794 -1.039307 1.092434
4.960000 3.200000 3.000000 2.582561 2.832275 14.691408
4.960000 3.200000 3.040000 -1.137314 3.111641 10.975792
4.960000 3.200000 3.080000 -2.569885 -4.393753 25.909374
4.960000 3.200000 3.120000 6.250340 -12.775566 202.281830
4.960000 3.200000 3.160000 22.380621 -10.517380 611.507446
4.960000 3.200000 3.200000 32.993343 5.993261 1124.479858
5.000000 2.800000 2.800000 -29.148964 -12.023659 994.230469
5.000000 2.800000 2.840000 -14.651543 -23.396570 762.067200
5.000000 2.800000 2.880000 3.039925 -21.261711 461.301514
5.000000 2.800000 2.920000 13.142145 -8.728424 248.901367
5.000000 2.800000 2.960000 12.145386 4.461975 167.419617
5.000000 2.800000 3.000000 5.464661 10.970619 150.216995
5.000000 2.800000 3.040000 0.777916 11.661430 136.594101
5.000000 2.800000 3.080000 0.099422 12.704479 161.413681
5.000000 2.800000 3.120000 -1.229637 17.598747 311.227905
5.000000 2.800000 3.160000 -8.041265 22.927078 590.312866
5.000000 2.800000 3.200000 -18.841774 22.336948 853.951721
5.000000 2.840000 2.800000 -22.097567 -17.302731 787.686951
5.000000 2.840000 2.840000 -21.665344 -7.697041 528.631592
5.000000 2.840000 2.880000 -36.151119 -6.251755 1345.987915
5.000000 2.840000 2.920000 -48.997654 -24.971146 3024.328125
5.000000 2.840000 2.960000 -39.826431 -54.016033 4503.876465
5.000000 2.840000 3.000000 -6.518837 -68.547836 4741.300781
5.000000 2.840000 3.040000 29.568336 -52.227165 3601.963379
5.000000 2.840000 3.080000 41.810585 -14.116989 1947.414429
5.000000 2.840000 3.120000 22.569744 18.389427 847.564331
5.000000 2.840000 3.160000 -10.282597 24.038300 683.571655
5.000000 2.840000 3.200000 -30.677080 5.682838 973.377930
5.000000 2.880000 2.800000 -18.951511 -19.089050 723.551636
5.000000 2.880000 2.840000 -49.247684 -11.040581 2547.229004
5.000000 2.880000 2.880000 -84.320328 -45.448605 9175.493164
5.000000 2.880000 2.920000 -78.129807 -111.984421 18644.777344
5.000000 2.880000 2.960000 -13.455040 -160.635468 25984.792969
5.000000 2.880000 3.000000 74.552368 -145.732544 26796.031250
5.000000 2.880000 3.040000 125.302322 -70.485245 20668.841797
5.000000 2.880000 3.080000 106.144333 12.890388 11432.781250
5.000000 2.880000 3.120000 40.567986 48.960358 4042.878174
5.000000 2.880000 3.160000 -15.776619 26.381325 944.875977
5.000000 2.880000 3.200000 -26.276886 -18.119606 1018.794861
5.000000 2.920000 2.800000 -17.863190 -24.939587 941.076538
5.000000 2.920000 2.840000 -67.763237 -47.830219 6879.586426
5.000000 2.920000 2.880000 -82.240135 -128.851440 23366.132812
5.000000 2.920000 2.920000 -13.956627 -212.843018 45496.937500
5.000000 2.920000 2.960000 113.714340 -221.878571 62161.054688
5.000000 2.920000 3.000000 216.730499 -129.471603 63735.007812
5.000000 2.920000 3.040000 222.055450 8.448090 49379.996094
5.000000 2.920000 3.080000 133.019409 99.497612 27593.937500
5.000000 2.920000 3.120000 24.533302 94.821289 9592.959961
5.000000 2.920000 3.160000 -26.248375 26.259890 1378.558960
5.000000 2.920000 3.200000 -5.239029 -32.128468 1059.685791
5.000000 2.960000 2.800000 -10.100471 -35.111404 1334.830200
5.000000 2.960000 2.840000 -46.384708 -96.997971 11560.147461
5.000000 2.960000 2.880000 -4.325027 -193.921188 37624.132812
5.000000 2.960000 2.920000 126.294449 -236.263580 71770.765625
5.000000 2.960000 2.960000 267.843994 -159.600357 97212.679688
5.000000 2.960000 3.000000 315.419067 6.494705 99531.367188
5.000000 2.960000 3.040000 230.994385 155.209763 77448.476562
5.000000 2.960000 3.080000 79.347519 193.401230 43700.062500
5.000000 2.960000 3.120000 -30.244049 120.128693 15345.604492
5.000000 2.960000 3.160000 -39.537975 18.484529 1904.929321
5.000000 2.960000 3.200000 17.659725 -26.849304 1032.750977
5.000000 3.000000 2.800000 8.680908 -39.714668 1652.613037
5.000000 3.000000 2.840000 13.101456 -117.146027 13894.839844
5.000000 3.000000 2.880000 107.905548 -179.796204 43970.281250
5.000000 3.000000 2.920000 250.333023 -142.315369 82920.281250
5.000000 3.000000 2.960000 334.377502 8.149876 111874.734375
5.000000 3.000000 3.000000 283.267273 185.591599 114684.593750
5.000000 3.000000 3.040000 123.275635 273.146118 89805.687500
5.000000 3.000000 3.080000 -35.526089 223.810287 51353.144531
5.000000 3.000000 3.120000 -94.909882 97.487411 18511.679688
5.000000 3.000000 3.160000 -48.653999 0.547546 2367.511475
5.000000 3.000000 3.200000 26.772251 -9.928852 815.335510
5.000000 3.040000 2.800000 30.385609 -28.264526 1722.168701
5.000000 3.040000 2.840000 72.490608 -85.367783 12542.546875
5.000000 3.040000 2.880000 176.941681 -86.223145 38742.789062
5.000000 3.040000 2.920000 268.901642 13.933441 72502.234375
5.000000 3.040000 2.960000 260.083374 173.349533 97693.421875
5.000000 3.040000 3.000000 132.536591 288.031433 100528.054688
5.000000 3.040000 3.040000 -37.016495 279.538422 79511.945312
5.000000 3.040000 3.080000 -140.064240 163.685730 46411.007812
5.000000 3.040000 3.120000 -127.904213 33.925098 17510.400391
5.000000 3.040000 3.160000 -45.401375 -23.196671 2599.370361
5.000000 3.040000 3.200000 20.944748 2.010098 442.722961
5.000000 3.080000 2.800000 39.645359 -2.170971 1576.467651
5.000000 3.080000 2.840000 89.869286 -20.995625 8517.304688
5.000000 3.080000 2.880000 157.587067 22.624298 25345.542969
5.000000 3.080000 2.920000 175.399734 127.485123 47017.523438
5.000000 3.080000 2.960000 101.978096 230.135010 63361.652344
5.000000 3.080000 3.000000 -32.612358 254.184082 65673.109375
5.000000 3.080000 3.040000 -145.591827 177.841110 52824.441406
5.000000 3.080000 3.080000 -170.021545 54.741657 31903.974609
5.000000 3.080000 3.120000 -109.262794 -32.603378 13001.338867
5.000000 3.080000 3.160000 -27.083954 -42.129429 2508.429199
5.000000 3.080000 3.200000 13.418232 0.690851 180.526230
5.000000 3.120000 2.800000 28.221331 23.741163 1360.086304
5.000000 3.120000 2.840000 57.396637 30.644022 4233.430176
5.000000 3.120000 2.880000 75.861862 74.850479 11357.616211
5.000000 3.120000 2.920000 49.004478 134.845688 20584.798828
5.000000 3.120000 2.960000 -25.341263 164.518890 27708.644531
5.000000 3.120000 3.000000 -107.798508 132.271515 29116.273438
5.000000 3.120000 3.040000 -146.864304 51.175026 24188.005859
5.000000 3.120000 3.080000 -121.328148 -29.439449 15587.201172
5.000000 3.120000 3.120000 -56.558029 -64.117737 7309.894531
5.000000 3.120000 3.160000 -0.483036 -46.069164 2122.601318
5.000000 3.120000 3.200000 16.664885 -6.065334 314.506653
5.000000 3.160000 2.800000 3.862629 33.630081 1145.902222
5.000000 3.160000 2.840000 6.745564 38.881073 1557.240479
5.000000 3.160000 2.880000 1.169960 52.510460 2758.717285
5.000000 3.160000 2.920000 -20.064209 63.238106 4401.630371
5.000000 3.160000 2.960000 -51.164696 56.349575 5793.100586
5.000000 3.160000 3.000000 -74.748047 26.681824 6299.190430
5.000000 3.160000 3.040000 -74.193359 -14.571266 5716.976562
5.000000 3.160000 3.080000 -47.078705 -46.251362 4355.592773
5.000000 3.160000 3.120000 -8.053642 -52.330128 2803.303467
5.000000 3.160000 3.160000 21.591381 -33.182011 1567.233521
5.000000 3.160000 3.200000 28.836964 -4.076872 848.191406
5.000000 3.200000 2.800000 -16.156826 24.976215 884.854370
5.000000 3.200000 2.840000 -22.339592 12.579777 657.308167
5.000000 3.200000 2.880000 -18.470276 -0.832319 341.843842
5.000000 3.200000 2.920000 -7.840256 -6.391151 102.316422
5.000000 3.200000 2.960000 -0.301804 -2.618973 6.950104
5.000000 3.200000 3.000000 -1.869738 2.132057 8.041586
5.000000 3.200000 3.040000 -7.379318 -1.598724 57.010258
5.000000 3.200000 3.080000 -5.157440 -13.133097 199.077423
5.000000 3.200000 3.120000 10.022186 -20.481205 519.924011
5.000000 3.200000 3.160000 29.260168 -11.887627 997.473083
5.000000 3.200000 3.200000 36.254646 11.085847 1437.295410
5.040000 2.800000 2.800000 -28.428909 -13.076656 979.201843
5.040000 2.800000 2.840000 -14.754835 -22.423500 720.518494
5.040000 2.800000 2.880000 1.139822 -20.117813 406.025604
5.040000 2.800000 2.920000 10.562328 -8.720871 187.616364
5.040000 2.800000 2.960000 10.307686 4.015694 122.374184
5.040000 2.800000 3.000000 4.072449 11.810509 156.072952
5.040000 2.800000 3.040000 -2.261375 14.363632 211.427750
5.040000 2.800000 3.080000 -6.506941 15.539635 283.820526
5.040000 2.800000 3.120000 -11.162055 17.731550 438.999329
5.040000 2.800000 3.160000 -18.946663 18.734360 709.952271
5.040000 2.800000 3.200000 -28.238049 14.545686 1008.964355
5.040000 2.840000 2.800000 -25.516979 -24.546362 1253.640137
5.040000 2.840000 2.840000 -26.848518 -25.392952 1365.645020
5.040000 2.840000 2.880000 -30.316822 -35.600719 2186.520996
5.040000 2.840000 2.920000 -22.364609 -53.458305 3357.966309
5.040000 2.840000 2.960000 2.470688 -63.842251 4081.937256
5.040000 2.840000 3.000000 32.476318 -52.230194 3782.704590
5.040000 2.840000 3.040000 46.905254 -20.413437 2616.811279
5.040000 2.840000 3.080000 34.435349 12.473862 1341.390381
5.040000 2.840000 3.120000 4.009874 25.564407 669.618042
5.040000 2.840000 3.160000 -22.753384 13.872232 710.155334
5.040000 2.840000 3.200000 -30.264931 -8.842873 994.162415
5.040000 2.880000 2.800000 -17.443504 -36.433952 1631.708740
5.040000 2.880000 2.840000 -36.487858 -49.218178 3753.792725
5.040000 2.880000 2.880000 -37.453648 -90.268906 9551.250977
5.040000 2.880000 2.920000 4.446114 -130.422165 17029.708984
5.040000 2.880000 2.960000 75.554474 -128.199081 22143.482422
5.040000 2.880000 3.000000 129.344772 -70.819763 21745.509766
5.040000 2.880000 3.040000 126.397171 8.924782 16055.896484
5.040000 2.880000 3.080000 70.603806 58.888741 8452.781250
5.040000 2.880000 3.120000 5.771339 52.521309 2791.796143
5.040000 2.880000 3.160000 -23.989006 9.363291 663.143616
5.040000 2.880000 3.200000 -11.178691 -27.392878 875.332886
5.040000 2.920000 2.800000 -1.314805 -45.240200 2048.404297
5.040000 2.920000 2.840000 -19.942654 -84.467682 7532.498535
5.040000 2.920000 2.880000 13.206932 -145.930725 21470.201172
5.040000 2.920000 2.920000 104.727890 -168.554306 39378.484375
5.040000 2.920000 2.960000 200.335220 -109.136055 52044.878906
5.040000 2.920000 3.000000 227.816238 9.696808 51994.265625
5.040000 2.920000 3.040000 163.064453 112.332016 39208.496094
5.040000 2.920000 3.080000 54.049019 134.826263 21099.417969
5.040000 2.920000 3.120000 -21.895027 79.412018 6785.660645
5.040000 2.920000 3.160000 -25.726025 6.695995 706.664734
5.040000 2.920000 3.200000 16.004955 -24.055323 834.817139
5.040000 2.960000 2.800000 21.357073 -43.415379 2341.019775
5.040000 2.960000 2.840000 27.447437 -101.162971 10987.308594
5.040000 2.960000 2.880000 105.097366 -146.918869 32630.609375
5.040000 2.960000 2.920000 219.437195 -111.293327 60538.890625
5.040000 2.960000 2.960000 283.681885 14.976334 80699.703125
5.040000 2.960000 3.000000 236.442139 159.819901 81447.289062
5.040000 2.960000 3.040000 102.248108 227.626678 62268.582031
5.040000 2.960000 3.080000 -26.670334 182.871597 34153.328125
5.040000 2.960000 3.120000 -71.245850 78.440262 11228.845703
5.040000 2.960000 3.160000 -30.716194 2.489433 949.681824
5.040000 2.960000 3.200000 28.878164 -1.571396 836.417664
5.040000 3.000000 2.800000 41.171276 -25.824099 2361.958008
5.040000 3.000000 2.840000 79.854340 -76.101807 12168.200195
5.040000 3.000000 2.880000 177.040070 -74.127533 36838.078125
5.040000 3.000000 2.920000 261.400269 22.952074 68856.898438
5.040000 3.000000 2.960000 249.092972 174.273224 92418.468750
5.040000 3.000000 3.000000 125.187744 280.101959 94129.078125
5.040000 3.000000 3.040000 -34.697552 267.851715 72948.460938
5.040000 3.000000 3.080000 -127.744217 156.830536 40914.402344
5.040000 3.000000 3.120000 -112.228493 38.267609 14059.644531
5.040000 3.000000 3.160000 -36.010895 -8.548294 1369.857910
5.040000 3.000000 3.200000 18.279446 18.795446 687.406921
5.040000 3.040000 2.800000 45.730015 2.698357 2098.515625
5.040000 3.040000 2.840000 100.307678 -18.129274 10390.300781
5.040000 3.040000 2.880000 175.259857 30.893749 31670.441406
5.040000 3.040000 2.920000 193.722733 148.385742 59546.824219
5.040000 3.040000 2.960000 109.877335 261.563049 80488.257812
5.040000 3.040000 3.000000 -39.816071 285.069183 82849.757812
5.040000 3.040000 3.040000 -161.279419 198.276169 65324.488281
5.040000 3.040000 3.080000 -183.120209 65.247719 37790.277344
5.040000 3.040000 3.120000 -115.685150 -22.885567 13906.802734
5.040000 3.040000 3.160000 -33.395348 -26.440397 1814.343872
5.040000 3.040000 3.200000 -1.772509 18.396992 341.591095
5.040000 3.080000 2.800000 30.246283 27.660034 1679.915039
5.040000 3.080000 2.840000 73.963318 35.850620 6755.839355
5.040000 3.080000 2.880000 102.480057 99.014038 20305.941406
5.040000 3.080000 2.920000 65.129547 184.529053 38292.832031
5.040000 3.080000 2.960000 -38.870911 225.088303 52175.691406
5.040000 3.080000 3.000000 -150.523544 178.434662 54496.265625
5.040000 3.080000 3.040000 -198.501297 68.494759 44094.296875
5.040000 3.080000 3.080000 -160.180573 -33.410885 26774.103516
5.040000 3.080000 3.120000 -77.949806 -69.915649 10964.371094
5.040000 3.080000 3.160000 -17.035759 -42.505142 2096.904297
5.040000 3.080000 3.200000 -8.195786 0.386740 67.320465
5.040000 3.120000 2.800000 3.629011 35.297508 1259.083740
5.040000 3.120000 2.840000 22.315275 52.311905 3234.506836
5.040000 3.120000 2.880000 15.321648 93.304817 8940.541992
5.040000 3.120000 2.920000 -33.570404 124.676849 16671.289062
5.040000 3.120000 2.960000 -103.351318 110.526382 22897.576172
5.040000 3.120000 3.000000 -149.351303 46.766685 24492.935547
5.040000 3.120000 3.040000 -140.510010 -31.965996 20764.886719
5.040000 3.120000 3.080000 -85.578934 -80.268501 13766.786133
5.040000 3.120000 3.120000 -23.925928 -78.626915 6754.642090
5.040000 3.120000 3.160000 8.846497 -45.012871 2104.418945
5.040000 3.120000 3.200000 7.340628 -13.520101 236.677933
5.040000 3.160000 2.800000 -17.508259 24.245426 894.379822
5.040000 3.160000 2.840000 -16.496231 29.755844 1157.535889
5.040000 3.160000 2.880000 -27.404083 37.640198 2167.768311
5.040000 3.160000 2.920000 -49.013290 34.696293 3606.135498
5.040000 3.160000 2.960000 -68.649551 13.442261 4893.455078
5.040000 3.160000 3.000000 -71.403419 -20.369026 5513.345703
5.040000 3.160000 3.040000 -51.763927 -50.874619 5267.730957
5.040000 3.160000 3.080000 -17.971016 -63.233257 4321.402344
5.040000 3.160000 3.120000 13.961649 -53.450020 3051.832275
5.040000 3.160000 3.160000 30.931339 -29.693523 1838.453125
5.040000 3.160000 3.200000 29.818344 -5.534614 919.765625
5.040000 3.200000 2.800000 -22.631413 6.777401 558.114014
5.040000 3.200000 2.840000 -21.795441 -3.361115 486.338318
5.040000 3.200000 2.880000 -14.231186 -11.752304 340.643311
5.040000 3.200000 2.920000 -3.900080 -12.819641 179.553818
5.040000 3.200000 2.960000 1.540222 -7.700394 61.668346
5.040000 3.200000 3.000000 -0.478577 -4.508270 20.553537
5.040000 3.200000 3.040000 -3.006805 -9.596725 101.138016
5.040000 3.200000 3.080000 3.854012 -18.893646 371.823273
5.040000 3.200000 3.120000 21.130825 -20.021723 847.381165
5.040000 3.200000 3.160000 36.944393 -4.857082 1388.479492
5.040000 3.200000 3.200000 36.375263 19.992603 1722.864014
5.080000 2.800000 2.800000 -30.084656 -15.692341 1151.336060
5.080000 2.800000 2.840000 -16.284819 -25.621469 921.655029
5.080000 2.800000 2.880000 1.117144 -23.743523 565.002869
5.080000 2.800000 2.920000 12.386253 -10.811131 270.299805
5.080000 2.800000 2.960000 11.885818 5.151261 167.808167
5.080000 2.800000 3.000000 2.212723 15.270905 238.096680
5.080000 2.800000 3.040000 -9.004921 16.643448 358.092957
5.080000 2.800000 3.080000 -16.281723 13.071651 435.962585
5.080000 2.800000 3.120000 -20.123695 9.568718 496.523468
5.080000 2.800000 3.160000 -24.155117 6.906617 631.171021
5.080000 2.800000 3.200000 -29.399612 1.910621 867.987671
5.080000 2.840000 2.800000 -23.239351 -35.830685 1823.905518
5.080000 2.840000 2.840000 -15.937742 -43.792671 2171.809814
5.080000 2.840000 2.880000 -3.115280 -51.269955 2638.313232
5.080000 2.840000 2.920000 16.451019 -51.646671 2938.014648
5.080000 2.840000 2.960000 35.979431 -38.473431 2774.724121
5.080000 2.840000 3.000000 43.946194 -13.578033 2115.630859
5.080000 2.840000 3.040000 33.597351 11.465485 1260.239258
5.080000 2.840000 3.080000 9.800991 23.086521 629.046936
5.080000 2.840000 3.120000 -13.722437 16.187796 450.350006
5.080000 2.840000 3.160000 -24.741810 -2.229540 617.127991
5.080000 2.840000 3.200000 -21.187218 -19.453766 827.347168
5.080000 2.880000 2.800000 -1.728148 -50.370903 2540.214355
5.080000 2.880000 2.840000 1.827150 -66.010269 4360.693848
5.080000 2.880000 2.880000 25.782600 -85.332870 7946.441406
5.080000 2.880000 2.920000 69.731827 -83.732300 11873.625977
5.080000 2.880000 2.960000 108.467545 -46.266327 13905.781250
5.080000 2.880000 3.000000 111.784515 12.983849 12664.358398
5.080000 2.880000 3.040000 72.914955 58.590691 8749.459961
5.080000 2.880000 3.080000 17.114479 63.233017 4291.319824
5.080000 2.880000 3.120000 -19.188631 30.984087 1328.217285
5.080000 2.880000 3.160000 -19.047920 -8.028709 427.283447
5.080000 2.880000 3.200000 3.735535 -25.713062 675.115784
5.080000 2.920000 2.800000 28.209488 -47.906418 3090.800049
5.080000 2.920000 2.840000 39.305317 -73.252678 6910.862305
5.080000 2.920000 2.880000 86.356522 -89.148026 15404.819336
5.080000 2.920000 2.920000 148.805786 -58.866802 25608.462891
5.080000 2.920000 2.960000 178.004929 19.875641 32080.794922
5.080000 2.920000 3.000000 141.580322 103.723907 30803.636719
5.080000 2.920000 3.040000 57.313553 137.993408 22327.025391
5.080000 2.920000 3.080000 -19.070213 104.974991 11383.421875
5.080000 2.920000 3.120000 -42.066746 38.920834 3284.442383
5.080000 2.920000 3.160000 -13.904913 -6.939302 241.500519
5.080000 2.920000 3.200000 24.055695 -8.037967 643.285339
5.080000 2.960000 2.800000 51.679665 -24.714256 3281.582275
5.080000 2.960000 2.840000 78.826202 -49.732559 8686.897461
5.080000 2.960000 2.880000 141.623734 -40.526726 21699.697266
5.080000 2.960000 2.920000 192.732483 30.639736 38084.601562
5.080000 2.960000 2.960000 176.590851 134.787247 49351.929688
5.080000 2.960000 3.000000 85.465187 203.467010 48703.121094
5.080000 2.960000 3.040000 -26.247311 188.651215 36278.203125
5.080000 2.960000 3.080000 -87.289696 107.112511 19092.582031
5.080000 2.960000 3.120000 -71.445580 24.647430 5711.966797
5.080000 2.960000 3.160000 -15.787827 -4.262533 267.424652
5.080000 2.960000 3.200000 20.377956 18.511436 757.934387
5.080000 3.000000 2.800000 54.316711 9.586831 3042.212402
5.080000 3.000000 2.840000 93.448875 -1.062859 8733.822266
5.080000 3.000000 2.880000 147.457611 40.787926 23407.400391
5.080000 3.000000 2.920000 156.350037 134.374084 42501.726562
5.080000 3.000000 2.960000 84.660416 221.672073 56305.894531
5.080000 3.000000 3.000000 -36.694733 235.206757 56668.722656
5.080000 3.000000 3.040000 -131.253922 161.083771 43175.570312
5.080000 3.000000 3.080000 -143.448883 53.972637 23490.626953
5.080000 3.000000 3.120000 -85.952568 -12.202148 7536.736328
5.080000 3.000000 3.160000 -22.167332 -9.149542 575.104736
5.080000 3.000000 3.200000 -3.734730 28.462774 824.077698
5.080000 3.040000 2.800000 33.655422 36.556107 2469.036377
5.080000 3.040000 2.840000 70.212524 45.447006 6995.229492
5.080000 3.040000 2.880000 93.302650 104.138535 19550.218750
5.080000 3.040000 2.920000 55.227947 182.473816 36346.820312
5.080000 3.040000 2.960000 -43.957542 216.941849 48996.031250
5.080000 3.040000 3.000000 -147.068115 169.071594 50214.234375
5.080000 3.040000 3.040000 -187.160172 64.721046 39217.742188
5.080000 3.040000 3.080000 -146.802032 -26.652260 22261.179688
5.080000 3.040000 3.120000 -70.997810 -53.442894 7896.832031
5.080000 3.040000 3.160000 -22.156281 -23.666241 1050.991699
5.080000 3.040000 3.200000 -23.594238 11.878157 697.778687
5.080000 3.080000 2.800000 2.535130 41.881668 1760.500977
5.080000 3.080000 2.840000 23.636362 61.815384 4379.819336
5.080000 3.080000 2.880000 14.619362 110.133293 12343.067383
5.080000 3.080000 2.920000 -43.951653 146.120209 23282.863281
5.080000 3.080000 2.960000 -125.342773 127.086601 31861.814453
5.080000 3.080000 3.000000 -175.295059 51.046749 33334.128906
5.080000 3.080000 3.040000 -159.786591 -37.299217 26922.986328
5.080000 3.080000 3.080000 -95.285385 -84.808792 16271.835938
5.080000 3.080000 3.120000 -31.920910 -75.225174 6677.770996
5.080000 3.080000 3.160000 -7.428708 -37.907597 1492.171509
5.080000 3.080000 3.200000 -17.736599 -14.389729 521.651245
5.080000 3.120000 2.800000 -19.962420 26.446869 1097.935059
5.080000 3.120000 2.840000 -15.371822 42.938042 2079.968262
5.080000 3.120000 2.880000 -36.907238 64.143280 5476.504395
5.080000 3.120000 2.920000 -80.403763 61.544296 10252.465820
5.080000 3.120000 2.960000 -117.014252 21.947884 14174.044922
5.080000 3.120000 3.000000 -117.673615 -37.409584 15246.555664
5.080000 3.120000 3.040000 -79.198441 -82.139633 13019.312500
5.080000 3.120000 3.080000 -26.679089 -89.775497 8771.414062
5.080000 3.120000 3.120000 9.269619 -66.633202 4525.909180
5.080000 3.120000 3.160000 17.437189 -37.835777 1735.601562
5.080000 3.120000 3.200000 9.952093 -22.835030 620.482788
5.080000 3.160000 2.800000 -23.351284 5.277199 573.131287
5.080000 3.160000 2.840000 -25.698011 9.798918 756.406616
5.080000 3.160000 2.880000 -37.259521 8.694977 1463.874634
5.080000 3.160000 2.920000 -49.008198 -5.211922 2428.967529
5.080000 3.160000 2.960000 -49.453827 -28.421585 3253.467285
5.080000 3.160000 3.000000 -34.358414 -49.582222 3638.897461
5.080000 3.160000 3.040000 -9.478195 -58.552032 3518.176758
5.080000 3.160000 3.080000 14.870880 -52.964222 3026.351807
5.080000 3.160000 3.120000 31.034149 -37.535381 2372.023438
5.080000 3.160000 3.160000 36.792381 -19.056587 1716.832764
5.080000 3.160000 3.200000 33.547020 -2.797419 1133.228149
5.080000 3.200000 2.800000 -13.384460 -5.544981 209.890594
5.080000 3.200000 2.840000 -12.363607 -10.948652 272.731781
5.080000 3.200000 2.880000 -6.052402 -16.716740 316.080933
5.080000 3.200000 2.920000 3.557352 -16.943901 299.750549
5.080000 3.200000 2.960000 9.680859 -11.350174 222.545471
5.080000 3.200000 3.000000 9.367989 -6.614439 131.510010
5.080000 3.200000 3.040000 8.282066 -8.308382 137.621826
5.080000 3.200000 3.080000 14.600826 -12.696100 374.375092
5.080000 3.200000 3.120000 28.089903 -9.212902 873.920227
5.080000 3.200000 3.160000 37.410950 7.483450 1455.581177
5.080000 3.200000 3.200000 30.690474 28.963541 1780.791870
5.120000 2.800000 2.800000 -30.876328 -21.941357 1434.770752
5.120000 2.800000 2.840000 -14.175504 -31.967970 1222.895996
5.120000 2.800000 2.880000 6.124474 -27.198355 777.259644
5.120000 2.800000 2.920000 17.020765 -9.287720 375.968201
5.120000 2.800000 2.960000 11.832424 9.976461 239.536041
5.120000 2.800000 3.000000 -4.019520 18.448803 356.514893
5.120000 2.800000 3.040000 -18.374084 13.669285 524.456360
5.120000 2.800000 3.080000 -23.433544 3.388517 560.613037
5.120000 2.800000 3.120000 -21.463497 -3.396648 472.218933
5.120000 2.800000 3.160000 -19.933525 -5.136751 423.731628
5.120000 2.800000 3.200000 -22.240191 -7.409202 549.522339
5.120000 2.840000 2.800000 -12.757092 -44.988724 2186.728516
5.120000 2.840000 2.840000 5.690187 -49.219494 2454.936768
5.120000 2.840000 2.880000 25.496822 -41.844582 2401.056885
5.120000 2.840000 2.920000 38.076485 -23.328472 1994.036377
5.120000 2.840000 2.960000 37.024933 -0.834164 1371.541504
5.120000 2.840000 3.000000 22.965769 15.556725 769.438171
5.120000 2.840000 3.040000 3.475315 19.283381 383.926575
5.120000 2.840000 3.080000 -12.056107 11.107388 268.723785
5.120000 2.840000 3.120000 -18.284412 -2.538601 340.764221
5.120000 2.840000 3.160000 -15.922706 -14.747629 471.025146
5.120000 2.840000 3.200000 -9.114001 -22.199064 575.863464
5.120000 2.880000 2.800000 21.299706 -49.946533 2948.333740
5.120000 2.880000 2.840000 38.824017 -49.628151 3970.257812
5.120000 2.880000 2.880000 60.322025 -39.198517 5175.270508
5.120000 2.880000 2.920000 76.185814 -13.564468 5988.272949
5.120000 2.880000 2.960000 73.338112 21.109337 5824.082520
5.120000 2.880000 3.000000 47.766098 47.879807 4574.076172
5.120000 2.880000 3.040000 11.298859 51.301811 2759.540039
5.120000 2.880000 3.080000 -15.614187 30.756649 1189.774292
5.120000 2.880000 3.120000 -19.767580 1.723429 393.727448
5.120000 2.880000 3.160000 -5.073044 -16.944660 312.857300
5.120000 2.880000 3.200000 12.686507 -18.018049 485.597534
5.120000 2.920000 2.800000 52.418835 -27.853285 3523.539551
5.120000 2.920000 2.840000 68.438087 -24.423416 5280.275391
5.120000 2.920000 2.880000 91.127319 -6.708012 8349.185547
5.120000 2.920000 2.920000 102.488129 32.316227 11548.155273
5.120000 2.920000 2.960000 83.143929 77.984695 12994.525391
5.120000 2.920000 3.000000 34.347191 101.736328 11530.009766
5.120000 2.920000 3.040000 -17.529457 86.134087 7726.362793
5.120000 2.920000 3.080000 -41.431900 42.573402 3529.096924
5.120000 2.920000 3.120000 -28.340961 2.719400 810.605225
5.120000 2.920000 3.160000 2.026398 -9.079053 86.535484
5.120000 2.920000 3.200000 21.127445 4.419721 465.902863
5.120000 2.960000 2.800000 59.884731 11.564029 3719.907959
5.120000 2.960000 2.840000 74.292038 17.933495 5840.917480
5.120000 2.960000 2.880000 91.971771 45.748604 10551.741211
5.120000 2.960000 2.920000 85.951164 94.178230 16257.141602
5.120000 2.960000 2.960000 40.650215 134.588867 19766.603516
5.120000 2.960000 3.000000 -26.234678 133.970535 18636.361328
5.120000 2.960000 3.040000 -74.159027 87.704529 13191.646484
5.120000 2.960000 3.080000 -75.059250 27.368088 6382.903320
5.120000 2.960000 3.120000 -38.732895 -6.467276 1542.062866
5.120000 2.960000 3.160000 -2.314894 -0.143446 5.379310
5.120000 2.960000 3.200000 5.513171 24.106258 611.506775
5.120000 3.000000 2.800000 37.781540 44.878315 3441.507812
5.120000 3.000000 2.840000 49.323219 54.358135 5387.586914
5.120000 3.000000 2.880000 53.920887 88.040321 10658.560547
5.120000 3.000000 2.920000 24.726284 130.423859 17621.771484
5.120000 3.000000 2.960000 -38.185921 144.991867 22480.804688
5.120000 3.000000 3.000000 -100.061462 109.577370 22019.496094
5.120000 3.000000 3.040000 -120.208466 41.801853 16197.469727
5.120000 3.000000 3.080000 -89.904060 -13.731102 8271.283203
5.120000 3.000000 3.120000 -40.552689 -25.468596 2293.169922
5.120000 3.000000 3.160000 -13.164637 -2.075075 177.613602
5.120000 3.000000 3.200000 -20.281473 20.250248 821.410706
5.120000 3.040000 2.800000 0.873437 52.386925 2745.152832
5.120000 3.040000 2.840000 7.567476 63.714447 4116.797363
5.120000 3.040000 2.880000 -3.291832 92.723839 8608.545898
5.120000 3.040000 2.920000 -46.350842 112.928017 14901.137695
5.120000 3.040000 2.960000 -103.478661 94.451981 19629.009766
5.120000 3.040000 3.000000 -135.809601 36.540222 19779.435547
5.120000 3.040000 3.040000 -119.746666 -26.925083 15064.223633
5.120000 3.040000 3.080000 -70.275604 -56.891129 8175.261230
5.120000 3.040000 3.120000 -26.925989 -44.453667 2701.137451
5.120000 3.040000 3.160000 -16.401360 -16.257484 533.310425
5.120000 3.040000 3.200000 -30.056305 -5.335843 931.852661
5.120000 3.080000 2.800000 -26.565592 33.509857 1828.641113
5.120000 3.080000 2.840000 -25.579643 43.720036 2565.759766
5.120000 3.080000 2.880000 -45.021515 58.568573 5457.214844
5.120000 3.080000 2.920000 -82.655502 53.122120 9653.891602
5.120000 3.080000 2.960000 -112.770309 15.479231 12956.749023
5.120000 3.080000 3.000000 -109.314606 -37.605286 13363.839844
5.120000 3.080000 3.040000 -71.711281 -73.762627 10583.433594
5.120000 3.080000 3.080000 -26.333076 -74.414101 6230.889648
5.120000 3.080000 3.120000 -1.730670 -50.670994 2570.544678
5.120000 3.080000 3.160000 -3.129503 -29.934124 905.845520
5.120000 3.080000 3.200000 -11.723224 -28.141111 929.356079
5.120000 3.120000 2.800000 -30.098164 6.429785 947.241577
5.120000 3.120000 2.840000 -33.417908 12.373816 1269.867920
5.120000 3.120000 2.880000 -49.749153 11.839264 2615.146484
5.120000 3.120000 2.920000 -67.003433 -6.939804 4537.620605
5.120000 3.120000 2.960000 -67.306877 -39.112755 6060.023438
5.120000 3.120000 3.000000 -44.671360 -65.971443 6347.761719
5.120000 3.120000 3.040000 -11.324310 -71.860344 5292.149414
5.120000 3.120000 3.080000 13.753185 -57.894974 3540.978027
5.120000 3.120000 3.120000 21.821060 -38.875118 1987.433472
5.120000 3.120000 3.160000 19.701481 -27.786074 1160.214233
5.120000 3.120000 3.200000 19.364407 -24.622633 981.254272
5.120000 3.160000 2.800000 -15.715969 -8.052279 311.830872
5.120000 3.160000 2.840000 -20.269636 -8.045567 475.589294
5.120000 3.160000 2.880000 -25.315672 -16.626823 917.334473
5.120000 3.160000 2.920000 -22.021038 -30.701706 1427.520874
5.120000 3.160000 2.960000 -8.580601 -40.991890 1753.961792
5.120000 3.160000 3.000000 8.365715 -41.297874 1775.499634
5.120000 3.160000 3.040000 20.967125 -33.636459 1571.031738
5.120000 3.160000 3.080000 27.365513 -24.287487 1338.753296
5.120000 3.160000 3.120000 31.088026 -16.302816 1232.247192
5.120000 3.160000 3.160000 34.445076 -7.519881 1243.011841
5.120000 3.160000 3.200000 34.753990 4.185920 1225.361816
5.120000 3.200000 2.800000 -2.371841 -3.998386 21.612726
5.120000 3.200000 2.840000 -4.776417 -9.654516 116.023842
5.120000 3.200000 2.880000 1.542398 -16.746670 282.829956
5.120000 3.200000 2.920000 13.243357 -15.965201 430.274139
5.120000 3.200000 2.960000 20.345818 -6.597262 457.476166
5.120000 3.200000 3.000000 18.195358 2.508516 337.363739
5.120000 3.200000 3.040000 13.182486 3.665615 187.214661
5.120000 3.200000 3.080000 14.980457 0.148716 224.436218
5.120000 3.200000 3.120000 24.018089 2.838562 584.926025
5.120000 3.200000 3.160000 29.364462 16.840836 1145.885376
5.120000 3.200000 3.200000 20.593506 33.557117 1550.172607
5.160000 2.800000 2.800000 -27.349655 -29.691299 1629.576904
5.160000 2.800000 2.840000 -7.329693 -36.530087 1388.171631
5.160000 2.800000 2.880000 12.789674 -26.012146 840.207458
5.160000 2.800000 2.920000 18.585670 -4.008128 361.492249
5.160000 2.800000 2.960000 6.462112 13.817813 232.690857
5.160000 2.800000 3.000000 -12.893468 15.682372 412.178314
5.160000 2.800000 3.040000 -24.504637 3.723666 614.342896
5.160000 2.800000 3.080000 -22.618216 -9.446953 600.828613
5.160000 2.800000 3.120000 -14.300594 -13.769677 394.111023
5.160000 2.800000 3.160000 -10.199870 -10.710605 218.754395
5.160000 2.800000 3.200000 -12.920838 -9.498805 257.175354
5.160000 2.840000 2.800000 1.670255 -45.802765 2100.683105
5.160000 2.840000 2.840000 23.277378 -38.687008 2038.520874
5.160000 2.840000 2.880000 35.400597 -17.940331 1575.057739
5.160000 2.840000 2.920000 30.450451 5.316625 955.496460
5.160000 2.840000 2.960000 12.239063 17.968599 472.665222
5.160000 2.840000 3.000000 -7.080599 14.852769 270.739624
5.160000 2.840000 3.040000 -16.818056 1.723827 285.818604
5.160000 2.840000 3.080000 -15.252881 -10.982481 353.265259
5.160000 2.840000 3.120000 -8.490707 -17.139116 365.841400
5.160000 2.840000 3.160000 -2.961425 -18.203972 340.154633
5.160000 2.840000 3.200000 0.355104 -18.821054 354.358185
5.160000 2.880000 2.800000 37.699478 -34.163815 2588.416992
5.160000 2.880000 2.840000 49.792030 -15.416114 2716.902832
5.160000 2.880000 2.880000 48.898998 7.566394 2448.362305
5.160000 2.880000 2.920000 34.982361 25.558258 1876.990234
5.160000 2.880000 2.960000 14.176632 31.542717 1195.919922
5.160000 2.880000 3.000000 -4.380886 24.364429 612.817566
5.160000 2.880000 3.040000 -13.388807 9.105675 262.173462
5.160000 2.880000 3.080000 -11.043087 -6.054206 158.603180
5.160000 2.880000 3.120000 -1.321524 -14.582605 214.398804
5.160000 2.880000 3.160000 9.244306 -14.887909 307.106995
5.160000 2.880000 3.200000 15.932473 -10.060633 355.060028
5.160000 2.920000 2.800000 55.344612 2.934918 3071.639893
5.160000 2.920000 2.840000 52.288895 23.107878 3268.102539
5.160000 2.920000 2.880000 40.558300 39.463840 3202.370361
5.160000 2.920000 2.920000 22.511477 48.844147 2892.517334
5.160000 2.920000 2.960000 1.665032 48.188324 2324.886719
5.160000 2.920000 3.000000 -15.654514 36.134415 1550.759766
5.160000 2.920000 3.040000 -22.047283 16.607796 761.901611
5.160000 2.920000 3.080000 -14.671526 -0.930204 216.118958
5.160000 2.920000 3.120000 0.768137 -7.300197 53.882904
5.160000 2.920000 3.160000 13.273613 -1.133006 177.472504
5.160000 2.920000 3.200000 15.404940 9.728886 331.963379
5.160000 2.960000 2.800000 40.041729 42.486740 3408.463135
5.160000 2.960000 2.840000 25.866238 53.362549 3516.623779
5.160000 2.960000 2.880000 10.486379 58.852226 3573.548584
5.160000 2.960000 2.920000 -6.893699 59.725639 3614.675293
5.160000 2.960000 2.960000 -25.589308 52.358406 3396.215332
5.160000 2.960000 3.000000 -38.744675 34.291374 2677.048096
5.160000 2.960000 3.040000 -37.859779 11.443333 1564.312744
5.160000 2.960000 3.080000 -22.679647 -3.547419 526.950562
5.160000 2.960000 3.120000 -4.502378 -2.323335 25.669296
5.160000 2.960000 3.160000 2.864176 10.214880 112.547272
5.160000 2.960000 3.200000 -3.751878 19.792408 405.816010
5.160000 3.000000 2.800000 1.516030 58.077805 3375.329834
5.160000 3.000000 2.840000 -13.668879 56.155502 3340.278564
5.160000 3.000000 2.880000 -25.795982 52.606628 3432.889893
5.160000 3.000000 2.920000 -39.262299 46.846893 3736.159424
5.160000 3.000000 2.960000 -52.514664 33.219185 3861.304199
5.160000 3.000000 3.000000 -56.682716 11.284328 3340.266602
5.160000 3.000000 3.040000 -45.614815 -8.955954 2160.920410
5.160000 3.000000 3.080000 -25.535690 -15.099764 880.074341
5.160000 3.000000 3.120000 -11.552165 -5.710251 166.059479
5.160000 3.000000 3.160000 -13.021168 6.561227 212.600510
5.160000 3.000000 3.200000 -23.471392 7.256228 603.559082
5.160000 3.040000 2.800000 -33.251671 41.552429 2832.277832
5.160000 3.040000 2.840000 -41.486008 31.947334 2741.720947
5.160000 3.040000 2.880000 -47.603554 24.205231 2851.991699
5.160000 3.040000 2.920000 -55.097466 14.145275 3235.819580
5.160000 3.040000 2.960000 -59.087334 -2.628675 3498.222900
5.160000 3.040000 3.000000 -51.841091 -21.682817 3157.643311
5.160000 3.040000 3.040000 -33.891052 -31.882469 2165.095215
5.160000 3.040000 3.080000 -16.602022 -27.361637 1024.286377
5.160000 3.040000 3.120000 -11.557393 -15.490025 373.514191
5.160000 3.040000 3.160000 -17.917824 -10.383549 428.866486
5.160000 3.040000 3.200000 -22.561899 -17.887112 828.988037
5.160000 3.080000 2.800000 -42.330475 9.350391 1879.298950
5.160000 3.080000 2.840000 -43.309998 -0.042118 1875.757690
5.160000 3.080000 2.880000 -44.482464 -8.380497 2048.922363
5.160000 3.080000 2.920000 -44.583138 -19.847534 2381.580811
5.160000 3.080000 2.960000 -38.043739 -33.481495 2568.336426
5.160000 3.080000 3.000000 -23.318672 -41.962582 2304.618652
5.160000 3.080000 3.040000 -7.320251 -39.479485 1612.215820
5.160000 3.080000 3.080000 0.515021 -29.483864 869.563477
5.160000 3.080000 3.120000 -1.480257 -22.402975 504.084442
5.160000 3.080000 3.160000 -4.620720 -24.691484 631.020508
5.160000 3.080000 3.200000 1.014368 -31.219978 975.716003
5.160000 3.120000 2.800000 -26.486427 -12.569740 859.529175
5.160000 3.120000 2.840000 -25.614317 -18.455452 996.696960
5.160000 3.120000 2.880000 -23.498581 -26.663548 1263.128052
5.160000 3.120000 2.920000 -16.031418 -35.680424 1530.098999
5.160000 3.120000 2.960000 -2.880983 -39.734127 1587.100952
5.160000 3.120000 3.000000 10.052462 -35.078213 1331.532959
5.160000 3.120000 3.040000 15.858425 -25.239647 888.529419
5.160000 3.120000 3.080000 14.140532 -18.343102 536.424011
5.160000 3.120000 3.120000 11.999592 -18.626541 490.938232
5.160000 3.120000 3.160000 16.541048 -21.480600 735.022461
5.160000 3.120000 3.200000 26.672932 -18.077473 1038.240356
5.160000 3.160000 2.800000 -6.173679 -11.427765 168.708130
5.160000 3.160000 2.840000 -7.598672 -17.094463 349.960480
5.160000 3.160000 2.880000 -1.967350 -25.444407 651.288330
5.160000 3.160000 2.920000 10.805593 -28.034769 902.709167
5.160000 3.160000 2.960000 22.600424 -20.496365 930.880127
5.160000 3.160000 3.000000 25.281593 -8.132898 705.302979
5.160000 3.160000 3.040000 19.685514 -0.799806 388.159149
5.160000 3.160000 3.080000 14.952690 -2.239592 228.598724
5.160000 3.160000 3.120000 18.441246 -5.817463 373.922424
5.160000 3.160000 3.160000 27.228827 -1.850595 744.833679
5.160000 3.160000 3.200000 30.913252 11.375917 1085.040649
5.160000 3.200000 2.800000 -1.319901 2.999052 10.736447
5.160000 3.200000 2.840000 -2.990458 -7.354548 63.032219
5.160000 3.200000 2.880000 7.536579 -14.404673 264.294617
5.160000 3.200000 2.920000 20.923313 -8.532377 510.586487
5.160000 3.200000 2.960000 24.196709 6.198640 623.903870
5.160000 3.200000 3.000000 15.179905 16.369713 498.397034
5.160000 3.200000 3.040000 4.882990 14.232169 226.398224
5.160000 3.200000 3.080000 4.870481 6.423477 64.982635
5.160000 3.200000 3.120000 13.859493 6.253663 231.193848
5.160000 3.200000 3.160000 18.918247 18.149286 687.296692
5.160000 3.200000 3.200000 10.211702 31.992191 1127.779175
5.200000 2.800000 2.800000 -19.805569 -34.864655 1607.804688
5.200000 2.800000 2.840000 0.315393 -36.545464 1335.670410
5.200000 2.800000 2.880000 15.889706 -21.998072 736.397888
5.200000 2.800000 2.920000 15.120834 -1.022739 229.685623
5.200000 2.800000 2.960000 -0.496044 10.722906 115.226768
5.200000 2.800000 3.000000 -17.243883 5.824021 331.270721
5.200000 2.800000 3.040000 -21.976200 -8.560752 556.239868
5.200000 2.800000 3.080000 -13.919605 -18.471291 534.943970
5.200000 2.800000 3.120000 -3.778118 -16.933395 301.014038
5.200000 2.800000 3.160000 -1.667193 -9.619367 95.311745
5.200000 2.800000 3.200000 -6.814242 -7.189327 98.120316
5.200000 2.840000 2.800000 12.032509 -38.537312 1629.905640
5.200000 2.840000 2.840000 26.639898 -23.121891 1244.306030
5.200000 2.840000 2.880000 25.380768 -1.531423 646.528625
5.200000 2.840000 2.920000 9.136196 11.568826 217.307800
5.200000 2.840000 2.960000 -9.846754 8.170939 163.722809
5.200000 2.840000 3.000000 -18.368507 -6.794507 383.567383
5.200000 2.840000 3.040000 -13.012562 -20.669315 596.547363
5.200000 2.840000 3.080000 -1.415602 -24.513716 602.926147
5.200000 2.840000 3.120000 6.343272 -19.742073 429.986542
5.200000 2.840000 3.160000 7.116876 -14.333931 256.111511
5.200000 2.840000 3.200000 5.855091 -13.552509 217.952591
5.200000 2.880000 2.800000 38.287861 -14.238625 1668.698730
5.200000 2.880000 2.840000 33.979263 8.583017 1228.258545
5.200000 2.880000 2.880000 14.798178 20.859341 654.098145
5.200000 2.880000 2.920000 -5.860153 15.524347 275.346741
5.200000 2.880000 2.960000 -14.880949 -1.486994 223.653793
5.200000 2.880000 3.000000 -9.190810 -17.323765 384.583801
5.200000 2.880000 3.040000 3.853965 -22.924818 540.400330
5.200000 2.880000 3.080000 14.388050 -18.688528 556.277100
5.200000 2.880000 3.120000 18.071938 -11.274359 453.706116
5.200000 2.880000 3.160000 17.398415 -6.224921 341.454468
5.200000 2.880000 3.200000 16.813911 -3.808970 297.215851
5.200000 2.920000 2.800000 37.054386 24.125553 1955.069824
5.200000 2.920000 2.840000 13.288635 36.614681 1517.222656
5.200000 2.920000 2.880000 -11.000807 28.015179 905.867981
5.200000 2.920000 2.920000 -20.326731 6.331234 453.260529
5.200000 2.920000 2.960000 -11.906590 -12.661176 302.072266
5.200000 2.920000 3.000000 4.726877 -18.511665 365.025146
5.200000 2.920000 3.040000 17.674519 -12.208570 461.437775
5.200000 2.920000 3.080000 21.767435 -1.785176 477.008087
5.200000 2.920000 3.120000 19.459681 6.047181 415.247559
5.200000 2.920000 3.160000 15.452213 9.912189 337.022400
5.200000 2.920000 3.200000 12.029451 11.646755 280.354614
5.200000 2.960000 2.800000 6.507083 49.144371 2457.511230
5.200000 2.960000 2.840000 -22.635792 39.620449 2082.159180
5.200000 2.960000 2.880000 -34.797195 12.978983 1379.298828
5.200000 2.960000 2.920000 -24.519047 -11.587389 735.451233
5.200000 2.960000 2.960000 -2.755749 -19.587711 391.272583
5.200000 2.960000 3.000000 14.653372 -10.930065 334.187622
5.200000 2.960000 3.040000 19.570641 4.024202 399.204193
5.200000 2.960000 3.080000 14.439975 15.229336 440.445557
5.200000 2.960000 3.120000 6.038426 19.442440 414.471069
5.200000 2.960000 3.160000 -1.096305 18.548367 345.243774
5.200000 2.960000 3.200000 -5.656198 14.960108 255.797394
5.200000 3.000000 2.800000 -31.700550 42.738323 2831.489258
5.200000 3.000000 2.840000 -48.589146 15.067966 2587.948730
5.200000 3.000000 2.880000 -40.362835 -14.874710 1850.415405
5.200000 3.000000 2.920000 -15.402776 -28.167595 1030.658936
5.200000 3.000000 2.960000 7.985756 -20.330276 477.092438
5.200000 3.000000 3.000000 16.817469 -1.493911 285.059021
5.200000 3.000000 3.040000 10.820367 14.596258 330.131104
5.200000 3.000000 3.080000 -1.865309 20.702347 432.066528
5.200000 3.000000 3.120000 -13.130855 17.551138 480.461792
5.200000 3.000000 3.160000 -18.986769 9.294443 446.884033
5.200000 3.000000 3.200000 -18.405916 0.002751 338.777740
5.200000 3.040000 2.800000 -50.338211 11.924264 2676.123535
5.200000 3.040000 2.840000 -47.806164 -18.477243 2626.837646
5.200000 3.040000 2.880000 -25.167683 -37.391914 2031.567505
5.200000 3.040000 2.920000 1.849636 -34.871506 1219.443115
5.200000 3.040000 2.960000 17.039261 -16.326071 556.877014
5.200000 3.040000 3.000000 14.754564 4.187499 235.232330
5.200000 3.040000 3.040000 0.788577 15.029968 226.521805
5.200000 3.040000 3.080000 -14.506757 12.966637 378.579651
5.200000 3.040000 3.120000 -23.069195 1.873446 535.697571
5.200000 3.040000 3.160000 -21.675125 -11.384500 599.417847
5.200000 3.040000 3.200000 -11.640039 -19.989534 535.072021
5.200000 3.080000 2.800000 -39.853901 -17.722027 1902.403564
5.200000 3.080000 2.840000 -25.336979 -37.574356 2053.794922
5.200000 3.080000 2.880000 -1.344336 -42.167614 1779.914917
5.200000 3.080000 2.920000 18.260651 -29.838518 1223.788574
5.200000 3.080000 2.960000 23.434555 -9.296709 635.607178
5.200000 3.080000 3.000000 13.676706 6.990500 235.919388
5.200000 3.080000 3.040000 -3.017501 10.576678 120.971443
5.200000 3.080000 3.080000 -15.745813 1.151764 249.257187
5.200000 3.080000 3.120000 -16.888453 -14.224666 487.560913
5.200000 3.080000 3.160000 -5.978564 -25.447399 683.313354
5.200000 3.080000 3.200000 10.208445 -25.094091 733.925781
5.200000 3.120000 2.800000 -15.343230 -25.176039 869.247681
5.200000 3.120000 2.840000 -1.826937 -33.620369 1133.666870
5.200000 3.120000 2.880000 15.339437 -31.237574 1211.084351
5.200000 3.120000 2.920000 27.112297 -17.688126 1047.946411
5.200000 3.120000 2.960000 26.435272 0.059426 698.827148
5.200000 3.120000 3.000000 13.777879 11.306416 317.664978
5.200000 3.120000 3.040000 -1.939353 8.964552 84.124283
5.200000 3.120000 3.080000 -9.027991 -4.534039 102.062134
5.200000 3.120000 3.120000 -1.844149 -18.224028 335.516052
5.200000 3.120000 3.160000 14.367065 -20.644863 632.622925
5.200000 3.120000 3.200000 27.275749 -8.899557 823.168579
5.200000 3.160000 2.800000 -0.890379 -11.805664 140.166473
5.200000 3.160000 2.840000 5.830482 -18.031040 359.112915
5.200000 3.160000 2.880000 18.163876 -16.982904 618.345398
5.200000 3.160000 2.920000 27.218748 -5.331117 769.281006
5.200000 3.160000 2.960000 24.329077 10.299201 697.977539
5.200000 3.160000 3.000000 10.516023 17.871172 429.965515
5.200000 3.160000 3.040000 -2.721280 11.326389 135.692459
5.200000 3.160000 3.080000 -3.545086 -2.549543 19.067802
5.200000 3.160000 3.120000 8.645035 -9.715255 169.122803
5.200000 3.160000 3.160000 22.119678 -2.068969 493.560822
5.200000 3.160000 3.200000 23.811878 14.818501 786.593506
5.200000 3.200000 2.800000 -6.838972 2.598006 53.521175
5.200000 3.200000 2.840000 -1.525077 -9.111880 85.352219
5.200000 3.200000 2.880000 12.735418 -10.166269 265.543915
5.200000 3.200000 2.920000 21.963921 2.462835 488.479370
5.200000 3.200000 2.960000 16.503418 17.660187 584.244995
5.200000 3.200000 3.000000 1.543901 21.426920 461.496521
5.200000 3.200000 3.040000 -8.089067 11.690211 202.094055
5.200000 3.200000 3.080000 -3.670820 0.518705 13.743976
5.200000 3.200000 3.120000 8.194100 1.129107 68.418167
5.200000 3.200000 3.160000 12.869795 13.788820 355.763184
5.200000 3.200000 3.200000 3.384942 25.854549 679.915527
