#kx 	ky 	kz 	real 	imag 	intensity
4.800000 4.800000 2.800000 -13.142365 -12.472136 328.275909
4.800000 4.800000 2.840000 -8.818937 -11.526877 210.642548
4.800000 4.800000 2.880000 -9.196400 -10.474620 194.291428
4.800000 4.800000 2.920000 -10.473972 -14.315515 314.638062
4.800000 4.800000 2.960000 -6.014218 -21.295120 489.652954
4.800000 4.800000 3.000000 5.686114 -23.800455 598.793579
4.800000 4.800000 3.040000 18.092068 -16.155743 588.330933
4.800000 4.800000 3.080000 22.339258 -0.991998 500.026520
4.800000 4.800000 3.120000 15.617377 12.830322 408.519653
4.800000 4.800000 3.160000 3.260967 18.439568 350.651550
4.800000 4.800000 3.200000 -7.314756 16.358482 321.105591
4.800000 4.840000 2.800000 -5.790143 -22.735258 550.417725
4.800000 4.840000 2.840000 -2.059259 -19.507769 384.793579
4.800000 4.840000 2.880000 -1.919032 -19.374306 379.046387
4.800000 4.840000 2.920000 1.077389 -22.744461 518.471252
4.800000 4.840000 2.960000 9.413645 -23.520929 641.850830
4.800000 4.840000 3.000000 17.947887 -16.752434 602.770691
4.800000 4.840000 3.040000 19.487553 -5.127376 406.054688
4.800000 4.840000 3.080000 13.032772 3.496908 182.081512
4.800000 4.840000 3.120000 4.934559 4.708466 46.519516
4.800000 4.840000 3.160000 1.418625 2.143499 6.607086
4.800000 4.840000 3.200000 1.310338 2.385139 7.405878
4.800000 4.880000 2.800000 7.928636 -27.252661 805.570801
4.800000 4.880000 2.840000 10.780077 -22.572893 625.745544
4.800000 4.880000 2.880000 12.673273 -21.552116 625.105591
4.800000 4.880000 2.920000 17.752264 -20.341457 728.917786
4.800000 4.880000 2.960000 22.997662 -14.273460 732.624146
4.800000 4.880000 3.000000 22.527752 -5.319569 535.797424
4.800000 4.880000 3.040000 16.193499 -0.539410 262.520355
4.800000 4.880000 3.080000 11.216643 -3.049800 135.114365
4.800000 4.880000 3.120000 13.856064 -6.817059 238.462799
4.800000 4.880000 3.160000 20.638462 -2.760834 433.568298
4.800000 4.880000 3.200000 20.493771 9.794085 515.918701
4.800000 4.920000 2.800000 23.421835 -21.666916 1018.037598
4.800000 4.920000 2.840000 24.768236 -15.263571 846.442139
4.800000 4.920000 2.880000 26.319683 -11.387259 822.395386
4.800000 4.920000 2.920000 28.256771 -5.910457 833.378601
4.800000 4.920000 2.960000 26.411263 0.924565 698.409607
4.800000 4.920000 3.000000 20.423656 3.580692 429.947083
4.800000 4.920000 3.040000 17.118534 -0.686977 293.516144
4.800000 4.920000 3.080000 23.104782 -5.281223 561.722229
4.800000 4.920000 3.120000 34.647961 0.702099 1200.974121
4.800000 4.920000 3.160000 38.038200 19.546377 1828.965576
4.800000 4.920000 3.200000 22.802744 38.731194 2020.070557
4.800000 4.960000 2.800000 32.800903 -5.705705 1108.454346
4.800000 4.960000 2.840000 30.455454 1.775527 930.687134
4.800000 4.960000 2.880000 28.114233 6.753299 836.017151
4.800000 4.960000 2.920000 24.649452 11.027993 729.212158
4.800000 4.960000 2.960000 19.421078 11.979561 520.688110
4.800000 4.960000 3.000000 17.229073 7.593100 354.496124
4.800000 4.960000 3.040000 23.907059 3.343551 582.726807
4.800000 4.960000 3.080000 36.648849 9.845490 1440.071899
4.800000 4.960000 3.120000 41.895561 30.981552 2715.094727
4.800000 4.960000 3.160000 26.720181 55.380112 3780.924805
4.800000 4.960000 3.200000 -6.338236 63.123077 4024.696289
4.800000 5.000000 2.800000 29.117538 14.324999 1053.036621
4.800000 5.000000 2.840000 21.449625 19.273588 831.557617
4.800000 5.000000 2.880000 15.095341 20.096230 631.727722
4.800000 5.000000 2.920000 10.561261 17.990404 435.194885
4.800000 5.000000 2.960000 10.091072 13.276649 278.099152
4.800000 5.000000 3.000000 16.854872 10.226148 388.660797
4.800000 5.000000 3.040000 28.290369 17.032505 1090.451172
4.800000 5.000000 3.080000 32.949074 37.369301 2482.105957
4.800000 5.000000 3.120000 18.388493 61.997429 4181.817871
4.800000 5.000000 3.160000 -15.292217 72.131348 5436.783203
4.800000 5.000000 3.200000 -50.784050 54.899147 5592.936035
4.800000 5.040000 2.800000 11.980000 27.769835 914.684082
4.800000 5.040000 2.840000 1.414767 25.157890 634.921021
4.800000 5.040000 2.880000 -3.440959 18.181633 342.411987
4.800000 5.040000 2.920000 -1.439428 11.016161 123.427757
4.800000 5.040000 2.960000 6.975189 8.514604 121.151733
4.800000 5.040000 3.000000 17.464655 16.082022 563.645569
4.800000 5.040000 3.040000 20.375381 34.964394 1637.664917
4.800000 5.040000 3.080000 5.989630 56.772579 3259.001465
4.800000 5.040000 3.120000 -25.568890 65.567520 4952.867676
4.800000 5.040000 3.160000 -59.801247 49.456764 6022.160645
4.800000 5.040000 3.200000 -76.120674 12.460533 5949.622070
4.800000 5.080000 2.800000 -10.466400 26.438801 808.555725
4.800000 5.080000 2.840000 -17.176348 14.469831 504.402954
4.800000 5.080000 2.880000 -13.224033 2.548211 181.368439
4.800000 5.080000 2.920000 -1.312510 -1.674943 4.528117
4.800000 5.080000 2.960000 11.028111 6.402561 162.612015
4.800000 5.080000 3.000000 13.693870 25.048119 814.930298
4.800000 5.080000 3.040000 -0.565019 44.502190 1980.764038
4.800000 5.080000 3.080000 -29.486317 50.649483 3434.812988
4.800000 5.080000 3.120000 -59.495857 34.362854 4720.562988
4.800000 5.080000 3.160000 -73.033981 -0.030113 5333.963379
4.800000 5.080000 3.200000 -61.124222 -35.504341 4996.728516
4.800000 5.120000 2.800000 -26.309341 10.855379 810.020691
4.800000 5.120000 2.840000 -22.526499 -5.990024 543.323547
4.800000 5.120000 2.880000 -7.352240 -14.419727 261.983978
4.800000 5.120000 2.920000 9.488898 -7.687418 149.135590
4.800000 5.120000 2.960000 15.379459 11.619437 371.539093
4.800000 5.120000 3.000000 2.917625 31.510410 1001.418457
4.800000 5.120000 3.040000 -23.811316 37.188602 1949.970947
4.800000 5.120000 3.080000 -50.122150 21.131809 2958.783447
4.800000 5.120000 3.120000 -59.737743 -10.549466 3679.889160
4.800000 5.120000 3.160000 -46.142776 -41.239479 3829.850342
4.800000 5.120000 3.200000 -17.370365 -55.088448 3336.466553
4.800000 5.160000 2.800000 -28.172367 -9.852070 890.745544
4.800000 5.160000 2.840000 -12.794079 -23.181835 701.085938
4.800000 5.160000 2.880000 8.298796 -20.594749 493.013733
4.800000 5.160000 2.920000 20.322428 -2.006289 417.026276
4.800000 5.160000 2.960000 12.901340 20.340128 580.165405
4.800000 5.160000 3.000000 -11.009147 29.537697 993.676819
4.800000 5.160000 3.040000 -35.781227 16.627787 1556.779541
4.800000 5.160000 3.080000 -44.040848 -11.917096 2081.613525
4.800000 5.160000 3.120000 -29.646576 -38.522301 2362.887207
4.800000 5.160000 3.160000 -2.010420 -47.580036 2267.901611
4.800000 5.160000 3.200000 21.719810 -36.577412 1809.657104
4.800000 5.200000 2.800000 -18.079714 -24.915440 947.655151
4.800000 5.200000 2.840000 3.501257 -28.485830 823.701294
4.800000 5.200000 2.880000 21.527710 -14.175291 664.381165
4.800000 5.200000 2.920000 22.126659 9.342182 576.865417
4.800000 5.200000 2.960000 3.618809 24.535381 615.080688
4.800000 5.200000 3.000000 -20.382980 18.801777 768.972656
4.800000 5.200000 3.040000 -31.049099 -4.543509 984.690063
4.800000 5.200000 3.080000 -19.578165 -28.314957 1185.041260
4.800000 5.200000 3.120000 5.703354 -35.350922 1282.215820
4.800000 5.200000 3.160000 26.719398 -22.142792 1204.229492
4.800000 5.200000 3.200000 30.623909 -0.374022 937.963684
4.840000 4.800000 2.800000 -6.858116 -3.196732 57.252853
4.840000 4.800000 2.840000 -9.069927 -5.585999 113.466965
4.840000 4.800000 2.880000 -9.566370 -11.648097 227.193604
4.840000 4.800000 2.920000 -4.394278 -18.807306 373.024475
4.840000 4.800000 2.960000 6.458130 -21.354965 497.742004
4.840000 4.800000 3.000000 17.742943 -15.495921 554.935547
4.840000 4.800000 3.040000 22.883591 -3.188131 533.822937
4.840000 4.800000 3.080000 19.351271 9.282869 460.643341
4.840000 4.800000 3.120000 10.124693 16.568230 377.015625
4.840000 4.800000 3.160000 0.042984 17.786522 316.362213
4.840000 4.800000 3.200000 -8.461403 15.032152 297.560913
4.840000 4.840000 2.800000 -1.471853 -11.324938 130.420563
4.840000 4.840000 2.840000 3.101361 -13.206343 184.025925
4.840000 4.840000 2.880000 9.740311 -12.247295 244.869904
4.840000 4.840000 2.920000 15.393151 -6.351837 277.294952
4.840000 4.840000 2.960000 15.666227 2.557558 251.971786
4.840000 4.840000 3.000000 9.651793 8.897631 172.324921
4.840000 4.840000 3.040000 2.049613 8.532408 77.002892
4.840000 4.840000 3.080000 -0.851839 3.536306 13.231092
4.840000 4.840000 3.120000 2.153463 0.702747 5.131258
4.840000 4.840000 3.160000 5.176483 4.365982 45.857780
4.840000 4.840000 3.200000 1.130483 10.761127 117.079857
4.840000 4.880000 2.800000 10.280306 -13.569565 289.817780
4.840000 4.880000 2.840000 19.889179 -7.562748 452.774597
4.840000 4.880000 2.880000 24.230844 6.144951 624.894287
4.840000 4.880000 2.920000 16.515850 21.242989 724.037842
4.840000 4.880000 2.960000 -1.640827 26.191748 688.699951
4.840000 4.880000 3.000000 -17.975212 14.733248 540.176819
4.840000 4.880000 3.040000 -18.778267 -5.778812 386.018005
4.840000 4.880000 3.080000 -2.233873 -18.425879 344.503204
4.840000 4.880000 3.120000 17.738703 -11.538378 447.795746
4.840000 4.880000 3.160000 22.887743 9.435593 612.879150
4.840000 4.880000 3.200000 7.628960 25.595463 713.328735
4.840000 4.920000 2.800000 21.738272 -5.096392 498.525665
4.840000 4.920000 2.840000 27.249928 12.001221 886.587830
4.840000 4.920000 2.880000 17.358559 32.511002 1358.284790
4.840000 4.920000 2.920000 -8.443533 40.712044 1728.763672
4.840000 4.920000 2.960000 -34.666462 24.883350 1820.944702
4.840000 4.920000 3.000000 -39.614170 -8.149036 1635.689209
4.840000 4.920000 3.040000 -15.407682 -34.052345 1396.958984
4.840000 4.920000 3.080000 21.302372 -30.552620 1387.253662
4.840000 4.920000 3.120000 41.108639 1.493734 1692.151367
4.840000 4.920000 3.160000 27.366560 36.675549 2094.024414
4.840000 4.920000 3.200000 -8.344410 46.575768 2238.931152
4.840000 4.960000 2.800000 23.364174 11.388960 675.593018
4.840000 4.960000 2.840000 15.395889 32.693249 1305.881958
4.840000 4.960000 2.880000 -10.741076 44.728745 2116.031250
4.840000 4.960000 2.920000 -42.449745 31.536255 2796.516113
4.840000 4.960000 2.960000 -54.760883 -5.657758 3030.764648
4.840000 4.960000 3.000000 -31.842827 -42.289131 2802.336182
4.840000 4.960000 3.040000 14.274920 -47.821423 2490.661865
4.840000 4.960000 3.080000 49.032188 -13.512394 2586.740234
4.840000 4.960000 3.120000 43.693295 36.382172 3232.766357
4.840000 4.960000 3.160000 1.393124 63.400215 4021.528076
4.840000 4.960000 3.200000 -44.676079 47.861320 4286.658203
4.840000 5.000000 2.800000 10.797688 25.347818 759.101929
4.840000 5.000000 2.840000 -10.462029 37.566654 1520.707642
4.840000 5.000000 2.880000 -40.297970 29.546314 2496.911133
4.840000 5.000000 2.920000 -57.388306 -3.186530 3303.571777
4.840000 5.000000 2.960000 -41.838726 -42.578335 3563.393555
4.840000 5.000000 3.000000 2.918240 -57.293545 3291.066406
4.840000 5.000000 3.040000 46.031425 -29.685577 3000.125488
4.840000 5.000000 3.080000 52.170734 24.388811 3316.599609
4.840000 5.000000 3.120000 12.915082 64.902237 4379.099609
4.840000 5.000000 3.160000 -43.592751 60.733788 5588.920898
4.840000 5.000000 3.200000 -75.799660 16.452566 6016.275391
4.840000 5.040000 2.800000 -9.835896 25.794395 762.095703
4.840000 5.040000 2.840000 -32.562454 20.505470 1480.787842
4.840000 5.040000 2.880000 -48.274937 -3.998398 2346.456787
4.840000 5.040000 2.920000 -39.773296 -37.680531 3001.737549
4.840000 5.040000 2.960000 -4.174688 -55.902641 3142.533203
4.840000 5.040000 3.000000 37.171055 -38.505768 2864.381592
4.840000 5.040000 3.040000 51.413742 8.713002 2719.289307
4.840000 5.040000 3.080000 22.156076 53.038242 3303.946777
4.840000 5.040000 3.120000 -33.113121 59.772224 4669.197266
4.840000 5.040000 3.160000 -74.994995 22.092472 6112.326660
4.840000 5.040000 3.200000 -74.685333 -32.445217 6630.590820
4.840000 5.080000 2.800000 -25.388054 10.585911 756.614807
4.840000 5.080000 2.840000 -35.130573 -7.563253 1291.359985
4.840000 5.080000 2.880000 -28.853189 -31.760944 1841.264160
4.840000 5.080000 2.920000 -3.338220 -46.436607 2167.502197
4.840000 5.080000 2.960000 28.817589 -36.095436 2133.333984
4.840000 5.080000 3.000000 43.736958 -1.048913 1914.021729
4.840000 5.080000 3.040000 24.867207 36.853638 1976.568604
4.840000 5.080000 3.080000 -19.873964 48.327526 2730.524170
4.840000 5.080000 3.120000 -60.507217 20.982063 4101.370117
4.840000 5.080000 3.160000 -67.990387 -28.386410 5428.480957
4.840000 5.080000 3.200000 -38.080528 -66.498970 5872.239258
4.840000 5.120000 2.800000 -25.865219 -11.138936 793.085449
4.840000 5.120000 2.840000 -17.675409 -27.823692 1086.577881
4.840000 5.120000 2.880000 1.994843 -35.764008 1283.043579
4.840000 5.120000 2.920000 24.125948 -26.733332 1296.732422
4.840000 5.120000 2.960000 33.884735 -1.849979 1151.597656
4.840000 5.120000 3.000000 20.637085 24.875458 1044.677734
4.840000 5.120000 3.040000 -11.314320 33.777355 1268.923462
4.840000 5.120000 3.080000 -42.193058 14.569750 1992.531738
4.840000 5.120000 3.120000 -50.033142 -23.371250 3049.530518
4.840000 5.120000 3.160000 -28.035706 -56.254570 3950.577393
4.840000 5.120000 3.200000 9.481815 -63.879803 4170.534180
4.840000 5.160000 2.800000 -12.322331 -26.223198 839.495972
4.840000 5.160000 2.840000 5.688804 -29.527348 904.226746
4.840000 5.160000 2.880000 22.027220 -18.889015 841.993286
4.840000 5.160000 2.920000 26.273766 1.169706 691.678955
4.840000 5.160000 2.960000 13.975379 19.001728 556.376892
4.840000 5.160000 3.000000 -9.002222 22.271292 577.050415
4.840000 5.160000 3.040000 -28.575752 6.537201 859.308594
4.840000 5.160000 3.080000 -31.178602 -20.326468 1385.270508
4.840000 5.160000 3.120000 -13.499187 -42.358360 1976.458740
4.840000 5.160000 3.160000 14.532532 -46.367722 2361.160156
4.840000 5.160000 3.200000 36.729156 -31.274054 2327.097168
4.840000 5.200000 2.800000 4.852512 -28.076937 811.861267
4.840000 5.200000 2.840000 19.714956 -17.640371 699.862183
4.840000 5.200000 2.880000 22.502163 0.685858 506.817749
4.840000 5.200000 2.920000 10.728607 15.009264 340.381012
4.840000 5.200000 2.960000 -7.913082 15.333735 297.740295
4.840000 5.200000 3.000000 -20.528751 0.937975 422.309418
4.840000 5.200000 3.040000 -18.054041 -18.846153 681.125854
4.840000 5.200000 3.080000 -1.549992 -31.168531 973.879822
4.840000 5.200000 3.120000 18.905603 -28.584684 1174.505981
4.840000 5.200000 3.160000 31.665272 -13.643609 1188.837524
4.840000 5.200000 3.200000 31.404930 3.960531 1001.955444
4.880000 4.800000 2.800000 -11.490504 8.149160 198.440506
4.880000 4.800000 2.840000 -15.031448 -2.582603 232.614288
4.880000 4.800000 2.880000 -9.156377 -13.951311 278.478333
4.880000 4.800000 2.920000 3.789799 -18.179398 344.853088
4.880000 4.800000 2.960000 16.063126 -12.368078 410.993378
4.880000 4.800000 3.000000 20.941729 -0.765846 439.142517
4.880000 4.800000 3.040000 17.912197 9.508522 411.258789
4.880000 4.800000 3.080000 11.547951 14.791477 352.142944
4.880000 4.800000 3.120000 5.790279 16.652939 310.847717
4.880000 4.800000 3.160000 0.256390 17.720371 314.077301
4.880000 4.800000 3.200000 -7.256859 16.932684 339.377777
4.880000 4.840000 2.800000 -8.177832 -1.578817 69.369598
4.880000 4.840000 2.840000 2.090607 -4.372200 23.486769
4.880000 4.840000 2.880000 11.050121 4.317696 140.747681
4.880000 4.840000 2.920000 8.271507 18.375595 406.080322
4.880000 4.840000 2.960000 -6.298183 24.646645 647.124207
4.880000 4.840000 3.000000 -20.606861 15.826141 675.109497
4.880000 4.840000 3.040000 -21.470169 -1.205425 462.421234
4.880000 4.840000 3.080000 -7.943058 -11.006025 184.224762
4.880000 4.840000 3.120000 6.827690 -4.577934 67.574829
4.880000 4.840000 3.160000 8.057402 11.157158 189.403900
4.880000 4.840000 3.200000 -5.777626 19.556768 415.848145
4.880000 4.880000 2.800000 2.057561 -3.917759 19.582392
4.880000 4.880000 2.840000 13.871880 12.671387 352.993103
4.880000 4.880000 2.880000 4.345238 38.165672 1475.499634
4.880000 4.880000 2.920000 -28.133808 48.100666 3105.185303
4.880000 4.880000 2.960000 -61.110176 26.110260 4416.199219
4.880000 4.880000 3.000000 -65.910034 -17.066986 4635.415039
4.880000 4.880000 3.040000 -34.906662 -49.557339 3674.405029
4.880000 4.880000 3.080000 8.955013 -46.164780 2211.378906
4.880000 4.880000 3.120000 31.507690 -11.809803 1132.206055
4.880000 4.880000 3.160000 18.029419 22.683233 839.588989
4.880000 4.880000 3.200000 -14.238680 28.990917 1043.213257
4.880000 4.920000 2.800000 9.307528 4.471226 106.621925
4.880000 4.920000 2.840000 3.884787 35.907951 1304.472534
4.880000 4.920000 2.880000 -34.588608 55.426338 4268.450684
4.880000 4.920000 2.920000 -83.965950 33.745697 8189.052734
4.880000 4.920000 2.960000 -102.382553 -26.310961 11174.454102
4.880000 4.920000 3.000000 -66.352249 -84.728676 11581.570312
4.880000 4.920000 3.040000 3.384354 -96.424545 9309.147461
4.880000 4.920000 3.080000 56.249470 -52.121071 5880.608887
4.880000 4.920000 3.120000 55.448441 11.882866 3215.731934
4.880000 4.920000 3.160000 9.740469 45.833817 2195.615479
4.880000 4.920000 3.200000 -36.862434 30.147711 2267.723633
4.880000 4.960000 2.800000 4.693439 16.209038 284.761292
4.880000 4.960000 2.840000 -25.627693 42.476181 2461.004639
4.880000 4.960000 2.880000 -78.863358 32.131660 7251.873047
4.880000 4.960000 2.920000 -112.010239 -26.853659 13267.413086
4.880000 4.960000 2.960000 -86.086426 -101.111786 17634.464844
4.880000 4.960000 3.000000 -6.835350 -134.024139 18009.193359
4.880000 4.960000 3.040000 72.708382 -95.547852 14415.900391
4.880000 4.960000 3.080000 95.282669 -12.308378 9230.283203
4.880000 4.960000 3.120000 49.331379 53.385799 5283.628418
4.880000 4.960000 3.160000 -21.949810 57.455223 3782.896729
4.880000 4.960000 3.200000 -61.003563 9.995237 3821.339355
4.880000 5.000000 2.800000 -10.122732 18.842579 457.512482
4.880000 5.000000 2.840000 -52.601650 20.902609 3203.852539
4.880000 5.000000 2.880000 -91.101509 -21.829433 8776.009766
4.880000 5.000000 2.920000 -82.459312 -93.061966 15460.067383
4.880000 5.000000 2.960000 -14.113976 -140.912659 20055.582031
4.880000 5.000000 3.000000 74.721786 -120.611633 20130.511719
4.880000 5.000000 3.040000 120.343269 -38.339344 15952.408203
4.880000 5.000000 3.080000 89.156113 48.485649 10299.670898
4.880000 5.000000 3.120000 8.240949 78.672714 6257.309082
4.880000 5.000000 3.160000 -58.500244 39.111034 4951.951660
4.880000 5.000000 3.200000 -66.292084 -27.710861 5162.532227
4.880000 5.040000 2.800000 -22.967697 6.610435 571.213013
4.880000 5.040000 2.840000 -54.066666 -16.291796 3188.626953
4.880000 5.040000 2.880000 -57.950668 -68.557510 8058.412109
4.880000 5.040000 2.920000 -12.598090 -115.885651 13588.196289
4.880000 5.040000 2.960000 63.802254 -114.173935 17106.414062
4.880000 5.040000 3.000000 119.012825 -51.137718 16779.119141
4.880000 5.040000 3.040000 108.903397 35.310619 13106.790039
4.880000 5.040000 3.080000 38.147312 84.449318 8586.905273
4.880000 5.040000 3.120000 -40.865921 63.785923 5738.667480
4.880000 5.040000 3.160000 -72.214127 -3.789957 5229.243652
4.880000 5.040000 3.200000 -42.835876 -62.393101 5727.811523
4.880000 5.080000 2.800000 -21.766655 -13.191330 647.798462
4.880000 5.080000 2.840000 -27.293320 -42.578926 2557.890137
4.880000 5.080000 2.880000 -3.145925 -75.417244 5697.657715
4.880000 5.080000 2.920000 47.637096 -81.837349 8966.644531
4.880000 5.080000 2.960000 94.040466 -43.849449 10766.383789
4.880000 5.080000 3.000000 98.427628 22.240456 10182.635742
4.880000 5.080000 3.040000 50.380081 72.532089 7799.056641
4.880000 5.080000 3.080000 -19.508814 70.225975 5312.281250
4.880000 5.080000 3.120000 -62.268234 17.794615 4193.981445
4.880000 5.080000 3.160000 -50.935196 -44.352566 4561.544434
4.880000 5.080000 3.200000 -1.517730 -72.490021 5257.106934
4.880000 5.120000 2.800000 -5.774668 -26.214024 720.521851
4.880000 5.120000 2.840000 7.719831 -40.931435 1734.978149
4.880000 5.120000 2.880000 34.235413 -43.482239 3062.768555
4.880000 5.120000 2.920000 60.516357 -23.215599 4201.193359
4.880000 5.120000 2.960000 65.943375 15.336098 4583.724609
4.880000 5.120000 3.000000 39.511223 49.775948 4038.781738
4.880000 5.120000 3.040000 -6.667999 54.594028 3024.970215
4.880000 5.120000 3.080000 -42.652039 22.906410 2343.899902
4.880000 5.120000 3.120000 -43.367043 -25.055605 2508.483887
4.880000 5.120000 3.160000 -9.394149 -56.694252 3302.488281
4.880000 5.120000 3.200000 33.673992 -53.101334 3953.689453
4.880000 5.160000 2.800000 13.718998 -23.910133 759.905396
4.880000 5.160000 2.840000 26.918028 -17.997732 1048.498535
4.880000 5.160000 2.880000 34.678658 -3.655392 1215.971191
4.880000 5.160000 2.920000 31.603188 14.269337 1202.375488
4.880000 5.160000 2.960000 16.264664 27.303154 1010.001465
4.880000 5.160000 3.000000 -5.854645 26.718239 748.141113
4.880000 5.160000 3.040000 -22.939556 9.676368 619.855286
4.880000 5.160000 3.080000 -23.325211 -16.334270 810.873779
4.880000 5.160000 3.120000 -4.417851 -36.277527 1335.576416
4.880000 5.160000 3.160000 23.684982 -37.532078 1969.635254
4.880000 5.160000 3.200000 44.523991 -19.505062 2362.833252
4.880000 5.200000 2.800000 23.996365 -10.736629 691.100708
4.880000 5.200000 2.840000 23.357048 4.377104 564.710754
4.880000 5.200000 2.880000 12.211174 14.122128 348.547302
4.880000 5.200000 2.920000 -1.772118 12.876608 168.947433
4.880000 5.200000 2.960000 -10.170033 2.675186 110.586182
4.880000 5.200000 3.000000 -9.351978 -9.862129 184.721085
4.880000 5.200000 3.040000 -1.011593 -18.726458 351.703522
4.880000 5.200000 3.080000 10.811999 -21.100859 562.145569
4.880000 5.200000 3.120000 22.270811 -16.743433 776.331543
4.880000 5.200000 3.160000 30.129501 -6.782265 953.786011
4.880000 5.200000 3.200000 31.706861 6.191717 1043.662476
4.920000 4.800000 2.800000 -24.813593 12.455492 770.853699
4.920000 4.800000 2.840000 -22.731186 -5.369276 545.535889
4.920000 4.800000 2.880000 -8.306129 -15.954975 323.553009
4.920000 4.800000 2.920000 8.214260 -12.864180 232.961182
4.920000 4.800000 2.960000 16.190029 -0.579044 262.452332
4.920000 4.800000 3.000000 13.682230 10.616875 299.921448
4.920000 4.800000 3.040000 7.457890 14.767570 273.701233
4.920000 4.800000 3.080000 4.379192 14.770274 237.338318
4.920000 4.800000 3.120000 3.914820 16.846977 299.146454
4.920000 4.800000 3.160000 0.074926 21.677792 469.932251
4.920000 4.800000 3.200000 -9.580801 22.719810 607.981506
4.920000 4.840000 2.800000 -21.017971 -0.503923 442.009033
4.920000 4.840000 2.840000 -7.202766 1.744850 54.924347
4.920000 4.840000 2.880000 -4.842434 16.887695 308.643402
4.920000 4.840000 2.920000 -20.663311 27.200291 1166.828247
4.920000 4.840000 2.960000 -41.515457 17.221291 2020.106079
4.920000 4.840000 3.000000 -46.046360 -9.056725 2202.291504
4.920000 4.840000 3.040000 -26.332886 -30.003048 1593.603760
4.920000 4.840000 3.080000 2.667225 -26.784241 724.509644
4.920000 4.840000 3.120000 16.457108 -2.290455 276.082581
4.920000 4.840000 3.160000 4.535650 20.950619 459.500549
4.920000 4.840000 3.200000 -19.423393 22.356373 877.075623
4.920000 4.880000 2.800000 -11.182567 -4.056295 141.503326
4.920000 4.880000 2.840000 -9.532555 22.640472 603.460571
4.920000 4.880000 2.880000 -41.362328 42.221123 3493.465332
4.920000 4.880000 2.920000 -86.425285 23.345203 8014.328613
4.920000 4.880000 2.960000 -103.202133 -32.880039 11731.777344
4.920000 4.880000 3.000000 -68.259872 -87.786568 12365.891602
4.920000 4.880000 3.040000 -1.903496 -98.057190 9618.835938
4.920000 4.880000 3.080000 47.341331 -56.001785 5377.401367
4.920000 4.880000 3.120000 46.017570 2.637424 2124.572754
4.920000 4.880000 3.160000 4.963860 31.653881 1026.608154
4.920000 4.880000 3.200000 -33.520061 15.912996 1376.817871
4.920000 4.920000 2.800000 -6.540630 1.162591 44.131462
4.920000 4.920000 2.840000 -35.712631 32.752705 2348.131836
4.920000 4.920000 2.880000 -95.277428 22.731552 9594.511719
4.920000 4.920000 2.920000 -132.931107 -45.162251 19710.308594
4.920000 4.920000 2.960000 -101.783539 -131.278183 27593.849609
4.920000 4.920000 3.000000 -9.273918 -169.185806 28709.843750
4.920000 4.920000 3.040000 82.541054 -125.576530 22582.490234
4.920000 4.920000 3.080000 109.636497 -32.849754 13099.267578
4.920000 4.920000 3.120000 62.181305 38.940483 5382.875977
4.920000 4.920000 3.160000 -9.817278 44.289665 2057.953369
4.920000 4.920000 3.200000 -45.442719 -1.294138 2066.715576
4.920000 4.960000 2.800000 -11.614231 4.761993 157.566940
4.920000 4.960000 2.840000 -65.517059 12.744856 4454.916016
4.920000 4.960000 2.880000 -118.196915 -42.152626 15747.354492
4.920000 4.960000 2.920000 -107.438538 -138.479736 30719.675781
4.920000 4.960000 2.960000 -15.087317 -204.404999 42009.031250
4.920000 4.960000 3.000000 105.465279 -179.375580 43298.523438
4.920000 4.960000 3.040000 169.751053 -72.682472 34098.160156
4.920000 4.960000 3.080000 135.749039 40.191345 20043.144531
4.920000 4.960000 3.120000 40.190811 82.756577 8463.952148
4.920000 4.960000 3.160000 -37.258789 42.299904 3177.499268
4.920000 4.960000 3.200000 -45.962608 -26.629536 2821.693359
4.920000 5.000000 2.800000 -18.785007 -2.170811 357.588928
4.920000 5.000000 2.840000 -69.442368 -29.607384 5698.839355
4.920000 5.000000 2.880000 -81.014137 -109.088821 18463.662109
4.920000 5.000000 2.920000 -13.921480 -186.014206 34795.093750
4.920000 5.000000 2.960000 105.344223 -188.834702 46755.949219
4.920000 5.000000 3.000000 196.049194 -96.598198 47766.496094
4.920000 5.000000 3.040000 190.724121 34.211166 37546.093750
4.920000 5.000000 3.080000 95.890686 114.263832 22251.246094
4.920000 5.000000 3.120000 -13.347980 97.634865 9710.735352
4.920000 5.000000 3.160000 -60.237007 17.592216 3937.983154
4.920000 5.000000 3.200000 -30.341427 -50.223885 3443.040527
4.920000 5.040000 2.800000 -15.926296 -16.663176 531.308350
4.920000 5.040000 2.840000 -37.434513 -63.429810 5424.683594
4.920000 5.040000 2.880000 -4.168831 -127.515282 16277.526367
4.920000 5.040000 2.920000 85.233093 -149.774353 29697.037109
4.920000 5.040000 2.960000 175.871307 -90.934334 39199.769531
4.920000 5.040000 3.000000 197.555954 24.697609 39638.328125
4.920000 5.040000 3.040000 127.438560 121.682999 31047.339844
4.920000 5.040000 3.080000 14.023983 135.578247 18578.132812
4.920000 5.040000 3.120000 -63.053421 67.616882 8547.777344
4.920000 5.040000 3.160000 -60.497952 -19.789469 4051.625244
4.920000 5.040000 3.200000 -2.749711 -60.963234 3724.076660
4.920000 5.080000 2.800000 0.395576 -25.754717 663.461914
4.920000 5.080000 2.840000 9.690716 -62.426323 3990.955811
4.920000 5.080000 2.880000 58.651306 -85.520821 10753.786133
4.920000 5.080000 2.920000 123.483841 -59.175774 18750.031250
4.920000 5.080000 2.960000 154.320129 17.839844 24132.962891
4.920000 5.080000 3.000000 117.369217 101.289993 24035.195312
4.920000 5.080000 3.040000 29.177692 133.700165 18727.072266
4.920000 5.080000 3.080000 -52.348839 93.126114 11412.873047
4.920000 5.080000 3.120000 -75.064621 12.760033 5797.515625
4.920000 5.080000 3.160000 -34.880638 -47.996979 3520.368896
4.920000 5.080000 3.200000 25.604828 -53.780106 3547.906982
4.920000 5.120000 2.800000 20.159679 -19.353626 780.975525
4.920000 5.120000 2.840000 38.572662 -29.198130 2340.381104
4.920000 5.120000 2.880000 68.340683 -19.613813 5055.150391
4.920000 5.120000 2.920000 87.816162 17.165314 8006.326172
4.920000 5.120000 2.960000 73.897469 65.729759 9781.237305
4.920000 5.120000 3.000000 24.553398 94.052475 9448.737305
4.920000 5.120000 3.040000 -33.551807 78.587471 7301.714355
4.920000 5.120000 3.080000 -63.158119 26.239334 4677.450684
4.920000 5.120000 3.120000 -46.309944 -28.549889 2959.707031
4.920000 5.120000 3.160000 1.007280 -50.938507 2595.746094
4.920000 5.120000 3.200000 43.245522 -32.904926 2952.909180
4.920000 5.160000 2.800000 29.106867 -0.832027 847.901978
4.920000 5.160000 2.840000 33.468182 8.068159 1185.214355
4.920000 5.160000 2.880000 32.911648 20.603371 1507.675415
4.920000 5.160000 2.920000 24.278540 33.829304 1733.869263
4.920000 5.160000 2.960000 6.371422 41.371414 1752.188843
4.920000 5.160000 3.000000 -15.905983 35.600697 1520.409790
4.920000 5.160000 3.040000 -31.050583 14.302326 1168.695190
4.920000 5.160000 3.080000 -27.753105 -14.011387 966.553833
4.920000 5.160000 3.120000 -4.790676 -33.258930 1129.107056
4.920000 5.160000 3.160000 25.518621 -31.063000 1616.109985
4.920000 5.160000 3.200000 45.196777 -8.875920 2121.530518
4.920000 5.200000 2.800000 22.627207 15.960150 766.716858
4.920000 5.200000 2.840000 8.562813 22.778704 592.191101
4.920000 5.200000 2.880000 -5.745775 16.896038 318.490051
4.920000 5.200000 2.920000 -10.596085 3.670088 125.746552
4.920000 5.200000 2.960000 -5.453045 -6.865438 76.869934
4.920000 5.200000 3.000000 2.545128 -10.029980 107.078171
4.920000 5.200000 3.040000 7.611616 -9.317608 144.754517
4.920000 5.200000 3.080000 11.138275 -9.804514 220.189667
4.920000 5.200000 3.120000 17.996494 -10.643520 437.158325
4.920000 5.200000 3.160000 28.340832 -5.729750 836.032776
4.920000 5.200000 3.200000 35.019806 8.251789 1294.478882
4.960000 4.800000 2.800000 -38.732067 5.764696 1533.404663
4.960000 4.800000 2.840000 -28.000513 -13.424850 964.255371
4.960000 4.800000 2.880000 -8.128761 -18.468140 407.148926
4.960000 4.800000 2.920000 6.844925 -8.849899 125.173714
4.960000 4.800000 2.960000 9.282734 4.939774 110.570511
4.960000 4.800000 3.000000 3.577660 12.327728 164.772537
4.960000 4.800000 3.040000 -0.513397 12.503063 156.590164
4.960000 4.800000 3.080000 0.747646 13.042971 170.678055
4.960000 4.800000 3.120000 1.534393 19.328426 375.942444
4.960000 4.800000 3.160000 -5.432947 27.069775 762.289612
4.960000 4.800000 3.200000 -18.593563 26.705139 1058.885010
4.960000 4.840000 2.800000 -32.402279 -9.544060 1140.996826
4.960000 4.840000 2.840000 -21.455299 -2.104637 464.759369
4.960000 4.840000 2.880000 -28.683403 9.902576 920.798645
4.960000 4.840000 2.920000 -48.347809 5.479668 2367.537354
4.960000 4.840000 2.960000 -57.579689 -20.314423 3728.096436
4.960000 4.840000 3.000000 -39.642845 -48.407089 3914.801514
4.960000 4.840000 3.040000 -2.981361 -52.844730 2801.453857
4.960000 4.840000 3.080000 24.449707 -26.718857 1311.685547
4.960000 4.840000 3.120000 21.196033 9.555023 540.570312
4.960000 4.840000 3.160000 -7.116703 26.831673 770.586121
4.960000 4.840000 3.200000 -33.407375 14.513461 1326.693237
4.960000 4.880000 2.800000 -21.804731 -15.106617 703.656189
4.960000 4.880000 2.840000 -36.735378 8.726637 1425.642212
4.960000 4.880000 2.880000 -78.606857 3.393974 6190.557129
4.960000 4.880000 2.920000 -106.178024 -47.336781 13514.542969
4.960000 4.880000 2.960000 -80.498848 -113.341354 19326.328125
4.960000 4.880000 3.000000 -6.441277 -141.273224 19999.613281
4.960000 4.880000 3.040000 66.183014 -104.181458 15233.967773
4.960000 4.880000 3.080000 85.915543 -28.719078 8206.265625
4.960000 4.880000 3.120000 45.896206 28.142677 2898.471924
4.960000 4.880000 3.160000 -12.103438 30.511375 1077.437256
4.960000 4.880000 3.200000 -38.728058 -7.039144 1549.411987
4.960000 4.920000 2.800000 -15.686073 -14.795954 464.973145
4.960000 4.920000 2.840000 -62.569378 -4.610172 3936.180664
4.960000 4.920000 2.880000 -111.255127 -55.241104 15429.283203
4.960000 4.920000 2.920000 -99.305038 -146.858719 31428.972656
4.960000 4.920000 2.960000 -8.424072 -208.781693 43660.761719
4.960000 4.920000 3.000000 108.598961 -182.127975 44964.332031
4.960000 4.920000 3.040000 169.605957 -77.516922 34775.054688
4.960000 4.920000 3.080000 135.884552 30.759922 19410.783203
4.960000 4.920000 3.120000 45.478062 70.281616 7007.759766
4.960000 4.920000 3.160000 -24.835165 32.383575 1665.481323
4.960000 4.920000 3.200000 -29.981068 -28.262758 1697.647949
4.960000 4.960000 2.800000 -13.592461 -17.043882 475.248901
4.960000 4.960000 2.840000 -69.462585 -43.694912 6734.295898
4.960000 4.960000 2.880000 -82.788757 -131.723663 24205.101562
4.960000 4.960000 2.920000 -6.345879 -217.985107 47557.777344
4.960000 4.960000 2.960000 129.258545 -219.962402 65091.226562
4.960000 4.960000 3.000000 231.627228 -114.867981 66845.828125
4.960000 4.960000 3.040000 225.954117 31.925053 52074.468750
4.960000 4.960000 3.080000 122.449913 120.945938 29621.902344
4.960000 4.960000 3.120000 5.817499 104.777458 11012.159180
4.960000 4.960000 3.160000 -42.343960 23.762056 2357.646240
4.960000 4.960000 3.200000 -11.954325 -39.991425 1742.219971
4.960000 5.000000 2.800000 -7.396763 -23.637297 613.433899
4.960000 5.000000 2.840000 -39.132828 -81.186958 8122.700195
4.960000 5.000000 2.880000 1.720417 -165.744919 27474.337891
4.960000 5.000000 2.920000 118.718002 -196.542725 52723.007812
4.960000 5.000000 2.960000 238.589920 -120.528419 71452.250000
4.960000 5.000000 3.000000 269.019379 29.711990 73254.234375
4.960000 5.000000 3.040000 181.911575 155.917114 57401.968750
4.960000 5.000000 3.080000 41.110168 177.521393 33203.890625
4.960000 5.000000 3.120000 -53.879501 99.608124 12824.779297
4.960000 5.000000 3.160000 -53.814587 1.283640 2897.657471
4.960000 5.000000 3.200000 6.490048 -40.681801 1697.129639
4.960000 5.040000 2.800000 7.616856 -26.371552 753.475220
4.960000 5.040000 2.840000 14.031689 -84.421638 7323.901367
4.960000 5.040000 2.880000 86.830521 -126.068840 23432.892578
4.960000 5.040000 2.920000 189.368591 -90.564407 44062.375000
4.960000 5.040000 2.960000 241.953247 25.950623 59214.808594
4.960000 5.040000 3.000000 191.358276 155.031204 60652.664062
4.960000 5.040000 3.040000 63.076118 209.504898 47870.898438
4.960000 5.040000 3.080000 -56.694523 158.328827 28282.287109
4.960000 5.040000 3.120000 -94.367256 51.567093 11564.343750
4.960000 5.040000 3.160000 -48.248871 -27.478859 3083.041260
4.960000 5.040000 3.200000 20.397329 -35.070812 1646.012939
4.960000 5.080000 2.800000 24.812185 -16.107456 875.094666
4.960000 5.080000 2.840000 53.092995 -47.048473 5032.424805
4.960000 5.080000 2.880000 114.517769 -40.908993 14787.865234
4.960000 5.080000 2.920000 162.595886 24.649239 27045.007812
4.960000 5.080000 2.960000 146.482407 120.419098 35957.855469
4.960000 5.080000 3.000000 59.643425 182.377747 36818.980469
4.960000 5.080000 3.040000 -47.574375 164.729553 29399.148438
4.960000 5.080000 3.080000 -107.154205 80.571449 17973.781250
4.960000 5.080000 3.120000 -89.495789 -9.060280 8091.584961
4.960000 5.080000 3.160000 -24.393270 -47.608284 2861.580078
4.960000 5.080000 3.200000 30.705645 -27.272877 1686.646484
4.960000 5.120000 2.800000 31.153345 5.579132 1001.657593
4.960000 5.120000 2.840000 51.832695 3.516790 2698.996094
4.960000 5.120000 2.880000 75.243668 27.406315 6412.715332
4.960000 5.120000 2.920000 74.215500 73.787598 10952.549805
4.960000 5.120000 2.960000 33.502335 114.409630 14211.969727
4.960000 5.120000 3.000000 -31.703133 116.347305 14541.784180
4.960000 5.120000 3.040000 -82.994568 70.759598 11895.019531
4.960000 5.120000 3.080000 -88.305786 3.463116 7809.904785
4.960000 5.120000 3.120000 -47.982105 -44.217033 4257.428711
4.960000 5.120000 3.160000 6.444753 -47.899612 2335.907715
4.960000 5.120000 3.200000 39.266781 -16.846786 1825.694336
4.960000 5.160000 2.800000 20.597481 25.514986 1075.270752
4.960000 5.160000 2.840000 18.266617 31.123394 1302.334961
4.960000 5.160000 2.880000 12.660999 38.513577 1643.596436
4.960000 5.160000 2.920000 0.666161 45.187256 2042.331787
4.960000 5.160000 2.960000 -18.206139 44.768787 2335.707764
4.960000 5.160000 3.000000 -37.613564 30.698383 2357.170898
4.960000 5.160000 3.040000 -45.648529 3.542755 2096.339111
4.960000 5.160000 3.080000 -33.259670 -25.342892 1748.467773
4.960000 5.160000 3.120000 -3.418783 -39.549801 1575.874878
4.960000 5.160000 3.160000 28.284508 -29.784960 1687.157227
4.960000 5.160000 3.200000 43.984737 -1.971180 1938.542603
4.960000 5.200000 2.800000 1.455149 30.979763 961.863159
4.960000 5.200000 2.840000 -14.842739 23.554241 775.109192
4.960000 5.200000 2.880000 -20.639935 5.818865 459.866089
4.960000 5.200000 2.920000 -12.038933 -9.232626 230.177277
4.960000 5.200000 2.960000 1.804317 -11.982471 146.835175
4.960000 5.200000 3.000000 8.855112 -5.805809 112.120422
4.960000 5.200000 3.040000 7.285429 -2.187088 57.860832
4.960000 5.200000 3.080000 6.772503 -6.783903 91.888138
4.960000 5.200000 3.120000 16.358747 -12.170406 415.727417
4.960000 5.200000 3.160000 32.393333 -5.828438 1083.298706
4.960000 5.200000 3.200000 40.362888 15.100373 1857.183960
5.000000 4.800000 2.800000 -45.568802 -8.600792 2150.489258
5.000000 4.800000 2.840000 -28.245035 -24.159693 1381.472656
5.000000 4.800000 2.880000 -7.265526 -23.295288 595.458313
5.000000 4.800000 2.920000 4.662909 -10.581871 133.718719
5.000000 4.800000 2.960000 4.505299 2.257210 25.392712
5.000000 4.800000 3.000000 -0.517708 7.891270 62.540157
5.000000 4.800000 3.040000 -2.400284 9.134632 89.202866
5.000000 4.800000 3.080000 -1.353069 13.286118 178.351715
5.000000 4.800000 3.120000 -4.508386 21.892345 499.600311
5.000000 4.800000 3.160000 -16.075794 27.772491 1029.742432
5.000000 4.800000 3.200000 -30.439953 22.999317 1455.559326
5.000000 4.840000 2.800000 -36.349571 -25.137489 1953.184814
5.000000 4.840000 2.840000 -30.830429 -18.661303 1298.759521
5.000000 4.840000 2.880000 -39.742752 -17.554550 1887.648560
5.000000 4.840000 2.920000 -47.788658 -34.096733 3446.343018
5.000000 4.840000 2.960000 -35.553680 -59.027809 4748.346680
5.000000 4.840000 3.000000 -1.793526 -68.407555 4682.810547
5.000000 4.840000 3.040000 31.580414 -47.465469 3250.293213
5.000000 4.840000 3.080000 38.537140 -7.409210 1540.007568
5.000000 4.840000 3.120000 13.809185 22.848434 712.744568
5.000000 4.840000 3.160000 -21.461840 22.800837 980.488770
5.000000 4.840000 3.200000 -39.353485 -1.364723 1550.559204
5.000000 4.880000 2.800000 -22.820259 -33.273403 1627.883545
5.000000 4.880000 2.840000 -45.556793 -25.929773 2747.774414
5.000000 4.880000 2.880000 -72.549393 -56.385212 8442.707031
5.000000 4.880000 2.920000 -61.409508 -113.877640 16739.244141
5.000000 4.880000 2.960000 1.468033 -151.385468 22919.714844
5.000000 4.880000 3.000000 80.586845 -128.709290 23060.322266
5.000000 4.880000 3.040000 119.523964 -53.443691 17142.205078
5.000000 4.880000 3.080000 91.971680 22.335930 8957.683594
5.000000 4.880000 3.120000 25.575565 48.027649 2960.764648
5.000000 4.880000 3.160000 -24.854141 18.419815 957.017944
5.000000 4.880000 3.200000 -27.571737 -26.581184 1466.760010
5.000000 4.920000 2.800000 -9.936728 -35.770409 1378.260620
5.000000 4.920000 2.840000 -50.973213 -54.818192 5603.302734
5.000000 4.920000 2.880000 -58.817780 -124.539017 18969.498047
5.000000 4.920000 2.920000 6.994507 -192.516296 37111.445312
5.000000 4.920000 2.960000 120.591164 -189.531097 50464.265625
5.000000 4.920000 3.000000 203.922546 -97.575790 51105.441406
5.000000 4.920000 3.040000 195.164246 26.708626 38802.433594
5.000000 4.920000 3.080000 105.463531 99.488457 21020.509766
5.000000 4.920000 3.120000 7.923832 83.185181 6982.561523
5.000000 4.920000 3.160000 -29.814877 14.825783 1108.730713
5.000000 4.920000 3.200000 -2.657689 -35.663857 1278.973999
5.000000 4.960000 2.800000 3.202891 -35.457275 1267.476929
5.000000 4.960000 2.840000 -26.175671 -87.848633 8402.547852
5.000000 4.960000 2.880000 14.706554 -167.731628 28350.181641
5.000000 4.960000 2.920000 129.807297 -194.678711 54749.734375
5.000000 4.960000 2.960000 246.008667 -116.775879 74156.875000
5.000000 4.960000 3.000000 272.748413 31.962799 75413.312500
5.000000 4.960000 3.040000 185.140747 154.037872 58004.765625
5.000000 4.960000 3.080000 48.575371 172.778595 32212.009766
5.000000 4.960000 3.120000 -40.218548 97.445465 11113.150391
5.000000 4.960000 3.160000 -37.774467 7.255182 1479.548096
5.000000 4.960000 3.200000 17.290346 -26.211506 985.999084
5.000000 5.000000 2.800000 18.389967 -29.854031 1229.453979
5.000000 5.000000 2.840000 23.863914 -94.023682 9409.939453
5.000000 5.000000 2.880000 106.267494 -140.937698 31156.214844
5.000000 5.000000 2.920000 223.017303 -99.285454 59594.320312
5.000000 5.000000 2.960000 281.723785 34.497749 80558.382812
5.000000 5.000000 3.000000 222.939331 180.526047 82291.601562
5.000000 5.000000 3.040000 78.760086 240.576569 64080.238281
5.000000 5.000000 3.080000 -52.383102 183.725998 36499.230469
5.000000 5.000000 3.120000 -91.616898 69.991196 13292.423828
5.000000 5.000000 3.160000 -43.335587 -9.031784 1959.546143
5.000000 5.000000 3.200000 21.785526 -11.828436 614.521057
5.000000 5.040000 2.800000 31.483522 -14.451526 1200.058716
5.000000 5.040000 2.840000 67.196869 -59.226414 8023.187500
5.000000 5.040000 2.880000 151.467133 -53.617275 25817.105469
5.000000 5.040000 2.920000 218.529785 34.614311 48953.417969
5.000000 5.040000 2.960000 197.940948 164.142181 66123.273438
5.000000 5.040000 3.000000 82.872040 247.187958 67969.664062
5.000000 5.040000 3.040000 -56.757393 224.821320 53766.027344
5.000000 5.040000 3.080000 -132.300476 118.988495 31661.677734
5.000000 5.040000 3.120000 -111.081299 11.024105 12460.585938
5.000000 5.040000 3.160000 -37.177689 -31.238775 2358.041504
5.000000 5.040000 3.200000 17.493679 -6.779880 351.995575
5.000000 5.080000 2.800000 33.346420 8.904495 1191.273804
5.000000 5.080000 2.840000 72.186615 -3.224325 5221.303711
5.000000 5.080000 2.880000 120.544128 34.874294 15747.103516
5.000000 5.080000 2.920000 125.242432 117.156250 29411.253906
5.000000 5.080000 2.960000 58.565006 190.421082 39690.046875
5.000000 5.080000 3.000000 -49.906410 196.762115 41205.980469
5.000000 5.080000 3.040000 -133.155853 125.233864 33414.000000
5.000000 5.080000 3.080000 -142.144028 23.166290 20741.601562
5.000000 5.080000 3.120000 -85.166138 -44.316811 9217.250977
5.000000 5.080000 3.160000 -15.314915 -47.826275 2521.899170
5.000000 5.080000 3.200000 19.006306 -10.801363 477.909088
5.000000 5.120000 2.800000 19.170883 29.225018 1221.624390
5.000000 5.120000 2.840000 37.111858 35.806320 2659.382568
5.000000 5.120000 2.880000 44.536835 67.189117 6497.907227
5.000000 5.120000 2.920000 19.052605 105.541565 11502.023438
5.000000 5.120000 2.960000 -37.331978 118.288284 15385.794922
5.000000 5.120000 3.000000 -94.424034 85.732414 16265.945312
5.000000 5.120000 3.040000 -115.939728 20.419174 13858.962891
5.000000 5.120000 3.080000 -88.810715 -40.590481 9534.930664
5.000000 5.120000 3.120000 -33.348667 -64.500679 5272.470703
5.000000 5.120000 3.160000 14.463005 -46.869118 2405.892578
5.000000 5.120000 3.200000 31.412216 -10.546223 1097.950195
5.000000 5.160000 2.800000 -3.966385 34.579269 1211.458008
5.000000 5.160000 2.840000 -7.964462 35.273354 1307.642090
5.000000 5.160000 2.880000 -15.173798 36.915447 1592.994385
5.000000 5.160000 2.920000 -27.315166 35.526226 2008.231201
5.000000 5.160000 2.960000 -41.902496 25.617912 2412.096680
5.000000 5.160000 3.000000 -51.232487 4.610352 2646.022949
5.000000 5.160000 3.040000 -46.125412 -22.564331 2636.702637
5.000000 5.160000 3.080000 -23.278252 -43.651348 2447.317139
5.000000 5.160000 3.120000 9.604919 -46.147392 2221.836182
5.000000 5.160000 3.160000 36.645981 -26.831408 2062.852295
5.000000 5.160000 3.200000 43.964733 4.329352 1951.640991
5.000000 5.200000 2.800000 -21.206491 23.818344 1017.028809
5.000000 5.200000 2.840000 -29.415751 7.173946 916.751892
5.000000 5.200000 2.880000 -22.835733 -12.193264 670.146362
5.000000 5.200000 2.920000 -4.952530 -20.536377 446.270325
5.000000 5.200000 2.960000 10.147112 -13.975616 298.281738
5.000000 5.200000 3.000000 12.459948 -3.023666 164.392853
5.000000 5.200000 3.040000 6.989799 -1.020611 49.898941
5.000000 5.200000 3.080000 8.085915 -8.731867 141.627502
5.000000 5.200000 3.120000 22.522182 -12.507147 663.677429
5.000000 5.200000 3.160000 39.878059 0.924054 1591.113525
5.000000 5.200000 3.200000 41.576485 28.423004 2536.471191
5.040000 4.800000 2.800000 -43.029297 -23.536989 2405.510254
5.040000 4.800000 2.840000 -22.786228 -34.203232 1689.073242
5.040000 4.800000 2.880000 -2.412155 -29.375263 868.724548
5.040000 4.800000 2.920000 8.041882 -14.983223 289.168823
5.040000 4.800000 2.960000 7.387047 -1.254261 56.141632
5.040000 4.800000 3.000000 2.004944 6.341110 44.229469
5.040000 4.800000 3.040000 -2.224495 10.155807 108.088806
5.040000 4.800000 3.080000 -5.865031 14.888767 256.073975
5.040000 4.800000 3.120000 -13.490482 20.311466 594.548767
5.040000 4.800000 3.160000 -26.168215 20.726486 1114.362671
5.040000 4.800000 3.200000 -37.947277 11.846065 1580.325073
5.040000 4.840000 2.800000 -30.587357 -41.317146 2642.692871
5.040000 4.840000 2.840000 -25.406330 -40.818233 2311.609863
5.040000 4.840000 2.880000 -24.489897 -47.095524 2817.743408
5.040000 4.840000 2.920000 -14.744774 -60.221657 3844.056396
5.040000 4.840000 2.960000 9.826805 -66.166229 4474.535645
5.040000 4.840000 3.000000 37.919773 -50.777458 4016.259521
5.040000 4.840000 3.040000 48.779579 -16.416069 2648.934570
5.040000 4.840000 3.080000 31.631962 16.582779 1275.569580
5.040000 4.840000 3.120000 -2.668722 26.592197 714.267029
5.040000 4.840000 3.160000 -30.091921 9.811789 1001.794861
5.040000 4.840000 3.200000 -34.308235 -16.891823 1462.388672
5.040000 4.880000 2.800000 -10.832115 -50.590611 2676.744629
5.040000 4.880000 2.840000 -23.983624 -59.474430 4112.421875
5.040000 4.880000 2.880000 -21.199409 -93.407707 9174.415039
5.040000 4.880000 2.920000 19.984276 -124.619514 15929.394531
5.040000 4.880000 2.960000 84.922989 -115.007683 20438.681641
5.040000 4.880000 3.000000 129.077087 -55.479942 19738.917969
5.040000 4.880000 3.040000 117.503571 19.882431 14202.400391
5.040000 4.880000 3.080000 58.342041 61.421638 7176.411133
5.040000 4.880000 3.120000 -3.543953 47.459244 2264.939453
5.040000 4.880000 3.160000 -26.881207 1.447821 724.695435
5.040000 4.880000 3.200000 -8.694212 -33.028927 1166.499390
5.040000 4.920000 2.800000 11.442278 -49.313564 2562.753418
5.040000 4.920000 2.840000 -2.842779 -81.823410 6703.151855
5.040000 4.920000 2.880000 30.195463 -132.305908 18416.619141
5.040000 4.920000 2.920000 113.239426 -144.218582 33622.167969
5.040000 4.920000 2.960000 193.582352 -81.662552 44142.898438
5.040000 4.920000 3.000000 206.794113 28.945282 43601.632812
5.040000 4.920000 3.040000 137.266571 116.077728 32316.150391
5.040000 4.920000 3.080000 35.100090 125.311714 16935.041016
5.040000 4.920000 3.120000 -28.526478 66.309097 5210.656250
5.040000 4.920000 3.160000 -23.717064 -0.769053 563.090576
5.040000 4.920000 3.200000 18.412649 -23.702936 900.854797
5.040000 4.960000 2.800000 31.355312 -36.833290 2339.846924
5.040000 4.960000 2.840000 38.406357 -85.412201 8770.291992
5.040000 4.960000 2.880000 108.464066 -119.405823 26022.203125
5.040000 4.960000 2.920000 205.260635 -78.711319 48327.402344
5.040000 4.960000 2.960000 250.306641 38.191811 64112.027344
5.040000 4.960000 3.000000 194.898193 161.714233 64136.796875
5.040000 4.960000 3.040000 69.542816 208.839981 48450.339844
5.040000 4.960000 3.080000 -40.286541 156.675873 26170.335938
5.040000 4.960000 3.120000 -69.528152 60.046646 8439.763672
5.040000 4.960000 3.160000 -26.530504 -2.738020 711.364441
5.040000 4.960000 3.200000 25.546900 -0.287447 652.726746
5.040000 5.000000 2.800000 42.768402 -14.421275 2037.109375
5.040000 5.000000 2.840000 77.292221 -55.220573 9023.399414
5.040000 5.000000 2.880000 159.388977 -46.701401 27585.867188
5.040000 5.000000 2.920000 223.121155 43.094589 51640.195312
5.040000 5.000000 2.960000 198.917816 171.532776 68991.789062
5.040000 5.000000 3.000000 82.662125 250.859406 69763.468750
5.040000 5.000000 3.040000 -53.709480 225.349701 53667.195312
5.040000 5.000000 3.080000 -123.557098 121.271103 29973.037109
5.040000 5.000000 3.120000 -99.867638 20.795738 10406.007812
5.040000 5.000000 3.160000 -31.172964 -13.132343 1144.212158
5.040000 5.000000 3.200000 12.266659 13.284081 326.937714
5.040000 5.040000 2.800000 39.612000 11.987272 1712.805176
5.040000 5.040000 2.840000 85.131271 -2.521847 7253.693359
5.040000 5.040000 2.880000 142.642609 43.215511 22214.494141
5.040000 5.040000 2.920000 147.393463 141.407166 41720.820312
5.040000 5.040000 2.960000 67.474503 227.020691 56091.203125
5.040000 5.040000 3.000000 -58.981461 232.238724 57413.636719
5.040000 5.040000 3.040000 -152.045258 148.549927 45184.839844
5.040000 5.040000 3.080000 -158.547516 35.366077 26388.074219
5.040000 5.040000 3.120000 -95.122040 -33.330521 10159.125977
5.040000 5.040000 3.160000 -25.944160 -31.619640 1672.901123
5.040000 5.040000 3.200000 -0.859751 5.727993 33.549072
5.040000 5.080000 2.800000 21.023382 31.676674 1445.394287
5.040000 5.080000 2.840000 53.722054 40.358616 4514.876953
5.040000 5.080000 2.880000 69.788513 91.198540 13187.610352
5.040000 5.080000 2.920000 32.130623 153.555542 24611.681641
5.040000 5.080000 2.960000 -53.536957 174.370453 33271.261719
5.040000 5.080000 3.000000 -137.032272 125.942459 34639.347656
5.040000 5.080000 3.040000 -164.699738 33.343132 28237.767578
5.040000 5.080000 3.080000 -124.816200 -45.915962 17687.359375
5.040000 5.080000 3.120000 -54.619980 -70.447037 7946.127441
5.040000 5.080000 3.160000 -4.300035 -45.594860 2097.381592
5.040000 5.080000 3.200000 5.284885 -9.775137 123.483315
5.040000 5.120000 2.800000 -4.746517 35.146812 1257.827881
5.040000 5.120000 2.840000 5.143873 47.058876 2240.997314
5.040000 5.120000 2.880000 -4.991264 72.697731 5309.872559
5.040000 5.120000 2.920000 -42.741631 87.107452 9414.555664
5.040000 5.120000 2.960000 -89.976799 67.680397 12676.460938
5.040000 5.120000 3.000000 -115.450218 15.725822 13576.054688
5.040000 5.120000 3.040000 -100.311333 -42.238335 11846.440430
5.040000 5.120000 3.080000 -53.425453 -74.983780 8476.846680
5.040000 5.120000 3.120000 -3.169041 -70.207092 4939.078613
5.040000 5.120000 3.160000 25.474037 -40.686508 2304.318604
5.040000 5.120000 3.200000 27.421871 -9.990545 851.770020
5.040000 5.160000 2.800000 -23.929237 22.330135 1071.243408
5.040000 5.160000 2.840000 -26.807232 20.311480 1131.183838
5.040000 5.160000 2.880000 -33.135925 16.625429 1374.394409
5.040000 5.160000 2.920000 -40.464851 7.501499 1693.676636
5.040000 5.160000 2.960000 -43.942764 -7.957703 1994.291626
5.040000 5.160000 3.000000 -38.716599 -26.907959 2223.013184
5.040000 5.160000 3.040000 -22.343960 -43.168980 2362.813232
5.040000 5.160000 3.080000 2.887665 -49.074409 2416.636230
5.040000 5.160000 3.120000 29.027473 -39.296848 2386.836426
5.040000 5.160000 3.160000 44.999390 -15.322902 2259.736328
5.040000 5.160000 3.200000 42.848213 13.089529 2007.305176
5.040000 5.200000 2.800000 -27.574764 4.346802 779.262329
5.040000 5.200000 2.840000 -26.254194 -11.910994 831.154480
5.040000 5.200000 2.880000 -11.973429 -25.246738 780.760803
5.040000 5.200000 2.920000 8.059270 -24.874489 683.692017
5.040000 5.200000 2.960000 19.968149 -11.949577 541.519409
5.040000 5.200000 3.000000 18.076191 0.430595 326.934113
5.040000 5.200000 3.040000 11.680981 1.313741 138.171234
5.040000 5.200000 3.080000 14.894119 -5.192789 248.799850
5.040000 5.200000 3.120000 29.723095 -3.517086 895.832275
5.040000 5.200000 3.160000 41.479317 15.754856 1968.749146
5.040000 5.200000 3.200000 33.053890 43.056213 2946.397217
5.080000 4.800000 2.800000 -34.274090 -33.547493 2300.147461
5.080000 4.800000 2.840000 -12.993574 -40.251305 1789.000488
5.080000 4.800000 2.880000 7.142628 -32.032555 1077.101685
5.080000 4.800000 2.920000 16.501049 -14.416416 480.117676
5.080000 4.800000 2.960000 13.233963 2.384278 180.822556
5.080000 4.800000 3.000000 3.241734 11.602901 145.136154
5.080000 4.800000 3.040000 -6.430838 13.856026 233.345108
5.080000 4.800000 3.080000 -13.713173 13.633858 373.933197
5.080000 4.800000 3.120000 -21.118176 12.877794 611.814941
5.080000 4.800000 3.160000 -30.176708 8.977377 991.227051
5.080000 4.800000 3.200000 -37.658257 -0.976876 1419.098633
5.080000 4.840000 2.800000 -16.802464 -52.193916 3006.527588
5.080000 4.840000 2.840000 -4.656937 -54.796371 3024.329346
5.080000 4.840000 2.880000 8.896523 -55.936813 3208.075195
5.080000 4.840000 2.920000 26.151161 -51.750870 3362.035889
5.080000 4.840000 2.960000 42.644238 -36.447239 3146.932129
5.080000 4.840000 3.000000 48.121460 -10.704117 2430.252930
5.080000 4.840000 3.040000 35.410099 14.839817 1474.095337
5.080000 4.840000 3.080000 8.747732 26.110947 758.304382
5.080000 4.840000 3.120000 -17.369858 17.000139 590.716675
5.080000 4.840000 3.160000 -28.907406 -5.095497 861.602234
5.080000 4.840000 3.200000 -23.011612 -25.297987 1169.522461
5.080000 4.880000 2.800000 11.139809 -57.901413 3476.668945
5.080000 4.880000 2.840000 16.922169 -67.639908 4861.517090
5.080000 4.880000 2.880000 39.802933 -80.302132 8032.705566
5.080000 4.880000 2.920000 79.173882 -73.404930 11656.787109
5.080000 4.880000 2.960000 111.165375 -34.030350 13515.804688
5.080000 4.880000 3.000000 108.127563 22.996323 12220.401367
5.080000 4.880000 3.040000 65.800087 63.462502 8357.140625
5.080000 4.880000 3.080000 10.462463 62.667206 4036.641846
5.080000 4.880000 3.120000 -22.538269 27.212349 1248.485596
5.080000 4.880000 3.160000 -18.674961 -11.838875 488.913147
5.080000 4.880000 3.200000 6.135448 -27.458565 791.616516
5.080000 4.920000 2.800000 39.227455 -45.219517 3583.597900
5.080000 4.920000 2.840000 50.479046 -64.769836 6743.265625
5.080000 4.920000 2.880000 93.475739 -73.830956 14188.723633
5.080000 4.920000 2.920000 146.838226 -39.855999 23149.964844
5.080000 4.920000 2.960000 165.532166 35.522820 28662.769531
5.080000 4.920000 3.000000 123.307556 109.509247 27197.027344
5.080000 4.920000 3.040000 41.554619 133.051971 19429.613281
5.080000 4.920000 3.080000 -26.360058 94.952385 9710.807617
5.080000 4.920000 3.120000 -41.471691 31.420395 2707.142334
5.080000 4.920000 3.160000 -11.144119 -8.262379 192.458282
5.080000 4.920000 3.200000 23.625711 -5.504322 588.471802
5.080000 4.960000 2.800000 54.941628 -17.031551 3308.656250
5.080000 4.960000 2.840000 80.156952 -36.521179 7758.933105
5.080000 4.960000 2.880000 134.798050 -22.393480 18671.982422
5.080000 4.960000 2.920000 173.381165 46.353378 32209.664062
5.080000 4.960000 2.960000 148.404480 138.285400 41146.742188
5.080000 4.960000 3.000000 59.640163 190.999435 40037.734375
5.080000 4.960000 3.040000 -39.242416 166.880844 29389.183594
5.080000 4.960000 3.080000 -86.235115 88.269859 15228.062500
5.080000 4.960000 3.120000 -64.875366 16.515877 4481.587402
5.080000 4.960000 3.160000 -13.856154 -4.067009 208.533569
5.080000 4.960000 3.200000 14.793768 18.300100 553.749268
5.080000 5.000000 2.800000 50.231487 15.304883 2757.441895
5.080000 5.000000 2.840000 84.870110 9.104467 7285.826660
5.080000 5.000000 2.880000 127.825905 50.699078 18909.859375
5.080000 5.000000 2.920000 126.087296 133.232513 33648.906250
5.080000 5.000000 2.960000 54.620674 202.073380 43817.070312
5.080000 5.000000 3.000000 -52.449577 201.669525 43421.554688
5.080000 5.000000 3.040000 -127.402069 128.161453 32656.644531
5.080000 5.000000 3.080000 -128.248016 34.522919 17639.384766
5.080000 5.000000 3.120000 -73.694511 -17.470329 5736.093262
5.080000 5.000000 3.160000 -20.393543 -10.682211 530.006226
5.080000 5.000000 3.200000 -7.723061 20.261272 470.164825
5.080000 5.040000 2.800000 27.063782 37.129684 2111.061768
5.080000 5.040000 2.840000 56.875916 47.657459 5506.103516
5.080000 5.040000 2.880000 70.050102 99.181015 14743.890625
5.080000 5.040000 2.920000 29.531143 160.647583 26679.734375
5.080000 5.040000 2.960000 -57.387772 178.663696 35214.074219
5.080000 5.040000 3.000000 -138.666168 127.602325 35510.660156
5.080000 5.040000 3.040000 -161.771881 36.303825 27488.109375
5.080000 5.040000 3.080000 -119.904419 -36.360134 15699.128906
5.080000 5.040000 3.120000 -54.989700 -53.179207 5851.895508
5.080000 5.040000 3.160000 -16.200714 -26.843771 983.051147
5.080000 5.040000 3.200000 -16.871817 0.424469 284.838379
5.080000 5.080000 2.800000 -2.429548 39.049789 1530.788818
5.080000 5.080000 2.840000 11.642405 56.348156 3310.660400
5.080000 5.080000 2.880000 -1.522938 92.570709 8571.655273
5.080000 5.080000 2.920000 -52.090714 112.985664 15479.203125
5.080000 5.080000 2.960000 -113.727592 87.527527 20595.033203
5.080000 5.080000 3.000000 -144.047272 21.288963 21202.837891
5.080000 5.080000 3.040000 -122.020325 -47.337276 17129.777344
5.080000 5.080000 3.080000 -65.914902 -79.545898 10672.324219
5.080000 5.080000 3.120000 -15.080866 -67.887558 4836.153320
5.080000 5.080000 3.160000 4.992059 -37.187809 1407.853760
5.080000 5.080000 3.200000 0.078627 -16.946121 287.177216
5.080000 5.120000 2.800000 -22.969578 23.416903 1075.952881
5.080000 5.120000 2.840000 -22.759926 33.430439 1635.608398
5.080000 5.120000 2.880000 -40.813118 42.624527 3482.561035
5.080000 5.120000 2.920000 -69.699326 32.296207 5901.041016
5.080000 5.120000 2.960000 -88.030045 -1.897781 7752.890137
5.080000 5.120000 3.000000 -78.996872 -44.295738 8202.618164
5.080000 5.120000 3.040000 -44.878147 -71.816216 7171.617188
5.080000 5.120000 3.080000 -4.372150 -72.362930 5255.509277
5.080000 5.120000 3.120000 23.296289 -52.109543 3258.121582
5.080000 5.120000 3.160000 31.755148 -26.970051 1735.773071
5.080000 5.120000 3.200000 27.429321 -8.713778 828.297607
5.080000 5.160000 2.800000 -26.408596 2.988586 706.345581
5.080000 5.160000 2.840000 -28.600159 -0.165075 817.996277
5.080000 5.160000 2.880000 -31.423824 -8.423756 1058.416382
5.080000 5.160000 2.920000 -29.091984 -20.773945 1277.900269
5.080000 5.160000 2.960000 -19.487822 -32.010704 1404.460327
5.080000 5.160000 3.000000 -5.065895 -37.906448 1462.562134
5.080000 5.160000 3.040000 10.739479 -37.530708 1523.890503
5.080000 5.160000 3.080000 25.990843 -31.094635 1642.400269
5.080000 5.160000 3.120000 38.559036 -17.857546 1805.691284
5.080000 5.160000 3.160000 43.800873 1.804387 1921.772339
5.080000 5.160000 3.200000 36.726536 22.539047 1856.847046
5.080000 5.200000 2.800000 -17.384735 -8.548586 375.307312
5.080000 5.200000 2.840000 -12.346721 -19.576759 535.691040
5.080000 5.200000 2.880000 3.120947 -26.263567 699.515259
5.080000 5.200000 2.920000 21.021351 -19.675842 829.035950
5.080000 5.200000 2.960000 28.672508 -3.119129 831.841675
5.080000 5.200000 3.000000 23.038750 10.094813 632.689270
5.080000 5.200000 3.040000 14.855129 11.289677 348.131653
5.080000 5.200000 3.080000 16.570967 6.830185 321.248352
5.080000 5.200000 3.120000 27.060764 11.350876 861.127319
5.080000 5.200000 3.160000 31.105555 30.152603 1876.735107
5.080000 5.200000 3.200000 15.829345 50.525375 2803.381592
5.120000 4.800000 2.800000 -24.311852 -37.463936 1994.612549
5.120000 4.800000 2.840000 -2.376614 -40.393700 1637.299316
5.120000 4.800000 2.880000 16.655518 -27.647532 1041.792236
5.120000 4.800000 2.920000 22.047855 -6.081784 523.096069
5.120000 4.800000 2.960000 12.458168 11.709278 292.313141
5.120000 4.800000 3.000000 -3.578222 17.523399 319.873199
5.120000 4.800000 3.040000 -15.856928 13.154140 424.473572
5.120000 4.800000 3.080000 -21.091730 6.377392 485.532227
5.120000 4.800000 3.120000 -23.489347 2.092447 556.127808
5.120000 4.800000 3.160000 -27.649872 -1.882147 768.057922
5.120000 4.800000 3.200000 -32.122002 -10.434715 1140.706299
5.120000 4.840000 2.800000 0.038047 -54.126854 2929.717773
5.120000 4.840000 2.840000 19.887859 -51.232727 3020.319092
5.120000 4.840000 2.880000 36.335873 -38.156731 2776.231689
5.120000 4.840000 2.920000 43.855103 -18.046562 2248.948486
5.120000 4.840000 2.960000 39.619255 2.944862 1578.357666
5.120000 4.840000 3.000000 25.045687 17.913311 948.173157
5.120000 4.840000 3.040000 5.517765 22.090603 518.440430
5.120000 4.840000 3.080000 -11.834909 14.967619 364.094696
5.120000 4.840000 3.120000 -21.249107 0.407092 451.690277
5.120000 4.840000 3.160000 -20.747263 -15.375877 666.866516
5.120000 4.840000 3.200000 -12.460508 -26.876623 877.617126
5.120000 4.880000 2.800000 33.672569 -50.329277 3666.877930
5.120000 4.880000 2.840000 50.256241 -44.827698 4535.211914
5.120000 4.880000 2.880000 67.964951 -30.749716 5564.779297
5.120000 4.880000 2.920000 79.051193 -4.421627 6268.642090
5.120000 4.880000 2.960000 72.595657 28.427834 6078.270996
5.120000 4.880000 3.000000 45.509933 52.547440 4832.387695
5.120000 4.880000 3.040000 9.048412 53.939392 2991.331787
5.120000 4.880000 3.080000 -17.467484 32.281208 1347.189453
5.120000 4.880000 3.120000 -21.394987 2.512980 464.060547
5.120000 4.880000 3.160000 -6.420346 -16.974874 329.367218
5.120000 4.880000 3.200000 12.085020 -18.807446 499.767700
5.120000 4.920000 2.800000 58.570961 -23.277554 3972.401855
5.120000 4.920000 2.840000 73.277313 -16.585392 5644.639648
5.120000 4.920000 2.880000 92.066696 3.660862 8489.678711
5.120000 4.920000 2.920000 97.999634 42.141453 11379.831055
5.120000 4.920000 2.960000 74.695724 83.589806 12566.707031
5.120000 4.920000 3.000000 25.931681 101.739815 11023.442383
5.120000 4.920000 3.040000 -22.301947 82.740196 7343.316895
5.120000 4.920000 3.080000 -42.135773 39.770393 3357.107422
5.120000 4.920000 3.120000 -27.742441 2.904378 778.078491
5.120000 4.920000 3.160000 0.801958 -6.904570 48.316216
5.120000 4.920000 3.200000 17.558987 5.669031 340.455933
5.120000 4.960000 2.800000 59.528442 14.658600 3758.510010
5.120000 4.960000 2.840000 72.859390 23.620922 5866.438477
5.120000 4.960000 2.880000 85.853539 52.816330 10160.394531
5.120000 4.960000 2.920000 74.133636 97.779503 15056.626953
5.120000 4.960000 2.960000 27.287891 130.449036 17761.580078
5.120000 4.960000 3.000000 -34.549969 123.118637 16351.899414
5.120000 4.960000 3.040000 -74.297760 76.429688 11361.654297
5.120000 4.960000 3.080000 -70.431351 21.814936 5436.466797
5.120000 4.960000 3.120000 -36.094604 -5.835733 1336.876221
5.120000 4.960000 3.160000 -5.312768 1.417662 30.235268
5.120000 4.960000 3.200000 -0.422885 21.201181 449.668915
5.120000 5.000000 2.800000 35.538536 43.114605 3121.856689
5.120000 5.000000 2.840000 45.330364 55.057190 5086.136230
5.120000 5.000000 2.880000 44.539673 87.620941 9661.211914
5.120000 5.000000 2.920000 11.957972 122.723511 15204.053711
5.120000 5.000000 2.960000 -46.756409 128.225281 18627.884766
5.120000 5.000000 3.000000 -98.017998 89.771332 17666.419922
5.120000 5.000000 3.040000 -109.014923 28.185366 12678.668945
5.120000 5.000000 3.080000 -78.112457 -17.228714 6398.384766
5.120000 5.000000 3.120000 -35.772411 -23.807461 1846.460571
5.120000 5.000000 3.160000 -14.941034 -3.815995 237.796326
5.120000 5.000000 3.200000 -21.245121 11.727781 588.895996
5.120000 5.040000 2.800000 1.273247 47.753193 2281.988525
5.120000 5.040000 2.840000 4.799935 60.273754 3655.964844
5.120000 5.040000 2.880000 -10.187597 84.555275 7253.381836
5.120000 5.040000 2.920000 -51.197884 95.624031 11765.178711
5.120000 5.040000 2.960000 -97.902786 71.622627 14714.755859
5.120000 5.040000 3.000000 -117.985779 18.260284 14254.082031
5.120000 5.040000 3.040000 -97.337830 -33.101128 10570.337891
5.120000 5.040000 3.080000 -53.726208 -53.136379 5709.980469
5.120000 5.040000 3.120000 -19.668823 -40.256882 2007.479248
5.120000 5.040000 3.160000 -12.265825 -18.614738 496.958954
5.120000 5.040000 3.200000 -20.617655 -11.859818 565.742920
5.120000 5.080000 2.800000 -23.350780 30.282383 1462.281738
5.120000 5.080000 2.840000 -25.857670 38.742214 2169.578125
5.120000 5.080000 2.880000 -45.298168 46.375893 4202.647461
5.120000 5.080000 2.920000 -74.719574 34.352432 6763.104492
5.120000 5.080000 2.960000 -92.007935 -1.240459 8466.999023
5.120000 5.080000 3.000000 -80.655869 -42.693588 8328.111328
5.120000 5.080000 3.040000 -46.096054 -65.726357 6444.800293
5.120000 5.080000 3.080000 -10.765791 -61.174011 3858.162109
5.120000 5.080000 3.120000 6.695185 -41.362846 1755.710449
5.120000 5.080000 3.160000 6.598819 -25.842152 711.361206
5.120000 5.080000 3.200000 3.350448 -22.389874 512.531921
5.120000 5.120000 2.800000 -27.588539 6.252182 800.217285
5.120000 5.120000 2.840000 -32.099850 7.477583 1086.314697
5.120000 5.120000 2.880000 -43.034935 0.749674 1852.567627
5.120000 5.120000 2.920000 -49.034100 -18.123543 2732.805908
5.120000 5.120000 2.960000 -40.024109 -40.832199 3269.197754
5.120000 5.120000 3.000000 -17.507610 -53.924370 3214.354004
5.120000 5.120000 3.040000 6.903172 -51.072594 2656.063721
5.120000 5.120000 3.080000 22.380424 -37.517818 1908.470093
5.120000 5.120000 3.120000 27.345110 -23.173512 1284.766724
5.120000 5.120000 3.160000 27.455208 -12.967787 921.951965
5.120000 5.120000 3.200000 27.159470 -4.793720 760.616516
5.120000 5.160000 2.800000 -16.675943 -7.725149 337.765015
5.120000 5.160000 2.840000 -18.228073 -12.958380 500.182251
5.120000 5.160000 2.880000 -14.481475 -23.057961 741.382690
5.120000 5.160000 2.920000 -2.151617 -30.409706 929.379700
5.120000 5.160000 2.960000 13.209034 -28.372562 979.480896
5.120000 5.160000 3.000000 23.274101 -18.620573 888.409546
5.120000 5.160000 3.040000 25.886375 -8.619199 744.395020
5.120000 5.160000 3.080000 26.230476 -2.547825 694.529297
5.120000 5.160000 3.120000 28.958738 3.084965 848.125549
5.120000 5.160000 3.160000 31.224194 13.673903 1161.925903
5.120000 5.160000 3.200000 25.641598 27.625044 1420.634521
5.120000 5.200000 2.800000 -5.605221 -6.765884 77.195694
5.120000 5.200000 2.840000 -1.645473 -14.890942 224.447723
5.120000 5.200000 2.880000 12.616386 -17.918953 480.262085
5.120000 5.200000 2.920000 27.389414 -7.290758 803.335144
5.120000 5.200000 2.960000 29.828398 11.599588 1024.283813
5.120000 5.200000 3.000000 18.852036 24.357998 948.711304
5.120000 5.200000 3.040000 6.908745 23.558535 602.735352
5.120000 5.200000 3.080000 5.857956 17.301870 333.670349
5.120000 5.200000 3.120000 12.885008 19.733664 555.440918
5.120000 5.200000 3.160000 13.244910 33.800087 1317.873535
5.120000 5.200000 3.200000 -2.407825 46.224594 2142.510742
5.160000 4.800000 2.800000 -16.502022 -37.455429 1675.225830
5.160000 4.800000 2.840000 4.730245 -35.936207 1313.786255
5.160000 4.800000 2.880000 19.606260 -19.068533 748.014404
5.160000 4.800000 2.920000 18.127398 3.089270 338.146118
5.160000 4.800000 2.960000 2.471597 16.397064 274.972504
5.160000 4.800000 3.000000 -15.126446 14.632608 442.922607
5.160000 4.800000 3.040000 -23.703577 3.820636 576.456787
5.160000 4.800000 3.080000 -22.740753 -5.185836 544.034729
5.160000 4.800000 3.120000 -20.177662 -7.874343 469.143311
5.160000 4.800000 3.160000 -22.071903 -9.290668 573.485413
5.160000 4.800000 3.200000 -25.373650 -16.501278 916.114258
5.160000 4.840000 2.800000 13.593187 -47.648232 2455.128662
5.160000 4.840000 2.840000 33.400421 -34.205696 2285.617676
5.160000 4.840000 2.880000 39.920174 -10.742519 1709.021973
5.160000 4.840000 2.920000 30.207817 10.336138 1019.347961
5.160000 4.840000 2.960000 11.420946 19.200363 499.091919
5.160000 4.840000 3.000000 -5.524490 15.030634 256.439941
5.160000 4.840000 3.040000 -14.242398 4.424027 222.417923
5.160000 4.840000 3.080000 -15.689317 -5.675914 278.370667
5.160000 4.840000 3.120000 -14.030582 -13.221320 371.660522
5.160000 4.840000 3.160000 -10.999884 -19.971979 519.877380
5.160000 4.840000 3.200000 -4.780891 -26.588173 729.787903
5.160000 4.880000 2.800000 46.045723 -31.706886 3125.535156
5.160000 4.880000 2.840000 55.922661 -9.616227 3219.815918
5.160000 4.880000 2.880000 51.393562 13.928608 2835.304443
5.160000 4.880000 2.920000 35.318230 30.010298 2147.995361
5.160000 4.880000 2.960000 14.906559 34.204800 1392.173828
5.160000 4.880000 3.000000 -2.459328 27.420652 757.940430
5.160000 4.880000 3.040000 -12.073814 14.067442 343.669922
5.160000 4.880000 3.080000 -12.700256 -0.354308 161.422043
5.160000 4.880000 3.120000 -6.099331 -11.163116 161.817001
5.160000 4.880000 3.160000 4.044236 -15.744715 264.251892
5.160000 4.880000 3.200000 13.726079 -14.122262 387.843506
5.160000 4.920000 2.800000 58.959362 4.991013 3501.116455
5.160000 4.920000 2.840000 55.311905 27.038679 3790.496826
5.160000 4.920000 2.880000 41.884785 44.275475 3714.652832
5.160000 4.920000 2.920000 22.351627 53.208450 3330.734375
5.160000 4.920000 2.960000 1.096806 51.740204 2678.251465
5.160000 4.920000 3.000000 -16.045324 39.677166 1831.729858
5.160000 4.920000 3.040000 -22.974672 20.954609 966.931213
5.160000 4.920000 3.080000 -17.452225 3.738224 318.554443
5.160000 4.920000 3.120000 -4.181575 -4.090700 34.219398
5.160000 4.920000 3.160000 7.689066 -0.942362 60.009789
5.160000 4.920000 3.200000 11.666344 7.231896 188.403900
5.160000 4.960000 2.800000 42.250656 40.907536 3458.544434
5.160000 4.960000 2.840000 28.755169 54.455544 3792.266113
5.160000 4.960000 2.880000 11.627532 62.021587 3981.876709
5.160000 4.960000 2.920000 -8.175188 62.705414 3998.802734
5.160000 4.960000 2.960000 -27.739193 53.665810 3649.481934
5.160000 4.960000 3.000000 -40.014759 34.746704 2808.514404
5.160000 4.960000 3.040000 -38.547737 12.911777 1652.641968
5.160000 4.960000 3.080000 -24.892460 -0.789865 620.258484
5.160000 4.960000 3.120000 -9.533201 -0.502173 91.134102
5.160000 4.960000 3.160000 -3.350552 8.486167 83.241226
5.160000 4.960000 3.200000 -7.619863 14.597916 271.161438
5.160000 5.000000 2.800000 6.568551 54.274509 2988.868164
5.160000 5.000000 2.840000 -8.775980 56.295815 3246.236572
5.160000 5.000000 2.880000 -24.108896 54.460560 3547.191406
5.160000 5.000000 2.920000 -40.182751 46.838276 3808.477539
5.160000 5.000000 2.960000 -52.708054 30.480038 3707.171631
5.160000 5.000000 3.000000 -54.168594 8.517876 3006.790771
5.160000 5.000000 3.040000 -42.278069 -8.896025 1866.574341
5.160000 5.000000 3.080000 -24.972195 -12.973823 791.930603
5.160000 5.000000 3.120000 -14.586848 -5.495191 242.973267
5.160000 5.000000 3.160000 -16.101059 2.123426 263.753052
5.160000 5.000000 3.200000 -22.136389 0.207169 490.062622
5.160000 5.040000 2.800000 -24.764635 39.965321 2210.513916
5.160000 5.040000 2.840000 -35.252567 33.664360 2376.032715
5.160000 5.040000 2.880000 -44.865974 25.188576 2647.419922
5.160000 5.040000 2.920000 -52.637714 11.662721 2906.748047
5.160000 5.040000 2.960000 -53.062752 -6.625624 2859.554443
5.160000 5.040000 3.000000 -42.528854 -22.719231 2324.866943
5.160000 5.040000 3.040000 -25.677448 -28.282562 1459.234619
5.160000 5.040000 3.080000 -12.990438 -22.524395 676.099854
5.160000 5.040000 3.120000 -10.888099 -14.177483 319.551697
5.160000 5.040000 3.160000 -14.966749 -13.087152 395.277161
5.160000 5.040000 3.200000 -14.538034 -19.820049 604.188782
5.160000 5.080000 2.800000 -34.280140 12.614428 1334.251831
5.160000 5.080000 2.840000 -38.188843 3.669109 1471.850098
5.160000 5.080000 2.880000 -40.255043 -7.636575 1678.785767
5.160000 5.080000 2.920000 -36.913162 -21.343391 1818.121826
5.160000 5.080000 2.960000 -25.654358 -32.484943 1713.417725
5.160000 5.080000 3.000000 -10.127924 -34.872898 1318.693848
5.160000 5.080000 3.040000 1.441327 -28.063654 789.646118
5.160000 5.080000 3.080000 3.975210 -19.128574 381.704651
5.160000 5.080000 3.120000 0.986724 -16.090250 259.869781
5.160000 5.080000 3.160000 1.150396 -19.606510 385.738678
5.160000 5.080000 3.200000 8.936643 -22.124706 569.366211
5.160000 5.120000 2.800000 -23.297073 -6.702393 587.675659
5.160000 5.120000 2.840000 -22.998278 -14.817831 748.488892
5.160000 5.120000 2.880000 -17.625631 -25.119036 941.628784
5.160000 5.120000 2.920000 -4.972965 -31.900669 1042.383057
5.160000 5.120000 2.960000 10.163064 -29.226017 957.447998
5.160000 5.120000 3.000000 19.172676 -18.152390 697.100769
5.160000 5.120000 3.040000 18.168098 -7.008049 379.192535
5.160000 5.120000 3.080000 12.385603 -3.447062 165.285400
5.160000 5.120000 3.120000 10.899322 -6.551003 161.710861
5.160000 5.120000 3.160000 16.928276 -7.913615 349.191833
5.160000 5.120000 3.200000 24.282625 -0.892795 590.442932
5.160000 5.160000 2.800000 -8.209068 -8.155699 133.904221
5.160000 5.160000 2.840000 -6.206715 -15.729303 285.934296
5.160000 5.160000 2.880000 4.856510 -21.886738 502.614990
5.160000 5.160000 2.920000 20.247957 -17.461700 714.890747
5.160000 5.160000 2.960000 28.481113 -2.327414 816.590698
5.160000 5.160000 3.000000 23.454531 12.902577 716.591492
5.160000 5.160000 3.040000 11.577696 17.483324 439.709656
5.160000 5.160000 3.080000 5.246812 11.972977 170.881210
5.160000 5.160000 3.120000 9.427830 7.451243 144.404999
5.160000 5.160000 3.160000 16.344856 13.038069 437.145569
5.160000 5.160000 3.200000 14.409556 25.526295 859.227051
5.160000 5.200000 2.800000 -4.289587 0.551075 18.704241
5.160000 5.200000 2.840000 -0.233448 -8.138090 66.283005
5.160000 5.200000 2.880000 13.653130 -8.334275 255.868088
5.160000 5.200000 2.920000 24.076641 5.762454 612.890503
5.160000 5.200000 2.960000 19.288738 24.376478 966.268127
5.160000 5.200000 3.000000 2.620368 32.123016 1038.754517
5.160000 5.200000 3.040000 -10.679935 24.836485 730.911987
5.160000 5.200000 3.080000 -10.212294 14.093600 302.920502
5.160000 5.200000 3.120000 -1.847481 13.965049 198.435760
5.160000 5.200000 3.160000 -0.685093 24.883390 619.652466
5.160000 5.200000 3.200000 -13.336864 33.119602 1274.780029
5.200000 4.800000 2.800000 -11.510756 -36.573715 1470.134033
5.200000 4.800000 2.840000 6.377188 -31.621113 1040.563354
5.200000 4.800000 2.880000 15.225001 -14.544773 443.351074
5.200000 4.800000 2.920000 8.643839 2.954585 83.445518
5.200000 4.800000 2.960000 -7.410290 8.919137 134.463394
5.200000 4.800000 3.000000 -20.211866 1.656402 411.263184
5.200000 4.800000 3.040000 -22.145508 -9.778980 586.052002
5.200000 4.800000 3.080000 -16.833748 -15.508801 523.897949
5.200000 4.800000 3.120000 -13.456638 -14.636511 395.308563
5.200000 4.800000 3.160000 -15.748075 -14.686621 463.698700
5.200000 4.800000 3.200000 -17.712067 -21.634499 781.768860
5.200000 4.840000 2.800000 19.657389 -37.843224 1818.522583
5.200000 4.840000 2.840000 31.014843 -18.368555 1299.324219
5.200000 4.840000 2.880000 24.732996 2.769385 619.390564
5.200000 4.840000 2.920000 6.509710 11.774222 181.008636
5.200000 4.840000 2.960000 -9.928116 5.347942 127.167969
5.200000 4.840000 3.000000 -14.976360 -8.041509 288.957214
5.200000 4.840000 3.040000 -10.195137 -17.400986 406.735138
5.200000 4.840000 3.080000 -4.116302 -19.254993 387.698700
5.200000 4.840000 3.120000 -2.229984 -18.711006 355.074585
5.200000 4.840000 3.160000 -1.807733 -21.606426 470.105560
5.200000 4.840000 3.200000 3.539109 -26.833254 732.548767
5.200000 4.880000 2.800000 44.085114 -13.102552 2115.174072
5.200000 4.880000 2.840000 37.829407 11.797703 1570.249756
5.200000 4.880000 2.880000 16.720695 23.374348 825.941772
5.200000 4.880000 2.920000 -3.379126 16.573689 286.105652
5.200000 4.880000 2.960000 -10.328063 0.455213 106.876106
5.200000 4.880000 3.000000 -4.578718 -11.769993 159.497391
5.200000 4.880000 3.040000 4.422839 -14.394050 226.750168
5.200000 4.880000 3.080000 8.962762 -11.679520 216.742279
5.200000 4.880000 3.120000 9.535601 -10.494787 201.068237
5.200000 4.880000 3.160000 11.661010 -12.193865 284.669495
5.200000 4.880000 3.200000 17.985954 -11.999093 467.472778
5.200000 4.920000 2.800000 42.476257 23.784481 2369.934082
5.200000 4.920000 2.840000 18.756855 38.677914 1847.800537
5.200000 4.920000 2.880000 -5.975153 31.759212 1044.350098
5.200000 4.920000 2.920000 -15.691315 11.882687 387.415588
5.200000 4.920000 2.960000 -8.583432 -4.578691 94.639717
5.200000 4.920000 3.000000 4.576382 -8.319198 90.152328
5.200000 4.920000 3.040000 12.432327 -2.566581 161.150101
5.200000 4.920000 3.080000 12.510026 3.630860 169.683899
5.200000 4.920000 3.120000 10.077868 5.351636 130.203430
5.200000 4.920000 3.160000 10.164824 4.858232 126.926071
5.200000 4.920000 3.200000 12.294716 6.612945 194.891068
5.200000 4.960000 2.800000 14.216243 48.063099 2512.163086
5.200000 4.960000 2.840000 -14.612991 42.959515 2059.059326
5.200000 4.960000 2.880000 -28.818985 20.248199 1240.523438
5.200000 4.960000 2.920000 -22.161757 -1.906654 494.778778
5.200000 4.960000 2.960000 -4.667758 -9.364192 109.476067
5.200000 4.960000 3.000000 8.564575 -2.101704 77.769112
5.200000 4.960000 3.040000 10.273541 9.528177 196.331818
5.200000 4.960000 3.080000 4.038275 16.022972 273.043274
5.200000 4.960000 3.120000 -2.568799 15.649160 251.494949
5.200000 4.960000 3.160000 -5.561082 12.349428 183.434006
5.200000 4.960000 3.200000 -5.787150 9.745464 128.465179
5.200000 5.000000 2.800000 -21.126087 44.227081 2402.346191
5.200000 5.000000 2.840000 -39.796745 22.172352 2075.394043
5.200000 5.000000 2.880000 -36.533897 -4.439753 1354.437134
5.200000 5.000000 2.920000 -17.149710 -17.978199 617.328186
5.200000 5.000000 2.960000 2.292161 -12.947168 172.883163
5.200000 5.000000 3.000000 9.286398 2.321317 91.625702
5.200000 5.000000 3.040000 2.899266 14.965660 232.376724
5.200000 5.000000 3.080000 -8.991581 17.736746 395.440674
5.200000 5.000000 3.120000 -17.861343 11.766338 457.474304
5.200000 5.000000 3.160000 -19.903885 2.560890 402.722809
5.200000 5.000000 3.200000 -15.884951 -4.796071 275.333954
5.200000 5.040000 2.800000 -40.017906 18.631863 1948.579102
5.200000 5.040000 2.840000 -41.714523 -7.632688 1798.359375
5.200000 5.040000 2.880000 -24.930038 -26.363703 1316.551636
5.200000 5.040000 2.920000 -1.931940 -27.093361 737.782593
5.200000 5.040000 2.960000 12.313041 -12.450593 306.628235
5.200000 5.040000 3.000000 10.774113 5.465189 145.949799
5.200000 5.040000 3.040000 -2.406588 14.682530 221.368378
5.200000 5.040000 3.080000 -16.756382 10.857342 398.658203
5.200000 5.040000 3.120000 -23.098293 -1.746282 536.580627
5.200000 5.040000 3.160000 -18.508730 -14.541041 554.014954
5.200000 5.040000 3.200000 -6.646099 -20.109840 448.576294
5.200000 5.080000 2.800000 -34.398369 -7.109198 1233.788452
5.200000 5.080000 2.840000 -24.176920 -26.016121 1261.362061
5.200000 5.080000 2.880000 -3.542685 -32.912193 1095.763184
5.200000 5.080000 2.920000 15.545329 -23.743803 805.425415
5.200000 5.080000 2.960000 21.917818 -4.791408 503.348328
5.200000 5.080000 3.000000 12.834736 11.401530 294.725342
5.200000 5.080000 3.040000 -4.152097 14.596291 230.291611
5.200000 5.080000 3.080000 -16.570652 3.837797 289.315216
5.200000 5.080000 3.120000 -15.838059 -12.188780 399.410492
5.200000 5.080000 3.160000 -3.084687 -21.695320 480.202209
5.200000 5.080000 3.200000 12.263239 -18.283403 484.669861
5.200000 5.120000 2.800000 -16.564224 -15.670145 519.927002
5.200000 5.120000 2.840000 -4.516816 -25.057180 648.263916
5.200000 5.120000 2.880000 12.891190 -23.958200 740.178101
5.200000 5.120000 2.920000 25.693581 -10.171410 763.617676
5.200000 5.120000 2.960000 24.765278 9.042305 695.082275
5.200000 5.120000 3.000000 10.178301 20.870815 539.188721
5.200000 5.120000 3.040000 -7.205001 17.126778 345.238556
5.200000 5.120000 3.080000 -13.900011 1.788777 196.410034
5.200000 5.120000 3.120000 -5.204516 -11.769613 165.610794
5.200000 5.120000 3.160000 10.765911 -12.114435 262.664368
5.200000 5.120000 3.200000 20.430696 0.619267 417.796844
5.200000 5.160000 2.800000 -5.669758 -8.098017 97.724030
5.200000 5.160000 2.840000 2.820181 -13.808685 198.633209
5.200000 5.160000 2.880000 16.339582 -10.165377 370.316833
5.200000 5.160000 2.920000 23.876638 4.958496 594.680542
5.200000 5.160000 2.960000 16.851240 22.052023 770.255981
5.200000 5.160000 3.000000 -0.884218 27.601576 762.628845
5.200000 5.160000 3.040000 -15.056349 17.443899 530.983276
5.200000 5.160000 3.080000 -14.278192 1.741984 206.901276
5.200000 5.160000 3.120000 -1.256166 -4.452693 21.404423
5.200000 5.160000 3.160000 9.978298 4.202615 117.228409
5.200000 5.160000 3.200000 8.098762 18.684168 414.688049
5.200000 5.200000 2.800000 -9.490423 0.235860 90.123764
5.200000 5.200000 2.840000 -1.918308 -7.304184 57.031010
5.200000 5.200000 2.880000 10.480747 -2.755507 117.438881
5.200000 5.200000 2.920000 13.661846 12.727220 348.628174
5.200000 5.200000 2.960000 1.800925 25.512642 654.138245
5.200000 5.200000 3.000000 -15.587878 23.586498 799.304810
5.200000 5.200000 3.040000 -23.194241 9.578787 629.725952
5.200000 5.200000 3.080000 -16.076563 -1.870419 261.954346
5.200000 5.200000 3.120000 -4.664643 0.237097 21.815113
5.200000 5.200000 3.160000 -3.107171 11.797198 148.828400
5.200000 5.200000 3.200000 -14.025467 18.826229 551.140625
