#kx 	ky 	kz 	real 	imag 	intensity
4.800000 4.800000 2.983333 -29.552404 -81.064888 7444.860840
4.800000 4.800000 2.991667 8.572603 -27.419079 825.295410
4.800000 4.800000 3.000000 -25.548710 -35.153229 1888.486084
4.800000 4.800000 3.008333 -16.890091 -111.432259 12702.423828
4.800000 4.800000 3.016667 125.428879 -59.138939 19229.816406
4.800000 4.900000 2.983333 -51.314552 -13.646969 2819.423096
4.800000 4.900000 2.991667 18.831318 -29.780989 1241.525879
4.800000 4.900000 3.000000 12.338253 4.712170 174.437027
4.800000 4.900000 3.008333 1.912918 -21.093361 448.589111
4.800000 4.900000 3.016667 51.300079 -25.164085 3264.929443
4.800000 5.000000 2.983333 -24.172054 -118.051094 14520.348633
4.800000 5.000000 2.991667 127.526154 -48.754822 18639.953125
4.800000 5.000000 3.000000 18.170860 110.202240 12474.714844
4.800000 5.000000 3.008333 -30.512688 -72.908394 6246.657715
4.800000 5.000000 3.016667 140.799622 77.015686 25755.949219
4.800000 5.100000 2.983333 41.966431 -37.065636 3135.042480
4.800000 5.100000 2.991667 141.800781 162.589508 46542.808594
4.800000 5.100000 3.000000 -207.298828 99.372139 52847.625000
4.800000 5.100000 3.008333 41.530228 -52.298161 4459.857422
4.800000 5.100000 3.016667 -171.190414 111.109810 41651.546875
4.800000 5.200000 2.983333 7.744797 -51.243202 2685.847656
4.800000 5.200000 2.991667 -69.054337 164.367752 31785.259766
4.800000 5.200000 3.000000 -127.000793 -152.648071 39430.632812
4.800000 5.200000 3.008333 20.221657 -0.225800 408.966400
4.800000 5.200000 3.016667 -21.047878 -211.042206 44981.824219
4.900000 4.800000 2.983333 -56.220623 19.313705 3533.777832
4.900000 4.800000 2.991667 -1.905788 -173.535980 30118.369141
4.900000 4.800000 3.000000 65.607040 57.305313 7588.182617
4.900000 4.800000 3.008333 -43.210960 -130.709900 18952.265625
4.900000 4.800000 3.016667 169.109924 38.130810 30052.125000
4.900000 4.900000 2.983333 263.139130 -791.624878 695912.125000
4.900000 4.900000 2.991667 127.250366 377.722046 158866.593750
4.900000 4.900000 3.000000 -476.085571 -296.748474 314717.125000
4.900000 4.900000 3.008333 -50.933601 -489.880707 242577.343750
4.900000 4.900000 3.016667 315.325287 -609.960693 471482.093750
4.900000 5.000000 2.983333 1210.400146 221.282043 1514034.250000
4.900000 5.000000 2.991667 -538.836853 181.175003 323169.531250
4.900000 5.000000 3.000000 339.194885 -678.844543 575883.062500
4.900000 5.000000 3.008333 595.028381 -337.677856 468085.125000
4.900000 5.000000 3.016667 1155.856934 311.929108 1433305.000000
4.900000 5.100000 2.983333 65.005264 729.321411 536135.437500
4.900000 5.100000 2.991667 -200.854065 -184.879272 74522.703125
4.900000 5.100000 3.000000 316.225403 66.031822 104358.710938
4.900000 5.100000 3.008333 317.310211 250.960938 163667.156250
4.900000 5.100000 3.016667 -67.161743 738.588196 550023.187500
4.900000 5.200000 2.983333 77.347115 172.025528 35575.359375
4.900000 5.200000 2.991667 -257.766937 -35.172798 67680.921875
4.900000 5.200000 3.000000 89.122803 -175.416672 38713.882812
4.900000 5.200000 3.008333 37.364014 28.993504 2236.692627
4.900000 5.200000 3.016667 62.113800 -15.360115 4094.057373
5.000000 4.800000 2.983333 -92.770370 -141.721207 28691.242188
5.000000 4.800000 2.991667 221.866211 -96.688232 58573.230469
5.000000 4.800000 3.000000 -32.492073 75.829918 6805.911133
5.000000 4.800000 3.008333 101.135445 -172.482925 39978.738281
5.000000 4.800000 3.016667 164.976135 120.628479 41768.355469
5.000000 4.900000 2.983333 1266.415527 200.873886 1644158.625000
5.000000 4.900000 2.991667 -526.919800 245.791626 338058.000000
5.000000 4.900000 3.000000 378.368896 -782.434692 755367.062500
5.000000 4.900000 3.008333 752.589783 -224.882385 616963.437500
5.000000 4.900000 3.016667 1091.537354 365.173706 1324805.625000
5.000000 5.000000 2.983333 -99.878082 1839.012451 3391942.500000
5.000000 5.000000 2.991667 -348.513062 -848.692139 841739.750000
5.000000 5.000000 3.000000 1179.660522 427.313873 1574196.125000
5.000000 5.000000 3.008333 596.400452 803.386536 1001123.437500
5.000000 5.000000 3.016667 -76.549088 1836.218506 3377558.250000
5.000000 5.100000 2.983333 -1082.688599 201.035721 1212630.000000
5.000000 5.100000 2.991667 395.045471 -292.574188 241660.578125
5.000000 5.100000 3.000000 -142.826157 624.402893 410278.281250
5.000000 5.100000 3.008333 -286.067993 458.767426 292302.437500
5.000000 5.100000 3.016667 -1191.087036 191.238541 1455260.500000
5.000000 5.200000 2.983333 -209.455734 106.557045 55226.109375
5.000000 5.200000 2.991667 -11.203140 -223.036697 49870.878906
5.000000 5.200000 3.000000 180.392700 -10.027439 32642.074219
5.000000 5.200000 3.008333 12.773628 89.110664 8103.875977
5.000000 5.200000 3.016667 15.205822 -64.869659 4439.289551
5.100000 4.800000 2.983333 85.738899 -87.199959 14954.992188
5.100000 4.800000 2.991667 106.673416 88.326065 19180.710938
5.100000 4.800000 3.000000 -62.043724 76.336731 9676.719727
5.100000 4.800000 3.008333 75.348724 -64.131775 9790.314453
5.100000 4.800000 3.016667 76.572502 198.486343 45260.175781
5.100000 4.900000 2.983333 -26.792240 859.812866 739996.000000
5.100000 4.900000 2.991667 -199.112671 -333.872345 151116.593750
5.100000 4.900000 3.000000 508.685852 158.220825 283795.125000
5.100000 4.900000 3.008333 283.454041 435.411011 269928.937500
5.100000 4.900000 3.016667 -170.596252 808.071289 682082.250000
5.100000 5.000000 2.983333 -1221.298218 51.586334 1494230.500000
5.100000 5.000000 2.991667 525.667908 -362.207825 407521.250000
5.100000 5.000000 3.000000 -125.296494 787.416382 635723.750000
5.100000 5.000000 3.008333 -451.282501 437.385437 394961.906250
5.100000 5.000000 3.016667 -1123.807129 111.209404 1275310.000000
5.100000 5.100000 2.983333 -163.145676 -716.722046 540307.000000
5.100000 5.100000 2.991667 287.679291 207.839310 125956.554688
5.100000 5.100000 3.000000 -363.517914 -21.698851 132616.125000
5.100000 5.100000 3.008333 -251.585495 -134.074585 81271.257812
5.100000 5.100000 3.016667 -187.928345 -664.301758 476613.875000
5.100000 5.200000 2.983333 -30.476841 -79.737755 7286.947266
5.100000 5.200000 2.991667 142.650131 -5.270967 20376.843750
5.100000 5.200000 3.000000 67.451645 180.972778 37300.871094
5.100000 5.200000 3.008333 -84.961365 65.519814 11511.279297
5.100000 5.200000 3.016667 59.303711 71.815247 8674.359375
5.200000 4.800000 2.983333 24.718296 6.883144 658.371826
5.200000 4.800000 2.991667 33.161613 2.881603 1107.996216
5.200000 4.800000 3.000000 -98.983078 -43.925941 11727.137695
5.200000 4.800000 3.008333 155.484726 -98.369392 33852.039062
5.200000 4.800000 3.016667 -23.750660 168.469940 28946.214844
5.200000 4.900000 2.983333 -88.660522 -60.041763 11465.702148
5.200000 4.900000 2.991667 89.621948 -18.190292 8362.980469
5.200000 4.900000 3.000000 42.132538 -0.542135 1775.444702
5.200000 4.900000 3.008333 46.172920 120.243141 16590.351562
5.200000 4.900000 3.016667 -110.782249 -27.348400 13020.641602
5.200000 5.000000 2.983333 112.168701 -150.664856 35281.714844
5.200000 5.000000 2.991667 127.911018 41.468510 18080.865234
5.200000 5.000000 3.000000 18.525108 60.860855 4047.223389
5.200000 5.000000 3.008333 -2.522354 -1.461189 8.497345
5.200000 5.000000 3.016667 76.477386 28.575916 6665.373535
5.200000 5.100000 2.983333 142.912170 84.518517 27567.267578
5.200000 5.100000 2.991667 88.233284 119.260681 22008.222656
5.200000 5.100000 3.000000 -2.057800 133.157486 17735.150391
5.200000 5.100000 3.008333 5.685242 84.222908 7125.819824
5.200000 5.100000 3.016667 -63.473007 143.759644 24695.658203
5.200000 5.200000 2.983333 -28.309536 104.595650 11741.679688
5.200000 5.200000 2.991667 -26.513309 94.120804 9561.681641
5.200000 5.200000 3.000000 -159.717712 75.759422 31249.238281
5.200000 5.200000 3.008333 -68.746101 -33.596943 5854.780762
5.200000 5.200000 3.016667 -133.035889 15.182644 17929.058594
