#kx 	ky 	kz 	real 	imag 	intensity
0.800000 4.800000 4.800000 0.869216 -8.929993 80.500305
0.800000 4.800000 4.840000 -2.527768 -2.724809 13.814196
0.800000 4.800000 4.880000 -10.570310 -4.511061 132.081116
0.800000 4.800000 4.920000 -13.377484 -15.395165 415.968201
0.800000 4.800000 4.960000 -4.127945 -26.918686 741.655579
0.800000 4.800000 5.000000 13.606842 -27.877041 962.275513
0.800000 4.800000 5.040000 27.935804 -14.701540 996.544434
0.800000 4.800000 5.080000 28.907619 4.741566 858.132874
0.800000 4.800000 5.120000 17.254627 18.028500 622.748962
0.800000 4.800000 5.160000 2.989172 19.184498 376.980103
0.800000 4.800000 5.200000 -4.626739 12.874743 187.165695
0.800000 4.840000 4.800000 0.556794 -9.659510 93.616150
0.800000 4.840000 4.840000 -3.783364 -5.191216 41.262566
0.800000 4.840000 4.880000 -10.392944 -9.281134 194.152740
0.800000 4.840000 4.920000 -9.331917 -20.253796 497.300903
0.800000 4.840000 4.960000 3.263171 -27.581268 771.374695
0.800000 4.840000 5.000000 19.636299 -21.652340 854.408081
0.800000 4.840000 5.040000 26.612978 -4.074822 724.854797
0.800000 4.840000 5.080000 18.227758 12.671383 492.815125
0.800000 4.840000 5.120000 1.874105 16.815731 286.281067
0.800000 4.840000 5.160000 -8.978561 8.489680 152.689240
0.800000 4.840000 5.200000 -8.125186 -1.272008 67.636650
0.800000 4.880000 4.800000 3.608598 -14.287801 217.163223
0.800000 4.880000 4.840000 0.125271 -10.976589 120.501205
0.800000 4.880000 4.880000 -3.763406 -15.317804 248.798355
0.800000 4.880000 4.920000 0.247634 -23.475977 551.182861
0.800000 4.880000 4.960000 12.471110 -25.434477 802.441162
0.800000 4.880000 5.000000 23.436527 -15.764969 797.805054
0.800000 4.880000 5.040000 23.134027 -0.464171 535.398682
0.800000 4.880000 5.080000 11.820903 8.341389 209.312515
0.800000 4.880000 5.120000 0.288254 4.870438 23.804253
0.800000 4.880000 5.160000 -1.402395 -4.208418 19.677494
0.800000 4.880000 5.200000 5.308561 -7.208384 80.141609
0.800000 4.920000 4.800000 13.818410 -16.019451 447.571259
0.800000 4.920000 4.840000 11.030931 -11.804813 261.035034
0.800000 4.920000 4.880000 8.399052 -14.243586 273.423798
0.800000 4.920000 4.920000 12.208798 -18.798195 502.426880
0.800000 4.920000 4.960000 20.908901 -17.755451 752.438232
0.800000 4.920000 5.000000 26.679565 -9.193861 796.326294
0.800000 4.920000 5.040000 24.311550 0.596257 591.406982
0.800000 4.920000 5.080000 17.220291 4.250754 314.607330
0.800000 4.920000 5.120000 13.340794 1.891220 181.553482
0.800000 4.920000 5.160000 15.450220 0.864073 239.455933
0.800000 4.920000 5.200000 17.360628 6.450972 343.006470
0.800000 4.960000 4.800000 25.742085 -7.385524 717.200867
0.800000 4.960000 4.840000 21.169510 -1.635791 450.823975
0.800000 4.960000 4.880000 16.950670 -2.638235 294.285522
0.800000 4.960000 4.920000 18.195450 -5.999048 367.062988
0.800000 4.960000 4.960000 23.611727 -5.794860 591.093994
0.800000 4.960000 5.000000 28.079401 -0.579460 788.788513
0.800000 4.960000 5.040000 28.585789 6.416624 858.320374
0.800000 4.960000 5.080000 26.418461 12.182400 846.345947
0.800000 4.960000 5.120000 23.599518 17.234650 853.970398
0.800000 4.960000 5.160000 18.891533 23.156652 893.120544
0.800000 4.960000 5.200000 9.272842 27.825350 860.235718
0.800000 5.000000 4.800000 28.791592 10.429741 937.735229
0.800000 5.000000 4.840000 20.285269 15.295667 645.449524
0.800000 5.000000 4.880000 13.469741 12.610367 340.455261
0.800000 5.000000 4.920000 13.121202 7.056500 221.960114
0.800000 5.000000 4.960000 18.616238 4.718557 368.829071
0.800000 5.000000 5.000000 25.419950 8.809778 723.786072
0.800000 5.000000 5.040000 28.555351 18.480862 1156.950317
0.800000 5.000000 5.080000 24.992416 30.197334 1536.499878
0.800000 5.000000 5.120000 14.221236 39.389950 1753.811646
0.800000 5.000000 5.160000 -1.518137 41.542770 1728.106445
0.800000 5.000000 5.200000 -16.967070 33.814320 1431.289673
0.800000 5.040000 4.800000 17.795570 26.999256 1045.642090
0.800000 5.040000 4.840000 6.335367 27.245525 782.455566
0.800000 5.040000 4.880000 -0.631993 20.059309 402.775299
0.800000 5.040000 4.920000 1.091595 11.399571 131.141800
0.800000 5.040000 4.960000 9.857883 8.710011 173.042145
0.800000 5.040000 5.000000 18.632660 16.033587 604.251953
0.800000 5.040000 5.040000 19.104858 30.729702 1309.310181
0.800000 5.040000 5.080000 7.262027 44.278351 2013.309448
0.800000 5.040000 5.120000 -13.142603 47.269493 2407.133057
0.800000 5.040000 5.160000 -32.085068 35.747654 2307.346191
0.800000 5.040000 5.200000 -39.354454 14.478221 1758.391968
0.800000 5.080000 4.800000 -1.373146 31.901783 1019.609314
0.800000 5.080000 4.840000 -11.885872 25.898075 811.984253
0.800000 5.080000 4.880000 -14.937160 14.630571 437.172363
0.800000 5.080000 4.920000 -8.191089 5.693303 99.507629
0.800000 5.080000 4.960000 3.503038 6.812813 58.685699
0.800000 5.080000 5.000000 9.847366 19.349909 471.389587
0.800000 5.080000 5.040000 2.367695 35.269867 1249.569458
0.800000 5.080000 5.080000 -17.884323 41.704124 2059.083008
0.800000 5.080000 5.120000 -39.330467 30.807102 2495.963135
0.800000 5.080000 5.160000 -47.827530 6.870211 2334.672363
0.800000 5.080000 5.200000 -37.616852 -16.016396 1671.552490
0.800000 5.120000 4.800000 -17.232916 24.119276 878.712891
0.800000 5.120000 4.840000 -23.102657 13.819222 724.703735
0.800000 5.120000 4.880000 -20.019962 2.043242 404.973724
0.800000 5.120000 4.920000 -8.918278 -2.914942 88.032562
0.800000 5.120000 4.960000 1.677937 4.159400 20.116076
0.800000 5.120000 5.000000 0.989816 18.959711 360.450378
0.800000 5.120000 5.040000 -14.304916 28.753380 1031.387451
0.800000 5.120000 5.080000 -35.003139 22.233541 1719.550049
0.800000 5.120000 5.120000 -45.359829 0.165359 2057.541504
0.800000 5.120000 5.160000 -36.136566 -23.616072 1863.570312
0.800000 5.120000 5.200000 -13.090423 -32.999229 1260.308228
0.800000 5.160000 4.800000 -23.326597 11.778238 682.857056
0.800000 5.160000 4.840000 -23.784346 0.751451 566.259766
0.800000 5.160000 4.880000 -15.843050 -7.814610 312.070374
0.800000 5.160000 4.920000 -4.195020 -6.772892 63.470264
0.800000 5.160000 4.960000 0.955592 4.073732 17.508448
0.800000 5.160000 5.000000 -7.153446 15.097472 279.105469
0.800000 5.160000 5.040000 -23.794886 13.942175 760.580811
0.800000 5.160000 5.080000 -34.768723 -2.692591 1216.114014
0.800000 5.160000 5.120000 -28.520420 -24.169270 1397.567871
0.800000 5.160000 5.160000 -7.380611 -34.061661 1214.670166
0.800000 5.160000 5.200000 13.349915 -24.694899 788.058228
0.800000 5.200000 4.800000 -22.803495 3.032400 529.194824
0.800000 5.200000 4.840000 -19.535355 -6.701088 426.534637
0.800000 5.200000 4.880000 -9.774801 -10.915150 214.687225
0.800000 5.200000 4.920000 -1.210643 -5.557145 32.347519
0.800000 5.200000 4.960000 -2.347170 4.186372 23.034922
0.800000 5.200000 5.000000 -13.090773 7.146924 222.446854
0.800000 5.200000 5.040000 -22.805830 -2.948610 528.800171
0.800000 5.200000 5.080000 -19.587051 -19.781376 774.955444
0.800000 5.200000 5.120000 -2.397503 -28.857494 838.503052
0.800000 5.200000 5.160000 16.418663 -20.954100 708.646790
0.800000 5.200000 5.200000 21.783161 -1.575499 476.988312
0.840000 4.800000 4.800000 0.932447 -0.872740 1.631133
0.840000 4.800000 4.840000 -3.784014 -0.878666 15.090814
0.840000 4.800000 4.880000 -6.946028 -6.145222 86.011063
0.840000 4.800000 4.920000 -4.247955 -13.866022 210.311691
0.840000 4.800000 4.960000 5.063101 -18.445244 365.862000
0.840000 4.800000 5.000000 16.986488 -15.220478 520.203735
0.840000 4.800000 5.040000 24.969130 -3.990561 639.382019
0.840000 4.800000 5.080000 24.247276 10.410187 696.302429
0.840000 4.800000 5.120000 15.087086 21.230890 678.370850
0.840000 4.800000 5.160000 2.302672 24.246876 593.213318
0.840000 4.800000 5.200000 -8.402657 19.905441 466.831238
0.840000 4.840000 4.800000 0.595106 -5.212565 27.524988
0.840000 4.840000 4.840000 1.911971 -6.018164 39.873924
0.840000 4.840000 4.880000 4.349663 -6.008511 55.021770
0.840000 4.840000 4.920000 7.092100 -4.435088 69.967896
0.840000 4.840000 4.960000 9.108727 -1.230599 84.483292
0.840000 4.840000 5.000000 9.453623 3.109402 99.039368
0.840000 4.840000 5.040000 7.487608 7.505754 112.400620
0.840000 4.840000 5.080000 3.408684 10.474413 121.332451
0.840000 4.840000 5.120000 -1.511095 10.959614 122.396545
0.840000 4.840000 5.160000 -5.617411 9.141810 115.128006
0.840000 4.840000 5.200000 -8.098000 6.192489 103.924515
0.840000 4.880000 4.800000 7.726636 -9.560378 151.101730
0.840000 4.880000 4.840000 14.212879 -3.960056 217.687988
0.840000 4.880000 4.880000 14.815589 6.160921 257.458618
0.840000 4.880000 4.920000 7.395517 14.309286 259.449341
0.840000 4.880000 4.960000 -3.770251 14.609834 227.662033
0.840000 4.880000 5.000000 -11.278967 6.982939 175.976532
0.840000 4.880000 5.040000 -10.611097 -2.808374 120.482361
0.840000 4.880000 5.080000 -3.489258 -7.932859 75.105179
0.840000 4.880000 5.120000 4.023249 -5.687104 48.529686
0.840000 4.880000 5.160000 6.439474 1.087868 42.650284
0.840000 4.880000 5.200000 2.577931 6.754180 52.264675
0.840000 4.920000 4.800000 19.321127 -4.694473 395.344025
0.840000 4.920000 4.840000 22.789387 10.912622 638.441467
0.840000 4.920000 4.880000 11.744599 26.529129 841.730286
0.840000 4.920000 4.920000 -9.568849 29.139591 940.678650
0.840000 4.920000 4.960000 -26.868677 14.095876 920.619507
0.840000 4.920000 5.000000 -27.133137 -9.419441 824.932983
0.840000 4.920000 5.040000 -9.749804 -25.021324 721.125366
0.840000 4.920000 5.080000 12.661983 -22.208889 653.560547
0.840000 4.920000 5.120000 24.448185 -4.423948 617.285034
0.840000 4.920000 5.160000 19.002350 14.547619 572.722534
0.840000 4.920000 5.200000 2.647655 21.870800 485.341949
0.840000 4.960000 4.800000 24.034100 11.143969 701.825989
0.840000 4.960000 4.840000 15.709064 31.084831 1213.041382
0.840000 4.960000 4.880000 -8.958490 39.774651 1662.277344
0.840000 4.960000 4.920000 -35.126137 25.474638 1882.802612
0.840000 4.960000 4.960000 -42.402798 -6.145569 1835.765259
0.840000 4.960000 5.000000 -22.517439 -33.732529 1644.918579
0.840000 4.960000 5.040000 11.892064 -36.853874 1499.629150
0.840000 4.960000 5.080000 36.424923 -13.134022 1499.277588
0.840000 4.960000 5.120000 34.496521 19.593557 1573.917480
0.840000 4.960000 5.160000 10.073419 38.085960 1552.014160
0.840000 4.960000 5.200000 -17.090530 31.977238 1314.629883
0.840000 5.000000 4.800000 13.639204 27.813255 959.605042
0.840000 5.000000 4.840000 -6.925999 40.501518 1688.342407
0.840000 5.000000 4.880000 -35.386963 32.499290 2308.440918
0.840000 5.000000 4.920000 -50.538216 2.017129 2558.180176
0.840000 5.000000 4.960000 -36.489986 -32.647263 2397.362793
0.840000 5.000000 5.000000 1.013008 -45.470657 2068.606689
0.840000 5.000000 5.040000 36.098778 -24.714296 1913.918213
0.840000 5.000000 5.080000 42.948738 15.519428 2085.446777
0.840000 5.000000 5.120000 17.287453 45.900162 2405.680908
0.840000 5.000000 5.160000 -20.358589 45.778358 2510.130371
0.840000 5.000000 5.200000 -42.364349 19.104330 2159.713379
0.840000 5.040000 4.800000 -7.283261 31.886280 1069.780762
0.840000 5.040000 4.840000 -30.524597 29.758610 1817.325928
0.840000 5.040000 4.880000 -48.442097 7.223814 2398.820312
0.840000 5.040000 4.920000 -43.289082 -25.714806 2535.195801
0.840000 5.040000 4.960000 -12.266308 -45.576965 2227.722168
0.840000 5.040000 5.000000 25.360643 -34.215500 1813.862671
0.840000 5.040000 5.040000 41.383461 3.344464 1723.776245
0.840000 5.040000 5.080000 22.364330 40.157433 2112.782715
0.840000 5.040000 5.120000 -17.738483 48.785576 2694.686279
0.840000 5.040000 5.160000 -48.661125 24.230286 2955.011719
0.840000 5.040000 5.200000 -49.126663 -12.619405 2572.678223
0.840000 5.080000 4.800000 -24.531742 19.822781 994.749023
0.840000 5.080000 4.840000 -38.736870 6.035585 1536.973389
0.840000 5.080000 4.880000 -39.277046 -18.373146 1880.258911
0.840000 5.080000 4.920000 -19.158886 -38.215996 1827.525146
0.840000 5.080000 4.960000 12.005778 -36.081688 1446.026855
0.840000 5.080000 5.000000 31.714413 -9.000719 1086.816895
0.840000 5.080000 5.040000 22.635517 25.001381 1137.435669
0.840000 5.080000 5.080000 -10.653215 39.619797 1683.219238
0.840000 5.080000 5.120000 -43.263901 22.595036 2382.300781
0.840000 5.080000 5.160000 -50.362640 -12.918056 2703.271729
0.840000 5.080000 5.200000 -28.226562 -39.380081 2347.529541
0.840000 5.120000 4.800000 -27.640476 1.492364 766.223083
0.840000 5.120000 4.840000 -28.722122 -13.357445 1003.381653
0.840000 5.120000 4.880000 -17.606203 -27.436922 1062.763062
0.840000 5.120000 4.920000 2.705494 -29.472389 875.941406
0.840000 5.120000 4.960000 18.964008 -14.120227 559.014404
0.840000 5.120000 5.000000 16.964828 9.870596 385.234070
0.840000 5.120000 5.040000 -4.766835 23.804106 589.358154
0.840000 5.120000 5.080000 -30.663303 14.445387 1148.907349
0.840000 5.120000 5.120000 -39.708031 -12.959883 1744.686279
0.840000 5.120000 5.160000 -23.738937 -37.550373 1973.567627
0.840000 5.120000 5.200000 4.762069 -40.444435 1658.429565
0.840000 5.160000 4.800000 -19.422094 -9.882717 474.885834
0.840000 5.160000 4.840000 -12.961750 -17.582764 477.160522
0.840000 5.160000 4.880000 -1.898193 -19.268200 374.866669
0.840000 5.160000 4.920000 7.518089 -11.819317 196.217926
0.840000 5.160000 4.960000 7.383152 0.976505 55.464489
0.840000 5.160000 5.000000 -4.305287 8.849557 96.850159
0.840000 5.160000 5.040000 -19.305658 2.987637 381.634399
0.840000 5.160000 5.080000 -24.250154 -14.809017 807.377014
0.840000 5.160000 5.120000 -12.325028 -31.505791 1144.521240
0.840000 5.160000 5.160000 9.279889 -33.183289 1187.246948
0.840000 5.160000 5.200000 24.400269 -17.646030 906.755493
0.840000 5.200000 4.800000 -11.643927 -10.760122 251.361267
0.840000 5.200000 4.840000 -5.707913 -11.753164 170.717148
0.840000 5.200000 4.880000 -1.297826 -8.359607 71.567375
0.840000 5.200000 4.920000 -1.975132 -3.191463 14.086584
0.840000 5.200000 4.960000 -7.813839 -1.689899 63.911846
0.840000 5.200000 5.000000 -13.546027 -7.757519 243.673965
0.840000 5.200000 5.040000 -11.819207 -18.967590 499.463135
0.840000 5.200000 5.080000 -0.013898 -26.761902 716.199585
0.840000 5.200000 5.120000 15.730131 -23.122131 782.069946
0.840000 5.200000 5.160000 24.316078 -8.339458 660.818237
0.840000 5.200000 5.200000 18.978193 7.797342 420.970367
0.880000 4.800000 4.800000 -5.373576 2.325088 34.281353
0.880000 4.800000 4.840000 -4.928926 -2.787455 32.064217
0.880000 4.800000 4.880000 -1.441878 -5.863581 36.460594
0.880000 4.800000 4.920000 2.441242 -6.568362 49.103046
0.880000 4.800000 4.960000 6.206821 -6.424302 79.796288
0.880000 4.800000 5.000000 11.298361 -5.203297 154.727249
0.880000 4.800000 5.040000 17.417000 -0.109390 303.363831
0.880000 4.800000 5.080000 20.319878 10.490553 522.949097
0.880000 4.800000 5.120000 14.881073 22.995857 750.255798
0.880000 4.800000 5.160000 0.948480 29.623821 878.470398
0.880000 4.800000 5.200000 -14.452251 24.789219 823.372925
0.880000 4.840000 4.800000 -1.295179 -4.496044 21.891903
0.880000 4.840000 4.840000 9.719120 -1.083702 95.635704
0.880000 4.840000 4.880000 12.903383 12.501902 322.794861
0.880000 4.840000 4.920000 2.177765 24.245201 592.572449
0.880000 4.840000 4.960000 -14.575611 22.367615 712.758606
0.880000 4.840000 5.000000 -22.749254 7.816589 578.627625
0.880000 4.840000 5.040000 -15.677197 -6.155220 283.661224
0.880000 4.840000 5.080000 -1.372356 -7.139814 52.860310
0.880000 4.840000 5.120000 5.687244 4.187533 49.880188
0.880000 4.840000 5.160000 -0.947841 15.319220 235.576889
0.880000 4.840000 5.200000 -13.872391 14.872389 413.631165
0.880000 4.880000 4.800000 9.702881 -4.020258 110.308372
0.880000 4.880000 4.840000 19.934072 17.345217 698.223755
0.880000 4.880000 4.880000 4.798134 43.795769 1941.091431
0.880000 4.880000 4.920000 -31.229122 49.126663 3388.687012
0.880000 4.880000 4.960000 -61.498581 22.229851 4276.241699
0.880000 4.880000 5.000000 -60.753914 -19.858932 4085.415283
0.880000 4.880000 5.040000 -29.015215 -45.971069 2955.221680
0.880000 4.880000 5.080000 8.134869 -38.770664 1569.340576
0.880000 4.880000 5.120000 23.126686 -9.341503 622.107300
0.880000 4.880000 5.160000 10.393558 15.107605 336.265778
0.880000 4.880000 5.200000 -11.918598 16.947353 429.265778
0.880000 4.920000 4.800000 16.763567 8.586009 354.736725
0.880000 4.920000 4.840000 9.230340 42.818169 1918.594727
0.880000 4.920000 4.880000 -32.488255 61.557053 4844.757324
0.880000 4.920000 4.920000 -82.052475 37.200653 8116.497559
0.880000 4.920000 4.960000 -98.118271 -22.761478 10145.280273
0.880000 4.920000 5.000000 -62.339916 -77.445648 9884.093750
0.880000 4.920000 5.040000 1.624725 -87.115921 7591.823242
0.880000 4.920000 5.080000 47.763321 -48.146423 4599.413086
0.880000 4.920000 5.120000 47.608452 5.160759 2293.198242
0.880000 4.920000 5.160000 12.370230 32.611637 1216.541504
0.880000 4.920000 5.200000 -21.973204 22.248943 977.837158
0.880000 4.960000 4.800000 8.860168 24.837862 695.421936
0.880000 4.960000 4.840000 -22.861717 52.846230 3315.382080
0.880000 4.960000 4.880000 -77.589943 42.562088 7831.730469
0.880000 4.960000 4.920000 -111.293625 -16.056162 12644.071289
0.880000 4.960000 4.960000 -87.324272 -88.631058 15480.992188
0.880000 4.960000 5.000000 -13.379999 -121.627045 14972.162109
0.880000 4.960000 5.040000 60.574471 -89.166687 11619.964844
0.880000 4.960000 5.080000 84.051331 -16.801689 7346.922852
0.880000 4.960000 5.120000 48.598076 41.061523 4047.821777
0.880000 4.960000 5.160000 -8.505353 48.307949 2405.999023
0.880000 4.960000 5.200000 -40.698299 14.272882 1860.066772
0.880000 5.000000 4.800000 -12.049936 29.104111 992.250244
0.880000 5.000000 4.840000 -55.430470 33.145775 4171.179199
0.880000 5.000000 4.880000 -95.931702 -8.118484 9268.801758
0.880000 5.000000 4.920000 -90.769257 -78.507172 14402.433594
0.880000 5.000000 4.960000 -27.749937 -128.006927 17155.832031
0.880000 5.000000 5.000000 56.459427 -114.370819 16268.351562
0.880000 5.000000 5.040000 103.380722 -42.787979 12518.384766
0.880000 5.000000 5.080000 82.353668 35.680626 8055.233398
0.880000 5.000000 5.120000 16.311031 67.250183 4788.636719
0.880000 5.000000 5.160000 -40.408546 39.939064 3227.979492
0.880000 5.000000 5.200000 -50.007256 -11.366692 2629.927246
0.880000 5.040000 4.800000 -30.324039 14.266870 1123.090942
0.880000 5.040000 4.840000 -63.082581 -6.137808 4017.084473
0.880000 5.040000 4.880000 -70.944542 -57.261909 8312.054688
0.880000 5.040000 4.920000 -31.001286 -106.633545 12331.792969
0.880000 5.040000 4.960000 41.265362 -111.603699 14158.215820
0.880000 5.040000 5.000000 97.817825 -58.635586 13006.458984
0.880000 5.040000 5.040000 96.988914 19.571167 9789.879883
0.880000 5.040000 5.080000 40.546349 68.726486 6367.336426
0.880000 5.040000 5.120000 -26.911366 58.500702 4146.553711
0.880000 5.040000 5.160000 -56.610245 6.761019 3250.431152
0.880000 5.040000 5.200000 -36.037086 -39.468952 2856.469727
0.880000 5.080000 4.800000 -30.890316 -9.721133 1048.712036
0.880000 5.080000 4.840000 -39.796310 -37.299648 2975.010254
0.880000 5.080000 4.880000 -20.782974 -71.563225 5553.227051
0.880000 5.080000 4.920000 26.006611 -83.821808 7702.439453
0.880000 5.080000 4.960000 73.207428 -54.758770 8357.850586
0.880000 5.080000 5.000000 85.264282 3.633038 7283.196777
0.880000 5.080000 5.040000 49.780838 52.813984 5267.448730
0.880000 5.080000 5.080000 -8.624146 58.548317 3502.281494
0.880000 5.080000 5.120000 -47.428848 20.458031 2668.026611
0.880000 5.080000 5.160000 -41.990356 -27.879335 2540.447266
0.880000 5.080000 5.200000 -4.992682 -48.815186 2407.849121
0.880000 5.120000 4.800000 -14.228825 -24.546999 805.014648
0.880000 5.120000 4.840000 -5.270098 -39.983192 1626.429565
0.880000 5.120000 4.880000 17.384874 -47.206203 2530.659424
0.880000 5.120000 4.920000 43.658981 -34.443146 3092.437012
0.880000 5.120000 4.960000 54.690125 -2.805199 2998.878906
0.880000 5.120000 5.000000 38.257423 29.528704 2335.574707
0.880000 5.120000 5.040000 2.258469 39.519241 1566.871094
0.880000 5.120000 5.080000 -28.504173 19.134533 1178.618286
0.880000 5.120000 5.120000 -32.065636 -15.913830 1281.454956
0.880000 5.120000 5.160000 -8.261448 -38.439999 1545.885010
0.880000 5.120000 5.200000 21.200039 -32.913078 1532.712402
0.880000 5.160000 4.800000 3.978205 -21.299480 469.493988
0.880000 5.160000 4.840000 13.609924 -19.561291 567.874146
0.880000 5.160000 4.880000 20.938309 -11.711079 575.562134
0.880000 5.160000 4.920000 21.790577 0.046566 474.831421
0.880000 5.160000 4.960000 13.907827 10.211906 297.710693
0.880000 5.160000 5.000000 0.122604 11.957470 142.996124
0.880000 5.160000 5.040000 -11.220825 2.366188 131.505768
0.880000 5.160000 5.080000 -11.407652 -13.332531 307.890900
0.880000 5.160000 5.120000 1.009638 -23.965834 575.380554
0.880000 5.160000 5.160000 17.392962 -20.998552 743.454346
0.880000 5.160000 5.200000 25.167404 -6.428113 674.718872
0.880000 5.200000 4.800000 8.781387 -8.881655 155.996552
0.880000 5.200000 4.840000 7.982184 -0.380066 63.859718
0.880000 5.200000 4.880000 0.343726 3.470596 12.163187
0.880000 5.200000 4.920000 -7.595085 -0.999954 58.685226
0.880000 5.200000 4.960000 -9.158459 -10.880087 202.253662
0.880000 5.200000 5.000000 -2.493961 -19.442116 384.215729
0.880000 5.200000 5.040000 8.720400 -21.184040 524.808899
0.880000 5.200000 5.080000 18.366898 -15.137499 566.486816
0.880000 5.200000 5.120000 21.782881 -4.693121 496.519287
0.880000 5.200000 5.160000 17.956348 4.842968 345.884796
0.880000 5.200000 5.200000 9.561170 9.040533 173.147202
0.920000 4.800000 4.800000 -10.669945 -1.006585 114.860939
0.920000 4.800000 4.840000 -2.712673 -4.743324 29.857719
0.920000 4.800000 4.880000 3.004623 -0.844971 9.741737
0.920000 4.800000 4.920000 1.859417 3.629225 16.628704
0.920000 4.800000 4.960000 -1.261082 1.939632 5.352501
0.920000 4.800000 5.000000 2.089628 -3.455719 16.308540
0.920000 4.800000 5.040000 12.844612 -2.678776 172.159897
0.920000 4.800000 5.080000 21.116371 10.116053 548.235657
0.920000 4.800000 5.120000 15.594398 28.167183 1036.575439
0.920000 4.800000 5.160000 -3.713631 36.753387 1364.602539
0.920000 4.800000 5.200000 -23.346722 27.390545 1295.311279
0.920000 4.840000 4.800000 -1.375616 -4.951221 26.406912
0.920000 4.840000 4.840000 11.440746 11.748280 268.912750
0.920000 4.840000 4.880000 0.665867 35.522888 1262.318970
0.920000 4.840000 4.920000 -30.136509 40.321438 2534.027588
0.920000 4.840000 4.960000 -54.801605 15.500877 3243.492920
0.920000 4.840000 5.000000 -49.506096 -20.998924 2891.808350
0.920000 4.840000 5.040000 -17.205902 -38.497902 1778.131592
0.920000 4.840000 5.080000 14.205334 -23.231682 741.502563
0.920000 4.840000 5.120000 18.709934 8.513796 422.546356
0.920000 4.840000 5.160000 -3.302335 27.084446 744.472595
0.920000 4.840000 5.200000 -27.402382 18.452652 1091.390869
0.920000 4.880000 4.800000 7.838967 2.960369 70.213196
0.920000 4.880000 4.840000 3.424397 40.856426 1680.973999
0.920000 4.880000 4.880000 -41.712799 63.003273 5709.370117
0.920000 4.880000 4.920000 -96.904610 35.619015 10659.216797
0.920000 4.880000 4.960000 -113.131287 -32.423481 13849.970703
0.920000 4.880000 5.000000 -69.864899 -92.343002 13408.333984
0.920000 4.880000 5.040000 2.859840 -98.624161 9734.903320
0.920000 4.880000 5.080000 50.619274 -50.758003 5138.686035
0.920000 4.880000 5.120000 43.760323 7.782436 1975.532104
0.920000 4.880000 5.160000 1.232218 31.403114 987.673950
0.920000 4.880000 5.200000 -32.477188 12.625566 1214.172607
0.920000 4.920000 4.800000 4.389917 17.651642 330.851837
0.920000 4.920000 4.840000 -32.813950 55.723530 4181.867188
0.920000 4.920000 4.880000 -103.206131 44.183979 12603.729492
0.920000 4.920000 4.920000 -147.054077 -32.099911 22655.306641
0.920000 4.920000 4.960000 -114.625237 -126.967773 29259.761719
0.920000 4.920000 5.000000 -17.029362 -168.838562 28796.460938
0.920000 4.920000 5.040000 78.437943 -125.071495 21795.390625
0.920000 4.920000 5.080000 106.655716 -32.072731 12404.101562
0.920000 4.920000 5.120000 60.723694 38.563145 5174.482910
0.920000 4.920000 5.160000 -7.679802 44.056595 1999.962891
0.920000 4.920000 5.200000 -40.573788 2.456254 1652.265503
0.920000 4.960000 4.800000 -13.678772 23.478184 738.333862
0.920000 4.960000 4.840000 -74.761917 33.750401 6728.433594
0.920000 4.960000 4.880000 -135.071411 -24.445219 18841.853516
0.920000 4.960000 4.920000 -128.340225 -128.047104 32867.273438
0.920000 4.960000 4.960000 -35.329437 -201.690887 41927.382812
0.920000 4.960000 5.000000 89.162552 -182.438690 41233.835938
0.920000 4.960000 5.040000 159.108124 -79.011917 31558.277344
0.920000 4.960000 5.080000 131.689728 33.473152 18462.634766
0.920000 4.960000 5.120000 42.244549 79.362335 8082.982422
0.920000 4.960000 5.160000 -32.392128 45.572845 3126.134277
0.920000 4.960000 5.200000 -43.777905 -16.639633 2193.382324
0.920000 5.000000 4.800000 -32.176441 9.504501 1125.658936
0.920000 5.000000 4.840000 -87.475540 -18.112934 7980.048828
0.920000 5.000000 4.880000 -103.835678 -100.960495 20974.869141
0.920000 5.000000 4.920000 -39.597206 -184.211029 35501.640625
0.920000 5.000000 4.960000 80.505676 -195.009140 44509.730469
0.920000 5.000000 5.000000 176.787506 -110.001968 43354.253906
0.920000 5.000000 5.040000 181.077301 17.617065 33099.347656
0.920000 5.000000 5.080000 96.507767 101.054115 19525.683594
0.920000 5.000000 5.120000 -6.800669 93.651245 8816.804688
0.920000 5.000000 5.160000 -55.249058 23.985117 3627.744385
0.920000 5.000000 5.200000 -32.730446 -38.069553 2520.572998
0.920000 5.040000 4.800000 -32.599831 -17.217594 1359.194458
0.920000 5.040000 4.840000 -55.888298 -64.572906 7293.162109
0.920000 5.040000 4.880000 -25.429583 -130.977081 17801.660156
0.920000 5.040000 4.920000 61.916481 -158.688110 29015.566406
0.920000 5.040000 4.960000 154.493866 -107.804253 35490.113281
0.920000 5.040000 5.000000 184.240692 1.229477 33946.144531
0.920000 5.040000 5.040000 126.336121 98.101013 25584.625000
0.920000 5.040000 5.080000 23.205830 120.441833 15044.746094
0.920000 5.040000 5.120000 -51.534077 65.813576 6987.187500
0.920000 5.040000 5.160000 -55.572762 -10.594490 3200.574951
0.920000 5.040000 5.200000 -8.422640 -48.215523 2395.677490
0.920000 5.080000 4.800000 -10.787205 -35.837784 1400.710571
0.920000 5.080000 4.840000 -1.308867 -71.934357 5176.264648
0.920000 5.080000 4.880000 45.580044 -95.808113 11256.734375
0.920000 5.080000 4.920000 108.638054 -74.080536 17290.152344
0.920000 5.080000 4.960000 142.453873 -4.361336 20312.126953
0.920000 5.080000 5.000000 115.127304 74.512962 18806.476562
0.920000 5.080000 5.040000 39.355534 110.638367 13789.707031
0.920000 5.080000 5.080000 -34.573578 82.452637 7993.769531
0.920000 5.080000 5.120000 -59.859985 17.059351 3874.239258
0.920000 5.080000 5.160000 -31.055147 -34.144653 2130.279541
0.920000 5.080000 5.200000 15.872673 -39.530788 1814.625000
0.920000 5.120000 4.800000 17.227600 -31.078899 1262.688232
0.920000 5.120000 4.840000 36.261578 -38.745705 2816.131592
0.920000 5.120000 4.880000 63.467381 -28.912231 4864.025391
0.920000 5.120000 4.920000 80.998489 3.463882 6572.753906
0.920000 5.120000 4.960000 70.833061 45.342079 7073.226562
0.920000 5.120000 5.000000 31.763321 71.292648 6091.550293
0.920000 5.120000 5.040000 -15.260166 62.858204 4184.026367
0.920000 5.120000 5.080000 -41.289452 25.242962 2342.025879
0.920000 5.120000 5.120000 -32.402596 -15.136459 1279.040649
0.920000 5.120000 5.160000 -0.963242 -31.707584 1006.298767
0.920000 5.120000 5.200000 25.678907 -18.968639 1019.215576
0.920000 5.160000 4.800000 29.692554 -8.497459 953.854614
0.920000 5.160000 4.840000 34.016235 3.380474 1168.531860
0.920000 5.160000 4.880000 30.132523 15.865082 1159.669800
0.920000 5.160000 4.920000 19.937141 23.999039 973.443481
0.920000 5.160000 4.960000 7.096199 25.417923 696.426819
0.920000 5.160000 5.000000 -4.518845 19.741364 410.141388
0.920000 5.160000 5.040000 -10.938683 8.409653 190.377045
0.920000 5.160000 5.080000 -9.071709 -4.436115 101.975021
0.920000 5.160000 5.120000 0.575331 -12.551500 157.871170
0.920000 5.160000 5.160000 12.380516 -11.372765 282.616943
0.920000 5.160000 5.200000 18.517099 -2.381262 348.553375
0.920000 5.200000 4.800000 20.123795 10.610038 517.539978
0.920000 5.200000 4.840000 5.542980 20.012575 431.227814
0.920000 5.200000 4.880000 -11.675253 12.852715 301.503784
0.920000 5.200000 4.920000 -16.181816 -5.939362 297.127197
0.920000 5.200000 4.960000 -4.001503 -20.821056 449.528412
0.920000 5.200000 5.000000 14.240646 -20.410595 619.388367
0.920000 5.200000 5.040000 24.086287 -7.350697 634.181885
0.920000 5.200000 5.080000 20.496166 5.874828 454.606445
0.920000 5.200000 5.120000 10.547462 9.635481 204.091461
0.920000 5.200000 5.160000 4.502956 4.977112 45.048260
0.920000 5.200000 5.200000 5.728492 -0.134485 32.833702
0.960000 4.800000 4.800000 -10.973991 -5.810763 154.193466
0.960000 4.800000 4.840000 0.047279 -2.822174 7.966902
0.960000 4.800000 4.880000 1.360489 6.643282 45.984123
0.960000 4.800000 4.920000 -6.632481 9.701080 138.100769
0.960000 4.800000 4.960000 -11.571154 1.288528 135.551910
0.960000 4.800000 5.000000 -3.034019 -8.743515 85.654335
0.960000 4.800000 5.040000 14.241203 -5.346550 231.397476
0.960000 4.800000 5.080000 23.107262 14.664878 749.004211
0.960000 4.800000 5.120000 11.250179 36.778790 1479.245850
0.960000 4.800000 5.160000 -14.869622 41.752777 1964.400146
0.960000 4.800000 5.200000 -34.712582 24.751907 1817.620361
0.960000 4.840000 4.800000 -1.704046 -3.287569 13.711884
0.960000 4.840000 4.840000 -0.463066 23.907692 571.792175
0.960000 4.840000 4.880000 -30.653751 41.359127 2650.229980
0.960000 4.840000 4.920000 -69.071495 22.235443 5265.286621
0.960000 4.840000 4.960000 -77.848686 -26.368988 6755.741699
0.960000 4.840000 5.000000 -42.425865 -66.020172 6158.617188
0.960000 4.840000 5.040000 11.327713 -62.569023 4043.199707
0.960000 4.840000 5.080000 40.048840 -19.551414 1986.167358
0.960000 4.840000 5.120000 23.668476 24.963024 1183.349365
0.960000 4.840000 5.160000 -16.953348 35.070656 1517.366943
0.960000 4.840000 5.200000 -42.635300 10.005705 1917.882935
0.960000 4.880000 4.800000 -0.737911 7.648352 59.041798
0.960000 4.880000 4.840000 -31.904747 43.928207 2947.600342
0.960000 4.880000 4.880000 -95.725876 34.490318 10353.025391
0.960000 4.880000 4.920000 -134.941788 -35.723167 19485.429688
0.960000 4.880000 4.960000 -102.322250 -122.150085 25390.486328
0.960000 4.880000 5.000000 -10.156448 -156.572769 24618.185547
0.960000 4.880000 5.040000 75.825607 -110.244858 17903.451172
0.960000 4.880000 5.080000 94.896942 -21.572857 9470.817383
0.960000 4.880000 5.120000 45.150291 39.813435 3623.658447
0.960000 4.880000 5.160000 -19.656540 36.555565 1722.688843
0.960000 4.880000 5.200000 -44.456085 -7.901411 2038.775757
0.960000 4.920000 4.800000 -13.364790 14.296675 383.012512
0.960000 4.920000 4.840000 -77.528374 27.721951 6779.155273
0.960000 4.920000 4.880000 -142.412811 -34.157402 21448.136719
0.960000 4.920000 4.920000 -133.949341 -145.921509 39235.511719
0.960000 4.920000 4.960000 -31.487286 -223.754593 51057.566406
0.960000 4.920000 5.000000 103.004395 -199.284470 50324.207031
0.960000 4.920000 5.040000 175.009033 -85.009865 37854.839844
0.960000 4.920000 5.080000 140.847412 34.597321 21034.968750
0.960000 4.920000 5.120000 43.537933 78.674294 8085.196289
0.960000 4.920000 5.160000 -32.083466 38.389168 2503.076904
0.960000 4.920000 5.200000 -37.802204 -26.179295 2114.362061
0.960000 4.960000 4.800000 -29.641720 4.026466 894.843933
0.960000 4.960000 4.840000 -98.345009 -26.883434 10394.459961
0.960000 4.960000 4.880000 -119.463623 -128.569717 30801.730469
0.960000 4.960000 4.920000 -39.530537 -231.286163 55055.953125
0.960000 4.960000 4.960000 109.530190 -243.145142 71116.421875
0.960000 4.960000 5.000000 227.262314 -136.513855 70284.195312
0.960000 4.960000 5.040000 230.458389 20.230297 53520.335938
0.960000 4.960000 5.080000 126.607925 120.020119 30434.394531
0.960000 4.960000 5.120000 3.976162 109.440674 11993.070312
0.960000 4.960000 5.160000 -50.187717 27.943678 3299.656006
0.960000 4.960000 5.200000 -22.411394 -39.495811 2062.189697
0.960000 5.000000 4.800000 -31.222250 -20.736023 1404.811523
0.960000 5.000000 4.840000 -68.078705 -85.264191 11904.692383
0.960000 5.000000 4.880000 -27.446362 -180.284302 33255.734375
0.960000 5.000000 4.920000 96.136917 -220.770233 57981.804688
0.960000 5.000000 4.960000 227.567429 -148.969391 73978.812500
0.960000 5.000000 5.000000 269.718719 4.685224 72770.140625
0.960000 5.000000 5.040000 189.486420 140.108231 55535.417969
0.960000 5.000000 5.080000 48.415955 171.977280 31920.291016
0.960000 5.000000 5.120000 -52.336662 100.551453 12849.720703
0.960000 5.000000 5.160000 -59.141022 2.844585 3505.751953
0.960000 5.000000 5.200000 -2.556026 -42.678310 1827.971558
0.960000 5.040000 4.800000 -9.470924 -41.033783 1773.469727
0.960000 5.040000 4.840000 -1.201979 -102.988243 10608.022461
0.960000 5.040000 4.880000 74.415909 -148.174118 27493.296875
0.960000 5.040000 4.920000 181.329605 -116.015381 46339.992188
0.960000 5.040000 4.960000 240.793518 -1.340874 57983.316406
0.960000 5.040000 5.000000 198.704971 129.993912 56382.082031
0.960000 5.040000 5.040000 76.984482 192.086624 42823.878906
0.960000 5.040000 5.080000 -42.159176 151.460724 24717.748047
0.960000 5.040000 5.120000 -85.816437 52.956318 10168.832031
0.960000 5.040000 5.160000 -48.411781 -24.044489 2921.838135
0.960000 5.040000 5.200000 14.149004 -34.996796 1424.970093
0.960000 5.080000 4.800000 23.347443 -37.673107 1964.366211
0.960000 5.080000 4.840000 55.886311 -65.843185 7458.604980
0.960000 5.080000 4.880000 117.250473 -57.038223 17001.033203
0.960000 5.080000 4.920000 164.173111 7.110764 27003.373047
0.960000 5.080000 4.960000 151.162003 98.877853 32626.781250
0.960000 5.080000 5.000000 72.818718 160.381912 31024.923828
0.960000 5.080000 5.040000 -25.975426 150.321381 23271.240234
0.960000 5.080000 5.080000 -84.591141 79.312622 13446.153320
0.960000 5.080000 5.120000 -75.618866 0.449535 5718.415039
0.960000 5.080000 5.160000 -23.605278 -36.062035 1857.679443
0.960000 5.080000 5.200000 21.687553 -21.834770 947.107178
0.960000 5.120000 4.800000 43.088467 -10.282372 1962.343140
0.960000 5.120000 4.840000 64.796585 -3.819281 4213.184570
0.960000 5.120000 4.880000 82.039955 23.977379 7305.468750
0.960000 5.120000 4.920000 75.843559 65.512924 10044.189453
0.960000 5.120000 4.960000 38.962364 98.115448 11144.707031
0.960000 5.120000 5.000000 -14.421501 99.243240 10057.200195
0.960000 5.120000 5.040000 -55.979328 64.836365 7337.439453
0.960000 5.120000 5.080000 -63.617035 14.490448 4257.100098
0.960000 5.120000 5.120000 -38.174927 -22.476599 1962.522583
0.960000 5.120000 5.160000 -1.854673 -28.955481 841.859680
0.960000 5.120000 5.200000 20.268978 -11.224453 536.819824
0.960000 5.160000 4.800000 35.767189 20.632595 1704.995850
0.960000 5.160000 4.840000 28.452969 35.778877 2089.699463
0.960000 5.160000 4.880000 12.577621 42.876583 1996.597900
0.960000 5.160000 4.920000 -3.225845 39.526009 1572.711426
0.960000 5.160000 4.960000 -13.382553 30.207115 1091.562500
0.960000 5.160000 5.000000 -18.193321 19.761513 721.514343
0.960000 5.160000 5.040000 -19.705347 9.152763 472.073761
0.960000 5.160000 5.080000 -17.225433 -2.204510 301.575409
0.960000 5.160000 5.120000 -8.582199 -11.855791 214.213928
0.960000 5.160000 5.160000 4.776809 -14.505520 233.228012
0.960000 5.160000 5.200000 16.091133 -7.641163 317.311920
0.960000 5.200000 4.800000 11.006912 32.213554 1158.865234
0.960000 5.200000 4.840000 -14.296494 30.538961 1137.017944
0.960000 5.200000 4.880000 -28.958664 6.932681 886.666260
0.960000 5.200000 4.920000 -18.388523 -19.594448 722.080200
0.960000 5.200000 4.960000 8.399757 -26.463768 770.886902
0.960000 5.200000 5.000000 27.614401 -9.874268 860.056274
0.960000 5.200000 5.040000 24.342590 12.188503 741.121338
0.960000 5.200000 5.080000 6.359028 18.862381 396.226654
0.960000 5.200000 5.120000 -5.616959 6.998196 80.524963
0.960000 5.200000 5.160000 0.190396 -7.685871 59.108868
0.960000 5.200000 5.200000 15.812309 -8.600651 324.000305
1.000000 4.800000 4.800000 -9.074471 -7.334278 136.137665
1.000000 4.800000 4.840000 -1.646591 1.202263 4.156698
1.000000 4.800000 4.880000 -6.852261 9.790630 142.809921
1.000000 4.800000 4.920000 -16.909790 6.414398 327.085510
1.000000 4.800000 4.960000 -16.748966 -6.909180 328.264618
1.000000 4.800000 5.000000 -1.097282 -14.475601 210.747055
1.000000 4.800000 5.040000 17.485687 -3.071389 315.182709
1.000000 4.800000 5.080000 19.650322 22.534407 893.934631
1.000000 4.800000 5.120000 -0.942526 41.913727 1757.648804
1.000000 4.800000 5.160000 -29.666977 38.138554 2334.678711
1.000000 4.800000 5.200000 -44.020187 14.589461 2150.629150
1.000000 4.840000 4.800000 -6.335361 -1.756550 43.222275
1.000000 4.840000 4.840000 -21.622860 21.819332 943.631348
1.000000 4.840000 4.880000 -59.220634 17.994682 3830.892090
1.000000 4.840000 4.920000 -82.168671 -24.173637 7336.055176
1.000000 4.840000 4.960000 -59.541351 -75.793182 9289.779297
1.000000 4.840000 5.000000 -0.270454 -92.165260 8494.508789
1.000000 4.840000 5.040000 51.043053 -55.862198 5725.978516
1.000000 4.840000 5.080000 54.634762 4.687706 3006.931885
1.000000 4.840000 5.120000 12.567350 41.037323 1842.000244
1.000000 4.840000 5.160000 -34.757996 29.606577 2084.667725
1.000000 4.840000 5.200000 -48.424042 -9.061588 2427.000244
1.000000 4.880000 4.800000 -13.293652 2.868816 184.951279
1.000000 4.880000 4.840000 -61.702423 14.928505 4030.049316
1.000000 4.880000 4.880000 -111.945312 -33.035172 13623.075195
1.000000 4.880000 4.920000 -103.519470 -120.791931 25306.970703
1.000000 4.880000 4.960000 -20.013290 -179.890045 32760.958984
1.000000 4.880000 5.000000 86.789185 -155.322189 31657.345703
1.000000 4.880000 5.040000 139.393204 -59.703770 22995.003906
1.000000 4.880000 5.080000 104.384377 35.503773 12156.615234
1.000000 4.880000 5.120000 21.029139 64.477592 4599.584473
1.000000 4.880000 5.160000 -38.632736 23.896488 2063.530518
1.000000 4.880000 5.200000 -36.808334 -32.205856 2392.070801
1.000000 4.920000 4.800000 -24.551050 -4.230186 620.648560
1.000000 4.920000 4.840000 -87.507156 -31.389732 8642.817383
1.000000 4.920000 4.880000 -106.302597 -125.607361 27077.451172
1.000000 4.920000 4.920000 -29.843632 -220.225861 49390.070312
1.000000 4.920000 4.960000 110.465034 -227.897522 64139.804688
1.000000 4.920000 5.000000 218.245789 -124.155533 63045.820312
1.000000 4.920000 5.040000 215.878418 23.482880 47154.937500
1.000000 4.920000 5.080000 114.182388 112.930557 25790.929688
1.000000 4.920000 5.120000 -0.125813 96.791382 9368.586914
1.000000 4.920000 5.160000 -45.415489 17.304487 2362.011963
1.000000 4.920000 5.200000 -13.929438 -43.033024 2045.870361
1.000000 4.960000 4.800000 -25.652533 -23.778801 1223.483887
1.000000 4.960000 4.840000 -65.998749 -91.544807 12736.287109
1.000000 4.960000 4.880000 -22.184902 -193.388580 37891.312500
1.000000 4.960000 4.920000 111.644608 -235.557129 67951.679688
1.000000 4.960000 4.960000 252.356583 -155.639832 87907.601562
1.000000 4.960000 5.000000 294.460632 10.973976 86827.492188
1.000000 4.960000 5.040000 204.922653 154.274780 65794.000000
1.000000 4.960000 5.080000 53.789387 184.059845 36771.324219
1.000000 4.960000 5.120000 -49.679520 105.383163 13573.666016
1.000000 4.960000 5.160000 -52.255959 4.130567 2747.746826
1.000000 4.960000 5.200000 7.788290 -37.891151 1496.396851
1.000000 5.000000 4.800000 -6.904116 -41.706345 1787.086060
1.000000 5.000000 4.840000 0.110825 -119.170944 14201.726562
1.000000 5.000000 4.880000 93.503059 -177.139160 40121.101562
1.000000 5.000000 4.920000 227.120667 -137.441742 70474.031250
1.000000 5.000000 4.960000 300.509338 5.700613 90338.359375
1.000000 5.000000 5.000000 246.804688 167.821930 89076.750000
1.000000 5.000000 5.040000 96.397346 242.052826 67882.015625
1.000000 5.000000 5.080000 -47.150257 190.533875 38526.304688
1.000000 5.000000 5.120000 -96.787674 72.493332 14623.136719
1.000000 5.000000 5.160000 -51.323097 -15.239567 2866.304688
1.000000 5.000000 5.200000 18.252520 -24.135740 915.688416
1.000000 5.040000 4.800000 24.361826 -39.819843 2179.118408
1.000000 5.040000 4.840000 68.489197 -87.950089 12425.988281
1.000000 5.040000 4.880000 161.490982 -80.958633 32633.638672
1.000000 5.040000 4.920000 235.351593 12.205723 55539.351562
1.000000 5.040000 4.960000 218.784241 148.831009 70017.210938
1.000000 5.040000 5.000000 104.314278 240.099045 68529.015625
1.000000 5.040000 5.040000 -38.883678 225.391418 52313.234375
1.000000 5.040000 5.080000 -121.614334 123.888054 30138.296875
1.000000 5.040000 5.120000 -108.140533 14.872311 11915.560547
1.000000 5.040000 5.160000 -38.379494 -32.649971 2539.006348
1.000000 5.040000 5.200000 17.485882 -13.280083 482.116669
1.000000 5.080000 4.800000 46.930653 -13.351310 2380.743652
1.000000 5.080000 4.840000 91.451462 -17.685909 8676.161133
1.000000 5.080000 4.880000 138.425049 27.461853 19915.648438
1.000000 5.080000 4.920000 139.684021 111.272942 31893.292969
1.000000 5.080000 4.960000 73.538811 183.013794 38902.003906
1.000000 5.080000 5.000000 -30.427063 191.155594 37466.265625
1.000000 5.080000 5.040000 -111.299271 127.335907 28601.960938
1.000000 5.080000 5.080000 -125.316101 34.174675 16872.033203
1.000000 5.080000 5.120000 -79.039551 -30.474873 7175.968262
1.000000 5.080000 5.160000 -18.245003 -39.414135 1886.354126
1.000000 5.080000 5.200000 14.090601 -11.038797 320.400085
1.000000 5.120000 4.800000 43.612885 22.124550 2391.579346
1.000000 5.120000 4.840000 57.404949 41.291725 5000.334961
1.000000 5.120000 4.880000 53.715126 75.319435 8558.332031
1.000000 5.120000 4.920000 22.501526 105.783630 11696.495117
1.000000 5.120000 4.960000 -27.799805 110.813583 13052.479492
1.000000 5.120000 5.000000 -73.467949 81.628006 12060.670898
1.000000 5.120000 5.040000 -91.185760 30.427139 9240.653320
1.000000 5.120000 5.080000 -74.234619 -17.323574 5810.885254
1.000000 5.120000 5.120000 -36.343178 -40.288105 2943.958008
1.000000 5.120000 5.160000 -0.694289 -34.619690 1199.005005
1.000000 5.120000 5.200000 16.437170 -13.457148 451.275391
1.000000 5.160000 4.800000 17.310989 42.944656 2143.913818
1.000000 5.160000 4.840000 -0.236200 51.831566 2686.567139
1.000000 5.160000 4.880000 -20.329269 46.259079 2553.181641
1.000000 5.160000 4.920000 -31.439102 30.696352 1930.683228
1.000000 5.160000 4.960000 -31.879848 15.723808 1263.562866
1.000000 5.160000 5.000000 -28.612564 6.301666 858.389832
1.000000 5.160000 5.040000 -26.774353 -1.554848 719.283508
1.000000 5.160000 5.080000 -23.052120 -12.669865 691.925720
1.000000 5.160000 5.120000 -10.921982 -23.760727 683.861816
1.000000 5.160000 5.160000 8.772722 -25.176121 710.797668
1.000000 5.160000 5.200000 25.132387 -12.000617 775.651733
1.000000 5.200000 4.800000 -10.993683 38.152081 1576.442383
1.000000 5.200000 4.840000 -35.006386 20.302727 1637.647705
1.000000 5.200000 4.880000 -34.531235 -12.899935 1358.814453
1.000000 5.200000 4.920000 -6.767651 -32.708767 1115.664551
1.000000 5.200000 4.960000 24.124142 -21.977463 1064.983032
1.000000 5.200000 5.000000 31.133175 6.827515 1015.889526
1.000000 5.200000 5.040000 11.870407 24.453854 738.897522
1.000000 5.200000 5.080000 -9.781097 15.105148 323.835388
1.000000 5.200000 5.120000 -9.336826 -7.984602 150.930191
1.000000 5.200000 5.160000 12.891979 -17.716887 480.091187
1.000000 5.200000 5.200000 33.312294 -2.057868 1113.943848
1.040000 4.800000 4.800000 -9.838066 -6.717682 141.914795
1.040000 4.800000 4.840000 -7.975948 1.282829 65.261406
1.040000 4.800000 4.880000 -15.185722 4.174606 248.033508
1.040000 4.800000 4.920000 -20.668304 -3.990883 443.105957
1.040000 4.800000 4.960000 -13.505051 -15.392982 419.330322
1.040000 4.800000 5.000000 4.119156 -15.235401 249.084900
1.040000 4.800000 5.040000 16.602203 2.428802 281.532227
1.040000 4.800000 5.080000 9.517105 26.308094 782.691040
1.040000 4.800000 5.120000 -15.213086 36.881653 1591.694336
1.040000 4.800000 5.160000 -39.496864 24.762318 2173.174805
1.040000 4.800000 5.200000 -45.462379 0.017479 2066.828125
1.040000 4.840000 4.800000 -13.892986 -6.491682 235.157013
1.040000 4.840000 4.840000 -35.865593 1.174622 1287.720459
1.040000 4.840000 4.880000 -60.715599 -22.143833 4176.733398
1.040000 4.840000 4.920000 -55.140579 -66.969055 7525.337891
1.040000 4.840000 4.960000 -9.339653 -95.960037 9295.558594
1.040000 4.840000 5.000000 47.887009 -78.363129 8433.945312
1.040000 4.840000 5.040000 72.493622 -21.854050 5732.924805
1.040000 4.840000 5.080000 45.860542 31.541328 3098.044922
1.040000 4.840000 5.120000 -7.570778 43.093269 1914.346558
1.040000 4.840000 5.160000 -43.570812 11.881876 2039.594604
1.040000 4.840000 5.200000 -39.002834 -27.575550 2281.632080
1.040000 4.880000 4.800000 -19.573950 -13.760635 572.494629
1.040000 4.880000 4.840000 -59.572350 -31.156506 4519.592773
1.040000 4.880000 4.880000 -70.357559 -94.060516 13797.566406
1.040000 4.880000 4.920000 -16.104950 -156.728241 24823.111328
1.040000 4.880000 4.960000 81.166176 -158.323776 31654.367188
1.040000 4.880000 5.000000 153.432709 -82.415825 30333.964844
1.040000 4.880000 5.040000 146.408508 21.962135 21917.787109
1.040000 4.880000 5.080000 69.639633 81.619057 11511.349609
1.040000 4.880000 5.120000 -12.833813 63.869473 4244.016113
1.040000 4.880000 5.160000 -41.863621 1.699898 1755.452393
1.040000 4.880000 5.200000 -13.656981 -43.078892 2042.303955
1.040000 4.920000 4.800000 -17.257481 -28.752331 1124.517212
1.040000 4.920000 4.840000 -47.570602 -81.984009 8984.339844
1.040000 4.920000 4.880000 -10.060753 -162.538605 26520.017578
1.040000 4.920000 4.920000 99.921661 -193.529480 47438.000000
1.040000 4.920000 4.960000 213.361115 -124.359230 60988.183594
1.040000 4.920000 5.000000 243.549820 14.098694 59515.289062
1.040000 4.920000 5.040000 165.260773 129.768326 44150.941406
1.040000 4.920000 5.080000 39.184578 149.076309 23759.177734
1.040000 4.920000 5.120000 -43.172989 79.435699 8173.937500
1.040000 4.920000 5.160000 -39.847370 -4.903529 1611.857422
1.040000 4.920000 5.200000 13.446346 -36.018078 1478.106079
1.040000 4.960000 4.800000 -0.202559 -41.420052 1715.661743
1.040000 4.960000 4.840000 7.070992 -112.393082 12682.204102
1.040000 4.960000 4.880000 95.602562 -164.888641 36328.113281
1.040000 4.960000 4.920000 220.979675 -124.594421 64355.785156
1.040000 4.960000 4.960000 287.315857 12.636433 82710.078125
1.040000 4.960000 5.000000 232.559052 164.824478 81250.820312
1.040000 4.960000 5.040000 88.598335 230.796906 61116.875000
1.040000 4.960000 5.080000 -44.490917 177.876190 33619.382812
1.040000 4.960000 5.120000 -86.060211 66.047592 11768.644531
1.040000 4.960000 5.160000 -39.658401 -12.310543 1724.338257
1.040000 4.960000 5.200000 24.140778 -15.074186 810.008240
1.040000 5.000000 4.800000 26.339401 -38.146545 2148.922852
1.040000 5.000000 4.840000 73.388016 -91.330017 13726.972656
1.040000 5.000000 4.880000 175.447845 -83.965691 37832.183594
1.040000 5.000000 4.920000 256.132202 18.879745 65960.148438
1.040000 5.000000 4.960000 236.259399 168.584976 84239.398438
1.040000 5.000000 5.000000 109.591385 266.102203 82820.656250
1.040000 5.000000 5.040000 -45.156639 246.616302 62858.722656
1.040000 5.000000 5.080000 -130.508591 135.266846 35329.609375
1.040000 5.000000 5.120000 -111.798111 20.991020 12939.440430
1.040000 5.000000 5.160000 -37.412197 -23.880306 1969.941528
1.040000 5.000000 5.200000 16.179668 0.236645 261.837677
1.040000 5.040000 4.800000 46.162941 -14.410427 2338.677490
1.040000 5.040000 4.840000 105.096489 -26.235363 11733.566406
1.040000 5.040000 4.880000 171.495880 30.022203 30312.167969
1.040000 5.040000 4.920000 177.220001 141.244049 51356.812500
1.040000 5.040000 4.960000 91.488274 237.256989 64660.984375
1.040000 5.040000 5.000000 -44.317993 247.714890 63326.753906
1.040000 5.040000 5.040000 -147.133484 163.720764 48452.750000
1.040000 5.040000 5.080000 -161.075653 45.339420 28001.027344
1.040000 5.040000 5.120000 -100.220345 -31.465746 11034.209961
1.040000 5.040000 5.160000 -27.627905 -36.912445 2125.829590
1.040000 5.040000 5.200000 4.571064 -1.526012 23.223341
1.040000 5.080000 4.800000 44.470051 18.677094 2326.419189
1.040000 5.080000 4.840000 80.267166 39.891441 8034.145020
1.040000 5.080000 4.880000 90.694855 99.994041 18224.365234
1.040000 5.080000 4.920000 45.756981 164.199463 29055.164062
1.040000 5.080000 4.960000 -42.920006 183.315323 35446.632812
1.040000 5.080000 5.000000 -126.341698 135.573807 34342.484375
1.040000 5.080000 5.040000 -156.306137 46.585567 26601.824219
1.040000 5.080000 5.080000 -123.160156 -31.309036 16148.679688
1.040000 5.080000 5.120000 -59.576977 -60.750481 7240.037109
1.040000 5.080000 5.160000 -9.647310 -44.312965 2056.709473
1.040000 5.080000 5.200000 6.019115 -13.233752 211.361954
1.040000 5.120000 4.800000 20.974243 41.680054 2177.145752
1.040000 5.120000 4.840000 20.567410 64.355988 4564.711914
1.040000 5.120000 4.880000 -1.995300 87.910759 7732.283203
1.040000 5.120000 4.920000 -42.551758 92.879242 10437.206055
1.040000 5.120000 4.960000 -82.499260 69.253021 11602.109375
1.040000 5.120000 5.000000 -101.421799 24.277138 10875.759766
1.040000 5.120000 5.040000 -90.558609 -22.531609 8708.535156
1.040000 5.120000 5.080000 -57.161785 -52.149361 5987.025391
1.040000 5.120000 5.120000 -18.098721 -56.605095 3531.700439
1.040000 5.120000 5.160000 10.834845 -40.877140 1788.334473
1.040000 5.120000 5.200000 22.348253 -17.242884 796.761475
1.040000 5.160000 4.800000 -9.007290 42.504311 1887.747681
1.040000 5.160000 4.840000 -28.738590 40.246696 2445.703125
1.040000 5.160000 4.880000 -42.400902 23.435602 2347.063965
1.040000 5.160000 4.920000 -41.538887 3.439777 1737.311157
1.040000 5.160000 4.960000 -31.723885 -8.105659 1072.106567
1.040000 5.160000 5.000000 -24.171394 -11.491600 716.313171
1.040000 5.160000 5.040000 -21.586372 -16.160118 727.120850
1.040000 5.160000 5.080000 -15.330189 -26.704609 948.150818
1.040000 5.160000 5.120000 2.477062 -34.792793 1216.674316
1.040000 5.160000 5.160000 26.224871 -27.502104 1444.109619
1.040000 5.160000 5.200000 39.266029 -3.324130 1552.870850
1.040000 5.200000 4.800000 -27.348444 26.067734 1427.464111
1.040000 5.200000 4.840000 -38.632652 -1.629490 1495.137085
1.040000 5.200000 4.880000 -20.582869 -29.919054 1318.804199
1.040000 5.200000 4.920000 13.963190 -31.893341 1212.155884
1.040000 5.200000 4.960000 34.222977 -5.713142 1203.852173
1.040000 5.200000 5.000000 23.478516 22.180969 1043.236084
1.040000 5.200000 5.040000 -3.005150 24.479130 608.258728
1.040000 5.200000 5.080000 -14.125450 1.888096 203.093246
1.040000 5.200000 5.120000 3.766001 -17.805037 331.202087
1.040000 5.200000 5.160000 32.289680 -9.677629 1136.279907
1.040000 5.200000 5.200000 40.722446 21.602509 2124.986084
1.080000 4.800000 4.800000 -13.521887 -8.968764 263.280151
1.080000 4.800000 4.840000 -12.866642 -5.663151 197.621750
1.080000 4.800000 4.880000 -15.972250 -6.687866 299.840332
1.080000 4.800000 4.920000 -15.247383 -13.203836 406.823975
1.080000 4.800000 4.960000 -5.989059 -17.851257 354.536224
1.080000 4.800000 5.000000 6.666267 -11.803261 183.756088
1.080000 4.800000 5.040000 10.877426 4.957397 142.894196
1.080000 4.800000 5.080000 -0.565902 21.191490 449.399506
1.080000 4.800000 5.120000 -21.897968 23.548809 1034.067383
1.080000 4.800000 5.160000 -38.153839 9.047386 1537.570679
1.080000 4.800000 5.200000 -38.239006 -11.595763 1596.683350
1.080000 4.840000 4.800000 -16.418499 -19.283691 641.427856
1.080000 4.840000 4.840000 -29.196833 -25.650721 1510.414551
1.080000 4.840000 4.880000 -31.479107 -50.511124 3542.307617
1.080000 4.840000 4.920000 -6.686958 -75.625259 5763.895020
1.080000 4.840000 4.960000 36.866264 -73.919479 6823.210938
1.080000 4.840000 5.000000 68.700439 -36.835682 6076.618164
1.080000 4.840000 5.040000 62.688622 13.544266 4113.310547
1.080000 4.840000 5.080000 22.222374 41.738350 2235.923828
1.080000 4.840000 5.120000 -21.499569 30.159369 1371.818970
1.080000 4.840000 5.160000 -37.243065 -5.906345 1421.930786
1.080000 4.840000 5.200000 -20.677206 -34.032814 1585.779297
1.080000 4.880000 4.800000 -9.871414 -33.445381 1216.038330
1.080000 4.880000 4.840000 -22.289812 -61.734570 4307.992676
1.080000 4.880000 4.880000 2.196213 -104.422264 10908.832031
1.080000 4.880000 4.920000 66.740410 -118.244743 18436.101562
1.080000 4.880000 4.960000 131.730316 -74.060242 22837.796875
1.080000 4.880000 5.000000 146.406372 9.889557 21532.628906
1.080000 4.880000 5.040000 95.940147 78.603729 15383.058594
1.080000 4.880000 5.080000 17.286083 87.541092 7962.251465
1.080000 4.880000 5.120000 -33.116203 41.265137 2799.494385
1.080000 4.880000 5.160000 -28.726713 -13.807216 1015.863281
1.080000 4.880000 5.200000 8.206005 -34.129570 1232.166016
1.080000 4.920000 4.800000 8.745713 -41.807549 1824.358643
1.080000 4.920000 4.840000 17.725716 -86.492661 7795.181641
1.080000 4.920000 4.880000 80.319122 -117.506584 20258.958984
1.080000 4.920000 4.920000 165.889404 -84.539658 34666.250000
1.080000 4.920000 4.960000 208.281311 14.210800 43583.050781
1.080000 4.920000 5.000000 165.356339 120.699509 41911.089844
1.080000 4.920000 5.040000 61.133476 164.112854 30670.332031
1.080000 4.920000 5.080000 -32.669884 122.831528 16154.905273
1.080000 4.920000 5.120000 -59.206322 41.273388 5208.880859
1.080000 4.920000 5.160000 -22.705126 -13.740723 704.330200
1.080000 4.920000 5.200000 24.434446 -12.755142 759.735840
1.080000 4.960000 4.800000 32.287498 -34.670883 2244.552734
1.080000 4.960000 4.840000 71.326973 -72.734085 10377.784180
1.080000 4.960000 4.880000 152.466232 -62.094109 27101.628906
1.080000 4.960000 4.920000 214.117584 24.338802 46438.718750
1.080000 4.960000 4.960000 193.273315 145.894104 58639.664062
1.080000 4.960000 5.000000 87.117584 222.029602 56886.617188
1.080000 4.960000 5.040000 -38.448895 201.943115 42259.339844
1.080000 4.960000 5.080000 -104.375122 109.135300 22804.679688
1.080000 4.960000 5.120000 -85.237816 17.840973 7583.785645
1.080000 4.960000 5.160000 -23.808386 -14.268751 770.436523
1.080000 4.960000 5.200000 16.618862 8.817461 353.934204
1.080000 5.000000 4.800000 47.035057 -11.294670 2339.866211
1.080000 5.000000 4.840000 101.612213 -20.395992 10741.038086
1.080000 5.000000 4.880000 162.683655 34.403229 27649.552734
1.080000 5.000000 4.920000 165.447601 140.095490 46999.656250
1.080000 5.000000 4.960000 81.828484 229.155273 59208.042969
1.080000 5.000000 5.000000 -46.714130 235.541687 57662.097656
1.080000 5.000000 5.040000 -140.547485 153.766373 43397.695312
1.080000 5.000000 5.080000 -149.117889 43.670975 24143.298828
1.080000 5.000000 5.120000 -90.146133 -23.241917 8666.511719
1.080000 5.000000 5.160000 -25.645445 -23.162144 1194.173828
1.080000 5.000000 5.200000 -2.359936 10.276995 111.185921
1.080000 5.040000 4.800000 42.829975 17.482140 2140.031982
1.080000 5.040000 4.840000 85.303673 39.166473 8810.729492
1.080000 5.040000 4.880000 100.144562 107.936211 21679.160156
1.080000 5.040000 4.920000 50.048210 183.086975 36025.664062
1.080000 5.040000 4.960000 -51.489841 205.561310 44906.656250
1.080000 5.040000 5.000000 -145.591293 150.213287 43760.855469
1.080000 5.040000 5.040000 -176.106689 49.569843 33470.734375
1.080000 5.040000 5.080000 -135.393127 -33.896107 19480.244141
1.080000 5.040000 5.120000 -65.595512 -59.851627 7884.988770
1.080000 5.040000 5.160000 -17.441219 -37.583389 1716.707275
1.080000 5.040000 5.200000 -8.538288 -6.890799 120.385468
1.080000 5.080000 4.800000 21.439634 36.490669 1791.226929
1.080000 5.080000 4.840000 33.791992 67.962730 5760.831055
1.080000 5.080000 4.880000 10.608761 112.098846 12678.697266
1.080000 5.080000 4.920000 -49.952194 131.940018 19903.390625
1.080000 5.080000 4.960000 -116.737053 102.400963 24113.496094
1.080000 5.080000 5.000000 -149.328369 33.329624 23409.824219
1.080000 5.080000 5.040000 -130.367020 -37.671001 18414.664062
1.080000 5.080000 5.080000 -77.223465 -75.288132 11631.765625
1.080000 5.080000 5.120000 -24.522120 -71.580734 5725.136230
1.080000 5.080000 5.160000 3.942698 -45.326035 2069.994385
1.080000 5.080000 5.200000 8.348956 -20.764112 500.853455
1.080000 5.120000 4.800000 -4.657907 37.575256 1433.595947
1.080000 5.120000 4.840000 -16.572632 52.877724 3070.705811
1.080000 5.120000 4.880000 -43.768913 56.851219 5147.778809
1.080000 5.120000 4.920000 -72.559685 39.577698 6831.301758
1.080000 5.120000 4.960000 -86.599197 5.341232 7527.949707
1.080000 5.120000 5.000000 -78.481895 -31.545677 7154.537598
1.080000 5.120000 5.040000 -52.627472 -57.199272 6041.407715
1.080000 5.120000 5.080000 -19.744099 -65.189323 4639.477539
1.080000 5.120000 5.120000 9.872625 -56.469734 3286.299561
1.080000 5.120000 5.160000 29.071499 -36.089569 2147.609131
1.080000 5.120000 5.200000 33.937847 -11.374561 1281.158081
1.080000 5.160000 4.800000 -22.376236 24.947769 1123.087158
1.080000 5.160000 4.840000 -35.956326 14.273243 1496.582764
1.080000 5.160000 4.880000 -37.641552 -4.950535 1441.394287
1.080000 5.160000 4.920000 -26.234219 -18.847725 1043.470947
1.080000 5.160000 4.960000 -13.043030 -20.746765 600.548889
1.080000 5.160000 5.000000 -7.722969 -17.928928 381.090729
1.080000 5.160000 5.040000 -6.484299 -21.222698 492.449066
1.080000 5.160000 5.080000 2.722984 -29.848841 898.367981
1.080000 5.160000 5.120000 23.604383 -30.221117 1470.482910
1.080000 5.160000 5.160000 43.212776 -11.574425 2001.311279
1.080000 5.160000 5.200000 43.330662 18.920183 2235.519531
1.080000 5.200000 4.800000 -27.736267 9.916155 867.630676
1.080000 5.200000 4.840000 -24.201122 -15.406661 823.059570
1.080000 5.200000 4.880000 1.850706 -28.069921 791.345581
1.080000 5.200000 4.920000 28.030422 -13.238350 960.958496
1.080000 5.200000 4.960000 29.819221 15.646404 1133.995972
1.080000 5.200000 5.000000 7.706062 29.912153 954.120361
1.080000 5.200000 5.040000 -12.217266 16.608696 425.110382
1.080000 5.200000 5.080000 -6.236475 -6.630217 82.853394
1.080000 5.200000 5.120000 20.529112 -10.115108 523.759827
1.080000 5.200000 5.160000 38.599831 15.389509 1726.783936
1.080000 5.200000 5.200000 25.458935 47.559418 2910.055664
1.120000 4.800000 4.800000 -15.090542 -16.177271 489.428558
1.120000 4.800000 4.840000 -10.297178 -15.305849 340.300903
1.120000 4.800000 4.880000 -8.341743 -14.162189 270.152283
1.120000 4.800000 4.920000 -6.278336 -14.859271 260.215454
1.120000 4.800000 4.960000 -1.198097 -14.832481 221.437943
1.120000 4.800000 5.000000 4.977150 -9.589550 116.731491
1.120000 4.800000 5.040000 5.959665 1.211105 36.984386
1.120000 4.800000 5.080000 -2.666769 11.141863 131.252762
1.120000 4.800000 5.120000 -17.548824 11.702834 444.917572
1.120000 4.800000 5.160000 -28.816322 0.481805 830.612549
1.120000 4.800000 5.200000 -28.270832 -15.528427 1040.371948
1.120000 4.840000 4.800000 -7.267323 -32.808556 1129.215332
1.120000 4.840000 4.840000 -4.268810 -38.891144 1530.743896
1.120000 4.840000 4.880000 6.592136 -47.769073 2325.340576
1.120000 4.840000 4.920000 27.852270 -48.578762 3135.645264
1.120000 4.840000 4.960000 49.267677 -31.629471 3427.727295
1.120000 4.840000 5.000000 54.346817 -0.636581 2953.981689
1.120000 4.840000 5.040000 35.539955 26.726141 1977.375000
1.120000 4.840000 5.080000 3.321037 32.515923 1068.314575
1.120000 4.840000 5.120000 -20.980984 14.291517 644.449158
1.120000 4.840000 5.160000 -22.862764 -12.364250 675.580688
1.120000 4.840000 5.200000 -6.341372 -27.539951 798.661926
1.120000 4.880000 4.800000 13.911716 -41.054276 1878.989258
1.120000 4.880000 4.840000 24.392853 -54.534859 3569.062012
1.120000 4.880000 4.880000 53.958946 -60.880379 6617.988281
1.120000 4.880000 4.920000 90.597038 -40.291805 9831.252930
1.120000 4.880000 4.960000 106.742943 7.926678 11456.887695
1.120000 4.880000 5.000000 83.825981 58.569160 10457.141602
1.120000 4.880000 5.040000 32.041023 79.332413 7320.258789
1.120000 4.880000 5.080000 -15.514717 58.842056 3703.094238
1.120000 4.880000 5.120000 -30.389050 16.828667 1206.698364
1.120000 4.880000 5.160000 -12.112450 -13.797323 337.077576
1.120000 4.880000 5.200000 14.635753 -15.661613 459.491364
1.120000 4.920000 4.800000 38.253395 -31.317900 2444.133057
1.120000 4.920000 4.840000 62.575745 -42.809052 5748.338867
1.120000 4.920000 4.880000 104.616241 -28.473080 11755.273438
1.120000 4.920000 4.920000 132.836761 24.059946 18224.486328
1.120000 4.920000 4.960000 115.259415 92.207672 21786.988281
1.120000 4.920000 5.000000 51.917099 132.707611 20306.695312
1.120000 4.920000 5.040000 -20.292265 118.686409 14498.240234
1.120000 4.920000 5.080000 -57.494102 64.045074 7407.343262
1.120000 4.920000 5.120000 -45.671497 10.958843 2205.981934
1.120000 4.920000 5.160000 -9.387457 -7.493076 144.270538
1.120000 4.920000 5.200000 14.565472 6.641770 256.266083
1.120000 4.960000 4.800000 50.469444 -5.774933 2580.514648
1.120000 4.960000 4.840000 83.738937 -2.913295 7020.696777
1.120000 4.960000 4.880000 117.075027 38.344109 15176.833008
1.120000 4.960000 4.920000 111.313812 107.947350 24043.394531
1.120000 4.960000 4.960000 51.308182 162.700684 29104.041016
1.120000 4.960000 5.000000 -34.252724 162.089783 27446.347656
1.120000 4.960000 5.040000 -93.936035 105.317535 19915.761719
1.120000 4.960000 5.080000 -96.915054 32.923782 10476.502930
1.120000 4.960000 5.120000 -57.186592 -8.945129 3350.321777
1.120000 4.960000 5.160000 -16.363976 -6.845824 314.645020
1.120000 4.960000 5.200000 -4.058515 15.083486 243.983078
1.120000 5.000000 4.800000 42.297424 21.646149 2257.627930
1.120000 5.000000 4.840000 70.090988 42.596008 6727.166504
1.120000 5.000000 4.880000 75.349960 96.251831 14942.031250
1.120000 5.000000 4.920000 31.826721 151.152161 23859.916016
1.120000 5.000000 4.960000 -47.868454 163.515518 29028.712891
1.120000 5.000000 5.000000 -117.965248 117.057419 27618.238281
1.120000 5.000000 5.040000 -137.397827 39.426628 20432.621094
1.120000 5.000000 5.080000 -103.936218 -21.291882 11256.081055
1.120000 5.000000 5.120000 -52.369167 -37.136021 4121.613770
1.120000 5.000000 5.160000 -20.600891 -19.181635 792.331848
1.120000 5.000000 5.200000 -18.118834 0.518006 328.560455
1.120000 5.040000 4.800000 19.481472 35.862297 1665.632080
1.120000 5.040000 4.840000 29.240580 65.041496 5085.407227
1.120000 5.040000 4.880000 6.189011 105.745018 11220.312500
1.120000 5.040000 4.920000 -51.417709 122.939728 17757.957031
1.120000 5.040000 4.960000 -113.269943 93.338959 21542.242188
1.120000 5.040000 5.000000 -140.998093 28.112450 20670.773438
1.120000 5.040000 5.040000 -120.382568 -35.486412 15751.248047
1.120000 5.040000 5.080000 -71.322807 -65.257339 9345.462891
1.120000 5.040000 5.120000 -27.735201 -58.033432 4137.120605
1.120000 5.040000 5.160000 -8.715559 -35.580284 1341.917603
1.120000 5.040000 5.200000 -8.244694 -20.252247 478.128479
1.120000 5.080000 4.800000 -3.399455 32.481415 1066.598633
1.120000 5.080000 4.840000 -11.646818 53.494614 2997.322021
1.120000 5.080000 4.880000 -43.036983 65.599533 6155.480957
1.120000 5.080000 4.920000 -82.567215 49.943230 9311.671875
1.120000 5.080000 4.960000 -104.910011 7.728241 11065.835938
1.120000 5.080000 5.000000 -95.454376 -40.106239 10720.048828
1.120000 5.080000 5.040000 -60.997154 -70.102493 8635.011719
1.120000 5.080000 5.080000 -21.701099 -73.429474 5862.825195
1.120000 5.080000 5.120000 5.789520 -58.163391 3416.498535
1.120000 5.080000 5.160000 17.797468 -38.059219 1765.254028
1.120000 5.080000 5.200000 19.668304 -21.143375 833.884521
1.120000 5.120000 4.800000 -15.557608 19.723648 631.061462
1.120000 5.120000 4.840000 -29.175280 22.570822 1360.638916
1.120000 5.120000 4.880000 -45.389812 12.174673 2208.457764
1.120000 5.120000 4.920000 -52.408768 -9.257111 2832.373047
1.120000 5.120000 4.960000 -45.411045 -31.717567 3068.167236
1.120000 5.120000 5.000000 -28.384972 -46.706184 2987.174316
1.120000 5.120000 5.040000 -7.866577 -52.090130 2775.264648
1.120000 5.120000 5.080000 12.449686 -49.052338 2561.126465
1.120000 5.120000 5.120000 30.388395 -37.579315 2335.659668
1.120000 5.120000 5.160000 41.236221 -17.618019 2010.820557
1.120000 5.120000 5.200000 38.829418 5.845129 1541.889282
1.120000 5.160000 4.800000 -17.932091 8.959745 401.836914
1.120000 5.160000 4.840000 -22.164526 -2.996836 500.247223
1.120000 5.160000 4.880000 -14.756528 -15.282202 451.300781
1.120000 5.160000 4.920000 -1.606144 -17.613136 312.802277
1.120000 5.160000 4.960000 5.743462 -11.384989 162.605316
1.120000 5.160000 5.000000 4.583534 -7.687473 80.106033
1.120000 5.160000 5.040000 4.854542 -12.722190 185.420685
1.120000 5.160000 5.080000 16.584604 -18.244930 607.926575
1.120000 5.160000 5.120000 35.233524 -9.784161 1337.131104
1.120000 5.160000 5.160000 43.190933 15.348337 2101.028076
1.120000 5.160000 5.200000 27.975615 41.064766 2468.949951
1.120000 5.200000 4.800000 -19.112886 3.638753 378.542969
1.120000 5.200000 4.840000 -8.016293 -10.996372 185.181152
1.120000 5.200000 4.880000 12.738041 -8.608625 236.366119
1.120000 5.200000 4.920000 22.089607 11.340778 616.563965
1.120000 5.200000 4.960000 9.808907 29.205814 949.194275
1.120000 5.200000 5.000000 -10.416954 26.383713 804.613220
1.120000 5.200000 5.040000 -14.961720 7.181612 275.428619
1.120000 5.200000 5.080000 2.963108 -4.263065 26.953735
1.120000 5.200000 5.120000 23.822304 9.713915 661.862305
1.120000 5.200000 5.160000 21.654560 39.301304 2013.512451
1.120000 5.200000 5.200000 -7.281809 55.631611 3147.900879
1.160000 4.800000 4.800000 -10.205175 -24.189720 689.288208
1.160000 4.800000 4.840000 -1.285793 -19.967369 400.349091
1.160000 4.800000 4.880000 0.612793 -13.365536 179.013062
1.160000 4.800000 4.920000 -1.633377 -10.904726 121.580971
1.160000 4.800000 4.960000 -1.397610 -12.549824 159.451385
1.160000 4.800000 5.000000 3.549354 -12.096277 158.917831
1.160000 4.800000 5.040000 7.699962 -4.908367 83.381477
1.160000 4.800000 5.080000 3.614370 5.391135 42.128014
1.160000 4.800000 5.120000 -9.019590 9.256847 167.042236
1.160000 4.800000 5.160000 -21.141626 0.927956 447.829468
1.160000 4.800000 5.200000 -22.226732 -14.622240 707.837524
1.160000 4.840000 4.800000 10.390624 -36.236794 1421.070312
1.160000 4.840000 4.840000 20.485355 -29.610455 1296.428711
1.160000 4.840000 4.880000 25.809875 -21.391022 1123.725464
1.160000 4.840000 4.920000 28.739174 -13.334543 1003.750183
1.160000 4.840000 4.960000 30.054138 -3.840670 918.001953
1.160000 4.840000 5.000000 26.847948 7.695444 780.032166
1.160000 4.840000 5.040000 16.142563 17.165806 555.247192
1.160000 4.840000 5.080000 0.403734 17.926071 321.507019
1.160000 4.840000 5.120000 -11.965628 7.553514 200.231812
1.160000 4.840000 5.160000 -13.043771 -7.993716 234.039459
1.160000 4.840000 5.200000 -2.843227 -18.185226 338.786407
1.160000 4.880000 4.800000 36.861851 -28.724998 2183.921631
1.160000 4.880000 4.840000 47.343624 -18.034508 2566.662109
1.160000 4.880000 4.880000 53.982475 -3.139822 2923.966064
1.160000 4.880000 4.920000 54.060394 15.510015 3163.086670
1.160000 4.880000 4.960000 44.025162 34.135990 3103.480713
1.160000 4.880000 5.000000 24.005081 45.262726 2624.958252
1.160000 4.880000 5.040000 0.889332 42.517185 1808.501953
1.160000 4.880000 5.080000 -14.603237 26.820675 932.603088
1.160000 4.880000 5.120000 -15.687369 7.430355 301.303741
1.160000 4.880000 5.160000 -5.130667 -4.422100 45.878712
1.160000 4.880000 5.200000 6.988592 -4.151671 66.076790
1.160000 4.920000 4.800000 51.135815 -2.465443 2620.949951
1.160000 4.920000 4.840000 59.022732 13.355351 3662.048340
1.160000 4.920000 4.880000 59.800949 36.029819 4874.301758
1.160000 4.920000 4.920000 46.741379 60.270924 5817.340820
1.160000 4.920000 4.960000 19.418341 74.760757 5966.242676
1.160000 4.920000 5.000000 -12.314814 70.260826 5088.238281
1.160000 4.920000 5.040000 -33.644524 48.324600 3467.221191
1.160000 4.920000 5.080000 -35.883324 21.655346 1756.566895
1.160000 4.920000 5.120000 -23.237051 4.666405 561.735840
1.160000 4.920000 5.160000 -8.612755 2.477442 80.317261
1.160000 4.920000 5.200000 -2.319797 8.473379 77.179611
1.160000 4.960000 4.800000 42.335083 26.681284 2504.150146
1.160000 4.960000 4.840000 43.710823 45.667572 3996.163086
1.160000 4.960000 4.880000 32.393890 69.716599 5909.768555
1.160000 4.960000 4.920000 4.187388 86.498520 7499.528320
1.160000 4.960000 4.960000 -32.132797 83.003891 7922.162598
1.160000 4.960000 5.000000 -59.105545 57.834602 6838.306641
1.160000 4.960000 5.040000 -64.141251 24.255899 4702.448730
1.160000 4.960000 5.080000 -49.702286 0.050026 2470.319580
1.160000 4.960000 5.120000 -30.239979 -6.550657 957.367432
1.160000 4.960000 5.160000 -18.999462 -1.645439 363.687012
1.160000 4.960000 5.200000 -17.601915 2.695928 317.095459
1.160000 5.000000 4.800000 16.851824 40.204426 1900.379883
1.160000 5.000000 4.840000 10.123171 57.238434 3378.716797
1.160000 5.000000 4.880000 -11.807045 72.490944 5394.343262
1.160000 5.000000 4.920000 -44.891590 71.537811 7132.913086
1.160000 5.000000 4.960000 -73.097580 48.553902 7700.737793
1.160000 5.000000 5.000000 -81.127129 13.388453 6760.861328
1.160000 5.000000 5.040000 -67.365128 -15.821717 4788.387207
1.160000 5.000000 5.080000 -44.401520 -27.500710 2727.783936
1.160000 5.000000 5.120000 -27.003262 -24.549938 1331.875610
1.160000 5.000000 5.160000 -19.913242 -18.422327 735.919373
1.160000 5.000000 5.200000 -17.068075 -16.630905 567.906189
1.160000 5.040000 4.800000 -6.988609 32.709095 1118.725586
1.160000 5.040000 4.840000 -18.978001 42.512436 2167.471680
1.160000 5.040000 4.880000 -41.938763 43.317993 3635.308350
1.160000 5.040000 4.920000 -64.806000 26.749023 4915.327637
1.160000 5.040000 4.960000 -73.345360 -2.550814 5386.048828
1.160000 5.040000 5.000000 -62.763527 -30.165737 4849.231934
1.160000 5.040000 5.040000 -41.159306 -44.225861 3650.015137
1.160000 5.040000 5.080000 -21.118479 -44.151482 2395.343506
1.160000 5.040000 5.120000 -8.822805 -37.865536 1511.640747
1.160000 5.040000 5.160000 -1.680869 -32.031914 1028.868774
1.160000 5.040000 5.200000 4.830412 -26.395403 720.050171
1.160000 5.080000 4.800000 -15.466709 15.685137 485.242615
1.160000 5.080000 4.840000 -26.776960 16.448244 987.550354
1.160000 5.080000 4.880000 -40.079758 6.707529 1651.377930
1.160000 5.080000 4.920000 -45.267036 -12.168018 2197.165039
1.160000 5.080000 4.960000 -37.931931 -31.052986 2403.119141
1.160000 5.080000 5.000000 -22.586918 -41.784740 2256.133301
1.160000 5.080000 5.040000 -6.876406 -43.469700 1936.899658
1.160000 5.080000 5.080000 5.700255 -40.172874 1646.352783
1.160000 5.080000 5.120000 16.299736 -34.311874 1442.986084
1.160000 5.080000 5.160000 25.271914 -24.424154 1235.208984
1.160000 5.080000 5.200000 28.801813 -9.745117 924.511719
1.160000 5.120000 4.800000 -11.168872 5.163001 151.400284
1.160000 5.120000 4.840000 -16.446186 -0.431280 270.663055
1.160000 5.120000 4.880000 -16.378119 -10.381832 376.025208
1.160000 5.120000 4.920000 -9.751229 -18.189518 425.945007
1.160000 5.120000 4.960000 -1.485359 -20.469074 421.189301
1.160000 5.120000 5.000000 4.383839 -20.195724 427.085327
1.160000 5.120000 5.040000 9.954004 -21.184948 547.884216
1.160000 5.120000 5.080000 19.720148 -21.180405 837.493774
1.160000 5.120000 5.120000 32.188843 -13.281710 1212.525391
1.160000 5.120000 5.160000 38.030251 4.708965 1468.474243
1.160000 5.120000 5.200000 28.925732 24.128563 1418.885498
1.160000 5.160000 4.800000 -8.075560 5.598121 96.553619
1.160000 5.160000 4.840000 -5.321196 -1.395535 30.262648
1.160000 5.160000 4.880000 3.087669 -2.939379 18.173649
1.160000 5.160000 4.920000 8.502825 3.265858 82.963852
1.160000 5.160000 4.960000 5.391487 9.437939 118.142822
1.160000 5.160000 5.000000 -0.433350 6.975196 48.841152
1.160000 5.160000 5.040000 2.357671 -1.533543 7.910364
1.160000 5.160000 5.080000 16.139938 -2.956551 269.238800
1.160000 5.160000 5.120000 28.397915 11.764309 944.840576
1.160000 5.160000 5.160000 23.283459 34.867096 1757.833740
1.160000 5.160000 5.200000 -0.457673 46.739307 2184.772217
1.160000 5.200000 4.800000 -15.208260 6.473283 273.194550
1.160000 5.200000 4.840000 -5.608851 2.322339 36.852474
1.160000 5.200000 4.880000 2.828368 10.571311 119.752281
1.160000 5.200000 4.920000 -1.604885 23.000202 531.584961
1.160000 5.200000 4.960000 -15.820499 24.515781 851.311768
1.160000 5.200000 5.000000 -23.551025 11.484163 686.536804
1.160000 5.200000 5.040000 -13.781559 -1.690615 192.789551
1.160000 5.200000 5.080000 4.548107 2.638189 27.645321
1.160000 5.200000 5.120000 9.866012 24.437540 694.531555
1.160000 5.200000 5.160000 -8.716482 43.051807 1929.435181
1.160000 5.200000 5.200000 -37.448410 37.655315 2820.306152
1.200000 4.800000 4.800000 -0.747115 -26.880615 723.125671
1.200000 4.800000 4.840000 6.820184 -16.965698 334.349854
1.200000 4.800000 4.880000 3.572241 -8.399992 83.320770
1.200000 4.800000 4.920000 -2.663971 -9.074379 89.441093
1.200000 4.800000 4.960000 -1.566710 -15.403434 239.720352
1.200000 4.800000 5.000000 7.863420 -16.292763 327.287506
1.200000 4.800000 5.040000 15.375626 -5.829774 270.396118
1.200000 4.800000 5.080000 10.237113 8.891386 183.855225
1.200000 4.800000 5.120000 -6.363788 13.926218 234.437347
1.200000 4.800000 5.160000 -20.860844 2.844538 443.266205
1.200000 4.800000 5.200000 -20.080498 -15.713230 650.131958
1.200000 4.840000 4.800000 24.801542 -26.285156 1306.025879
1.200000 4.840000 4.840000 27.723335 -8.426857 839.595215
1.200000 4.840000 4.880000 18.115011 2.453830 334.174896
1.200000 4.840000 4.920000 8.141442 0.944543 67.175240
1.200000 4.840000 4.960000 7.583119 -5.350841 86.135185
1.200000 4.840000 5.000000 13.944555 -5.053374 219.987213
1.200000 4.840000 5.040000 16.092333 4.106681 275.828003
1.200000 4.840000 5.080000 7.308846 12.699796 214.704025
1.200000 4.840000 5.120000 -6.517380 10.094718 144.379562
1.200000 4.840000 5.160000 -12.573835 -3.363887 169.417068
1.200000 4.840000 5.200000 -4.670444 -15.842677 272.803467
1.200000 4.880000 4.800000 43.171104 -4.743067 1886.240967
1.200000 4.880000 4.840000 35.353188 16.399958 1518.806519
1.200000 4.880000 4.880000 17.453833 23.857624 873.822510
1.200000 4.880000 4.920000 4.274504 17.095812 310.538177
1.200000 4.880000 4.960000 3.337471 7.428253 66.317657
1.200000 4.880000 5.000000 9.034204 5.743357 114.602982
1.200000 4.880000 5.040000 10.261048 11.911759 247.179138
1.200000 4.880000 5.080000 2.815026 16.471884 279.247345
1.200000 4.880000 5.120000 -6.603575 11.933424 186.013794
1.200000 4.880000 5.160000 -8.379561 1.161365 71.565819
1.200000 4.880000 5.200000 -0.702938 -5.919757 35.537643
1.200000 4.920000 4.800000 39.340866 24.807999 2163.140625
1.200000 4.920000 4.840000 19.960495 40.378201 2028.820435
1.200000 4.920000 4.880000 -2.527843 37.894115 1442.354004
1.200000 4.920000 4.920000 -13.705217 22.946568 714.377930
1.200000 4.920000 4.960000 -10.260260 9.640828 198.218491
1.200000 4.920000 5.000000 -1.390365 7.495989 58.122974
1.200000 4.920000 5.040000 1.313764 13.803338 192.258102
1.200000 4.920000 5.080000 -5.071421 18.235645 358.258057
1.200000 4.920000 5.120000 -13.410476 14.043777 377.068542
1.200000 4.920000 5.160000 -15.042194 4.229268 244.154312
1.200000 4.920000 5.200000 -8.620596 -2.644423 81.307648
1.200000 4.960000 4.800000 15.068947 41.654148 1962.141113
1.200000 4.960000 4.840000 -9.278450 44.415688 2058.843018
1.200000 4.960000 4.880000 -27.835712 30.182537 1685.812500
1.200000 4.960000 4.920000 -30.185501 9.877672 1008.732910
1.200000 4.960000 4.960000 -19.018166 -1.987363 365.640228
1.200000 4.960000 5.000000 -7.161672 0.322181 51.393341
1.200000 4.960000 5.040000 -5.687883 9.704263 126.524727
1.200000 4.960000 5.080000 -14.407631 13.892303 400.575928
1.200000 4.960000 5.120000 -23.359926 7.153188 596.854248
1.200000 4.960000 5.160000 -23.072031 -5.168899 559.036133
1.200000 4.960000 5.200000 -13.246906 -12.725626 337.422089
1.200000 5.000000 4.800000 -11.433105 35.224716 1371.496582
1.200000 5.000000 4.840000 -30.566967 25.246521 1571.726318
1.200000 5.000000 4.880000 -37.563755 4.933358 1435.373657
1.200000 5.000000 4.920000 -28.662659 -12.560021 979.302124
1.200000 5.000000 4.960000 -12.561498 -16.218323 420.825226
1.200000 5.000000 5.000000 -3.234332 -6.941068 58.639320
1.200000 5.000000 5.040000 -7.458471 3.353950 66.877777
1.200000 5.000000 5.080000 -18.913298 2.899100 366.117615
1.200000 5.000000 5.120000 -24.585678 -9.005177 685.548767
1.200000 5.000000 5.160000 -17.260578 -21.798414 773.098389
1.200000 5.000000 5.200000 -2.043654 -23.998005 580.080750
1.200000 5.040000 4.800000 -21.653460 14.648205 683.442200
1.200000 5.040000 4.840000 -29.057810 -0.537370 844.645081
1.200000 5.040000 4.880000 -23.722622 -17.202818 858.699768
1.200000 5.040000 4.920000 -8.712118 -24.245781 663.758911
1.200000 5.040000 4.960000 4.260000 -17.680679 330.754028
1.200000 5.040000 5.000000 5.048829 -5.416610 54.830341
1.200000 5.040000 5.040000 -4.998293 -0.500706 25.233641
1.200000 5.040000 5.080000 -13.884444 -8.568996 266.205475
1.200000 5.040000 5.120000 -10.522918 -22.085779 598.513428
1.200000 5.040000 5.160000 4.253970 -27.491989 773.905701
1.200000 5.040000 5.200000 18.312550 -18.418346 674.584961
1.200000 5.080000 4.800000 -13.736991 -0.434584 188.893784
1.200000 5.080000 4.840000 -10.835938 -11.850088 257.842133
1.200000 5.080000 4.880000 0.180284 -18.213072 331.748474
1.200000 5.080000 4.920000 11.967489 -13.897903 336.372498
1.200000 5.080000 4.960000 14.832768 -2.635767 226.958282
1.200000 5.080000 5.000000 6.858868 4.482799 67.139557
1.200000 5.080000 5.040000 -2.788545 -0.199374 7.815734
1.200000 5.080000 5.080000 -2.345952 -12.271822 156.101105
1.200000 5.080000 5.120000 10.249784 -18.710564 455.143280
1.200000 5.080000 5.160000 24.288965 -10.851297 707.704529
1.200000 5.080000 5.200000 26.432447 6.345566 738.940430
1.200000 5.120000 4.800000 -3.082147 0.546749 9.798563
1.200000 5.120000 4.840000 3.413433 -3.413052 23.300451
1.200000 5.120000 4.880000 11.685019 -0.329974 136.648544
1.200000 5.120000 4.920000 13.934888 8.934014 273.997711
1.200000 5.120000 4.960000 6.760733 15.842253 296.684479
1.200000 5.120000 5.000000 -3.147653 12.417663 164.106064
1.200000 5.120000 5.040000 -4.454559 0.977368 20.798344
1.200000 5.120000 5.080000 6.574730 -6.324120 83.221573
1.200000 5.120000 5.120000 20.379061 0.513438 415.569733
1.200000 5.120000 5.160000 22.526869 17.900879 827.901245
1.200000 5.120000 5.200000 8.590177 30.804674 1022.719116
1.200000 5.160000 4.800000 -5.397008 8.839463 107.263802
1.200000 5.160000 4.840000 -0.461707 9.554962 91.510475
1.200000 5.160000 4.880000 1.437805 16.027843 258.959045
1.200000 5.160000 4.920000 -4.770406 22.167423 514.151428
1.200000 5.160000 4.960000 -15.027044 19.422590 603.049072
1.200000 5.160000 5.000000 -18.275412 7.606354 391.847290
1.200000 5.160000 5.040000 -8.463434 -2.123044 76.137039
1.200000 5.160000 5.080000 6.576619 2.246984 48.300854
1.200000 5.160000 5.120000 10.982208 19.637077 506.223694
1.200000 5.160000 5.160000 -2.841393 34.478027 1196.807861
1.200000 5.160000 5.200000 -24.639015 31.409454 1593.634888
1.200000 5.200000 4.800000 -19.361662 6.410288 415.965759
1.200000 5.200000 4.840000 -15.485798 7.661551 298.509277
1.200000 5.200000 4.880000 -17.460453 12.714898 466.536072
1.200000 5.200000 4.920000 -25.983124 12.473276 830.705322
1.200000 5.200000 4.960000 -31.550848 2.258317 1000.555969
1.200000 5.200000 5.000000 -24.650480 -10.058580 708.821228
1.200000 5.200000 5.040000 -8.596845 -10.579713 185.836060
1.200000 5.200000 5.080000 0.858750 4.710524 22.926489
1.200000 5.200000 5.120000 -8.684986 22.570244 584.844849
1.200000 5.200000 5.160000 -31.316971 24.082037 1560.697266
1.200000 5.200000 5.200000 -46.315880 4.616262 2166.470459
