#kx 	ky 	kz 	real 	imag 	intensity
0.800000 4.800000 4.983333 -103.675049 -76.056870 16533.164062
0.800000 4.800000 4.991667 50.451630 -41.959999 4306.008301
0.800000 4.800000 5.000000 -91.024170 35.017029 9511.591797
0.800000 4.800000 5.008333 -51.679928 -158.120499 27672.906250
0.800000 4.800000 5.016667 104.544670 -29.318760 11789.177734
0.800000 4.900000 4.983333 -5.335159 -107.820824 11653.793945
0.800000 4.900000 4.991667 61.169777 9.773483 3837.262695
0.800000 4.900000 5.000000 -60.815891 -75.909988 9460.898438
0.800000 4.900000 5.008333 113.557259 -99.060318 22708.197266
0.800000 4.900000 5.016667 84.089256 17.482498 7376.640625
0.800000 5.000000 4.983333 50.664162 -52.836937 5358.599121
0.800000 5.000000 4.991667 87.183990 -5.771000 7634.352539
0.800000 5.000000 5.000000 74.897644 24.076384 6189.329590
0.800000 5.000000 5.008333 84.862549 15.490204 7441.598633
0.800000 5.000000 5.016667 106.050186 153.301208 34747.902344
0.800000 5.100000 4.983333 10.216942 -1.605076 106.962173
0.800000 5.100000 4.991667 95.049301 113.573586 21933.328125
0.800000 5.100000 5.000000 -133.804108 98.940895 27692.839844
0.800000 5.100000 5.008333 26.117386 -6.221321 720.822693
0.800000 5.100000 5.016667 -155.707504 122.086884 39150.031250
0.800000 5.200000 4.983333 23.283302 -40.996559 2222.830078
0.800000 5.200000 4.991667 -41.703819 109.984299 13835.753906
0.800000 5.200000 5.000000 -89.678680 -153.079437 31475.580078
0.800000 5.200000 5.008333 101.813820 -3.090363 10375.604492
0.800000 5.200000 5.016667 -16.365788 -80.536850 6754.022949
0.900000 4.800000 4.983333 -34.409279 -46.841267 3378.102539
0.900000 4.800000 4.991667 -13.353334 -112.961792 12938.677734
0.900000 4.800000 5.000000 39.646111 -29.605484 2448.298828
0.900000 4.800000 5.008333 25.277351 -108.998199 12519.551758
0.900000 4.800000 5.016667 144.245483 52.976669 23613.287109
0.900000 4.900000 4.983333 474.391602 -538.789307 515341.312500
0.900000 4.900000 4.991667 -218.108643 746.738098 605189.187500
0.900000 4.900000 5.000000 -777.476074 -531.508789 886970.625000
0.900000 4.900000 5.008333 -23.254272 -529.381287 280785.281250
0.900000 4.900000 5.016667 183.644043 -669.401550 481823.562500
0.900000 5.000000 4.983333 933.884705 534.082886 1157385.125000
0.900000 5.000000 4.991667 -1162.040771 -198.111160 1389586.750000
0.900000 5.000000 5.000000 623.892334 -1285.312134 2041268.875000
0.900000 5.000000 5.008333 788.402466 -269.434021 694173.125000
0.900000 5.000000 5.016667 1208.205688 165.436447 1487130.250000
0.900000 5.100000 4.983333 -155.221039 662.920410 463557.031250
0.900000 5.100000 4.991667 -34.914246 -630.539429 398798.968750
0.900000 5.100000 5.000000 778.696472 220.785370 655114.375000
0.900000 5.100000 5.008333 281.600342 457.584869 288682.656250
0.900000 5.100000 5.016667 -25.724819 801.720215 643417.062500
0.900000 5.200000 4.983333 -11.437057 153.342056 23644.593750
0.900000 5.200000 4.991667 -188.673004 -46.028507 37716.128906
0.900000 5.200000 5.000000 61.673855 -107.545326 15369.661133
0.900000 5.200000 5.008333 -18.237513 43.371323 2213.678467
0.900000 5.200000 5.016667 -13.218150 -47.824097 2461.863770
1.000000 4.800000 4.983333 -59.769489 -109.503654 15563.442383
1.000000 4.800000 4.991667 170.011963 -108.060257 40581.085938
1.000000 4.800000 5.000000 15.537781 63.587406 4284.780762
1.000000 4.800000 5.008333 84.023483 -112.975853 19823.488281
1.000000 4.800000 5.016667 105.581177 134.770355 29310.433594
1.000000 4.900000 4.983333 957.269958 508.868347 1175312.750000
1.000000 4.900000 4.991667 -1142.133057 -171.452789 1333863.875000
1.000000 4.900000 5.000000 594.624451 -1383.028931 2266347.250000
1.000000 4.900000 5.008333 916.521179 -276.942413 916708.187500
1.000000 4.900000 5.016667 1191.652100 154.015610 1443755.500000
1.000000 5.000000 4.983333 -585.703125 1545.214600 2730736.500000
1.000000 5.000000 4.991667 92.354065 -1864.350220 3484331.000000
1.000000 5.000000 5.000000 2227.540771 650.344360 5384886.000000
1.000000 5.000000 5.008333 678.210083 1181.061890 1854876.000000
1.000000 5.000000 5.016667 170.860062 1983.656128 3964085.000000
1.000000 5.100000 4.983333 -1061.953857 -127.682312 1144048.750000
1.000000 5.100000 4.991667 1096.308594 -131.166748 1219097.250000
1.000000 5.100000 5.000000 -239.617432 1397.824463 2011329.750000
1.000000 5.100000 5.008333 -647.843262 510.403015 680212.125000
1.000000 5.100000 5.016667 -1282.260742 290.015015 1728301.375000
1.000000 5.200000 4.983333 -168.770370 -37.355885 29878.900391
1.000000 5.200000 4.991667 22.083878 -145.153915 21557.355469
1.000000 5.200000 5.000000 43.183144 -62.984749 5831.862305
1.000000 5.200000 5.008333 53.004440 -65.686134 7124.139160
1.000000 5.200000 5.016667 78.653168 -66.669136 10631.094727
1.100000 4.800000 4.983333 89.185608 -70.916847 12983.271484
1.100000 4.800000 4.991667 70.053154 69.212311 9697.788086
1.100000 4.800000 5.000000 -10.148041 24.504215 703.439270
1.100000 4.800000 5.008333 82.715866 -7.504543 6898.232910
1.100000 4.800000 5.016667 21.820826 151.532104 23438.126953
1.100000 4.900000 4.983333 -234.279907 714.016968 564707.312500
1.100000 4.900000 4.991667 5.231445 -759.552551 576947.437500
1.100000 4.900000 5.000000 958.574402 265.958923 989599.000000
1.100000 4.900000 5.008333 296.419861 581.028381 425458.687500
1.100000 4.900000 5.016667 -13.072108 842.648682 710227.687500
1.100000 5.000000 4.983333 -1079.493652 -268.005280 1237133.375000
1.100000 5.000000 4.991667 1195.715210 -119.971924 1444128.125000
1.100000 5.000000 5.000000 -206.481979 1496.215088 2281294.250000
1.100000 5.000000 5.008333 -720.988281 536.098572 807225.750000
1.100000 5.000000 5.016667 -1229.134521 302.067047 1602016.125000
1.100000 5.100000 4.983333 58.430122 -714.999084 514637.781250
1.100000 5.100000 4.991667 174.904297 699.487976 519874.937500
1.100000 5.100000 5.000000 -923.119385 -51.585709 854810.437500
1.100000 5.100000 5.008333 -342.070251 -410.580658 285588.531250
1.100000 5.100000 5.016667 -276.377533 -739.591980 623380.875000
1.100000 5.200000 4.983333 64.520462 -26.411385 4860.451172
1.100000 5.200000 4.991667 38.218075 11.174898 1585.499512
1.100000 5.200000 5.000000 99.580994 -3.680157 9929.917969
1.100000 5.200000 5.008333 89.391792 80.666702 14498.009766
1.100000 5.200000 5.016667 45.867413 111.077194 14441.962891
1.200000 4.800000 4.983333 -17.010515 44.876289 2303.239014
1.200000 4.800000 4.991667 16.976469 -80.776031 6812.967773
1.200000 4.800000 5.000000 11.610516 16.971233 422.826843
1.200000 4.800000 5.008333 72.675468 -30.942396 6239.155273
1.200000 4.800000 5.016667 -35.631069 129.184753 17958.273438
1.200000 4.900000 4.983333 -103.333855 -62.307076 14560.057617
1.200000 4.900000 4.991667 101.907623 -10.483959 10495.077148
1.200000 4.900000 5.000000 -27.489241 58.066708 4127.400879
1.200000 4.900000 5.008333 -3.629303 32.914207 1096.516968
1.200000 4.900000 5.016667 -83.740463 -11.444202 7143.435059
1.200000 5.000000 4.983333 102.854111 -104.101784 21416.148438
1.200000 5.000000 4.991667 20.735331 28.339714 1233.093384
1.200000 5.000000 5.000000 -12.086319 -34.341915 1325.446289
1.200000 5.000000 5.008333 33.146976 -46.106861 3224.564453
1.200000 5.000000 5.016667 46.770454 13.317360 2364.827393
1.200000 5.100000 4.983333 83.598885 120.582153 21528.828125
1.200000 5.100000 4.991667 23.095016 -11.174001 658.238037
1.200000 5.100000 5.000000 73.805000 39.795979 7030.897949
1.200000 5.100000 5.008333 78.381645 59.874031 9728.582031
1.200000 5.100000 5.016667 -24.398422 124.090309 15993.688477
1.200000 5.200000 4.983333 -98.476143 105.150688 20754.218750
1.200000 5.200000 4.991667 -11.383940 -16.663040 407.251007
1.200000 5.200000 5.000000 -17.579941 74.001945 5785.342285
1.200000 5.200000 5.008333 -41.133789 62.050781 5542.288086
1.200000 5.200000 5.016667 -131.371429 24.731915 17870.121094
