#kx 	ky 	kz 	real 	imag 	intensity
0.800000 0.800000 0.800000 -2.324549 3.390177 16.896828
0.800000 0.800000 1.000000 -0.200801 -4.760584 22.703485
0.800000 0.800000 1.200000 1.134687 6.281940 40.750278
0.800000 1.000000 0.800000 9.236028 1.742723 88.341293
0.800000 1.000000 1.000000 1.861803 -1.160510 4.813093
0.800000 1.000000 1.200000 -1.778560 21.590946 469.332214
0.800000 1.200000 0.800000 -3.845967 -3.334177 25.908197
0.800000 1.200000 1.000000 -0.142395 4.767745 22.751665
0.800000 1.200000 1.200000 9.496227 -6.766920 135.969543
1.000000 0.800000 0.800000 -8.579628 -2.608109 80.412247
1.000000 0.800000 1.000000 -0.952728 0.837387 1.608908
1.000000 0.800000 1.200000 -7.752716 11.949488 202.894867
1.000000 1.000000 0.800000 -2.342472 -12.806278 169.487946
1.000000 1.000000 1.000000 479.964996 78.293877 236496.328125
1.000000 1.000000 1.200000 10.069229 -13.081194 272.507019
1.000000 1.200000 0.800000 3.184822 13.821913 201.188370
1.000000 1.200000 1.000000 4.588778 0.052101 21.059593
1.000000 1.200000 1.200000 12.121134 -1.769421 150.052734
1.200000 0.800000 0.800000 -8.616285 -8.771919 151.186935
1.200000 0.800000 1.000000 -3.357789 3.165691 21.296345
1.200000 0.800000 1.200000 1.516559 -1.777317 5.458809
1.200000 1.000000 0.800000 -4.461738 21.631685 487.836914
1.200000 1.000000 1.000000 2.830010 -1.853184 11.443248
1.200000 1.000000 1.200000 -9.815949 -0.780491 96.962036
1.200000 1.200000 0.800000 -2.622287 3.595497 19.803989
1.200000 1.200000 1.000000 1.633447 -1.100014 3.878182
1.200000 1.200000 1.200000 -0.731277 7.358647 54.684452
