#kx 	ky 	kz 	real 	imag 	intensity
0.800000 0.800000 0.800000 -2.324551 3.390180 16.896854
0.800000 0.800000 0.900000 -4.481580 -1.175018 21.465231
0.800000 0.800000 1.000000 -0.200798 -4.760583 22.703474
0.800000 0.800000 1.100000 5.501663 -0.188725 30.303915
0.800000 0.800000 1.200000 1.134689 6.281937 40.750256
0.800000 0.900000 0.800000 -1.232375 -6.885778 48.932686
0.800000 0.900000 0.900000 3.639829 -5.322509 41.577461
0.800000 0.900000 1.000000 1.915307 -2.245648 8.711338
0.800000 0.900000 1.100000 2.121285 -6.923247 52.431206
0.800000 0.900000 1.200000 9.884434 -1.012355 98.726898
0.800000 1.000000 0.800000 9.236032 1.742726 88.341393
0.800000 1.000000 0.900000 3.305220 6.786567 56.981972
0.800000 1.000000 1.000000 1.861803 -1.160509 4.813093
0.800000 1.000000 1.100000 15.045080 5.457824 256.142273
0.800000 1.000000 1.200000 -1.778554 21.590946 469.332214
0.800000 1.100000 0.800000 -4.266616 6.832197 64.882927
0.800000 1.100000 0.900000 -6.174125 -1.710788 41.046608
0.800000 1.100000 1.000000 3.723507 0.795123 14.496728
0.800000 1.100000 1.100000 -7.463782 12.846570 220.742401
0.800000 1.100000 1.200000 -18.961176 -6.552800 402.465363
0.800000 1.200000 0.800000 -3.845965 -3.334176 25.908180
0.800000 1.200000 0.900000 5.065822 -3.823804 40.284027
0.800000 1.200000 1.000000 -0.142393 4.767745 22.751663
0.800000 1.200000 1.100000 -4.863763 -7.270484 76.516129
0.800000 1.200000 1.200000 9.496228 -6.766924 135.969620
0.900000 0.800000 0.800000 -9.941448 3.166773 108.860840
0.900000 0.800000 0.900000 -1.434277 -6.878170 49.366371
0.900000 0.800000 1.000000 1.998154 -0.329556 4.101225
0.900000 0.800000 1.100000 3.519421 0.255112 12.451403
0.900000 0.800000 1.200000 -0.695091 6.884433 47.878567
0.900000 0.900000 0.800000 2.645288 -3.404521 18.588316
0.900000 0.900000 0.900000 -70.170685 110.268158 17082.992188
0.900000 0.900000 1.000000 -178.863571 -90.035004 40098.480469
0.900000 0.900000 1.100000 48.513065 -113.427338 15219.278320
0.900000 0.900000 1.200000 -6.571346 13.292082 219.862030
0.900000 1.000000 0.800000 -4.769279 8.270397 91.145493
0.900000 1.000000 0.900000 -190.043274 -89.766273 44174.429688
0.900000 1.000000 1.000000 96.689850 -296.592102 97315.804688
0.900000 1.000000 1.100000 185.010406 45.921654 36337.648438
0.900000 1.000000 1.200000 -23.777519 -5.944669 600.709534
0.900000 1.100000 0.800000 -6.599322 -10.999407 164.538010
0.900000 1.100000 0.900000 44.594471 -129.033478 18638.304688
0.900000 1.100000 1.000000 193.110046 33.274529 38398.683594
0.900000 1.100000 1.100000 -12.823273 116.114548 13647.024414
0.900000 1.100000 1.200000 2.657080 -22.054222 493.448761
0.900000 1.200000 0.800000 11.968462 -2.322821 148.639572
0.900000 1.200000 0.900000 2.528933 7.920799 69.134560
0.900000 1.200000 1.000000 -2.330978 -3.187016 15.590531
0.900000 1.200000 1.100000 6.005749 -5.043369 61.504593
0.900000 1.200000 1.200000 10.019373 0.253616 100.452156
1.000000 0.800000 0.800000 -8.579639 -2.608089 80.412346
1.000000 0.800000 0.900000 2.724342 -1.490631 9.644022
1.000000 0.800000 1.000000 -0.952721 0.837372 1.608868
1.000000 0.800000 1.100000 6.005005 5.271847 63.852455
1.000000 0.800000 1.200000 -7.752699 11.949481 202.894440
1.000000 0.900000 0.800000 -6.259380 -4.175890 56.617901
1.000000 0.900000 0.900000 -183.841888 -93.813202 42598.757812
1.000000 0.900000 1.000000 96.946075 -297.775482 98068.773438
1.000000 0.900000 1.100000 183.935089 39.143692 35364.347656
1.000000 0.900000 1.200000 -15.451420 -11.562187 372.430542
1.000000 1.000000 0.800000 -2.342499 -12.806282 169.488159
1.000000 1.000000 0.900000 103.955154 -306.771362 104915.343750
1.000000 1.000000 1.000000 479.964996 78.293877 236496.328125
1.000000 1.000000 1.100000 -7.856606 295.470520 87364.554688
1.000000 1.000000 1.200000 10.069235 -13.081200 272.507263
1.000000 1.100000 0.800000 15.160141 -3.394060 241.349518
1.000000 1.100000 0.900000 201.900681 40.474327 42402.058594
1.000000 1.100000 1.000000 -2.771622 305.729462 93478.179688
1.000000 1.100000 1.100000 -187.135910 26.121353 35702.171875
1.000000 1.100000 1.200000 6.282211 -1.600340 42.027267
1.000000 1.200000 0.800000 3.184809 13.821916 201.188354
1.000000 1.200000 0.900000 -7.399628 1.175488 56.136261
1.000000 1.200000 1.000000 4.588774 0.052094 21.059559
1.000000 1.200000 1.100000 -1.363396 -0.598873 2.217497
1.000000 1.200000 1.200000 12.121136 -1.769461 150.052933
1.100000 0.800000 0.800000 -10.019073 -2.420258 106.239456
1.100000 0.800000 0.900000 -1.727459 -5.083485 28.825930
1.100000 0.800000 1.000000 1.126953 1.376171 3.163870
1.100000 0.800000 1.100000 -6.081327 6.393608 77.860764
1.100000 0.800000 1.200000 -11.979803 -2.987663 152.441818
1.100000 0.900000 0.800000 4.189965 -19.636566 403.150543
1.100000 0.900000 0.900000 52.436520 -123.358597 17966.931641
1.100000 0.900000 1.000000 192.890320 33.506241 38329.343750
1.100000 0.900000 1.100000 -3.781178 113.104996 12807.037109
1.100000 0.900000 1.200000 10.243546 -10.506889 215.324951
1.100000 1.000000 0.800000 21.384800 3.180642 467.426147
1.100000 1.000000 0.900000 199.508209 46.680534 41982.601562
1.100000 1.000000 1.000000 -3.460130 306.989197 94254.335938
1.100000 1.000000 1.100000 -181.155807 31.498791 33809.601562
1.100000 1.000000 1.200000 1.475067 12.824495 166.643509
1.100000 1.100000 0.800000 -0.756364 13.539196 183.881912
1.100000 1.100000 0.900000 -10.277905 128.529968 16625.587891
1.100000 1.100000 1.000000 -193.288422 27.760559 38131.062500
1.100000 1.100000 1.100000 -42.476032 -115.346954 15109.132812
1.100000 1.100000 1.200000 -2.421618 -8.176077 72.712471
1.100000 1.200000 0.800000 -3.648527 4.141306 30.462168
1.100000 1.200000 0.900000 -1.736197 -2.120003 7.508790
1.100000 1.200000 1.000000 -0.005501 1.028732 1.058320
1.100000 1.200000 1.100000 4.659115 -5.826813 55.659100
1.100000 1.200000 1.200000 12.802883 10.881716 282.325562
1.200000 0.800000 0.800000 -8.616285 -8.771919 151.186935
1.200000 0.800000 0.900000 5.127462 -5.697963 58.757648
1.200000 0.800000 1.000000 -3.357790 3.165694 21.296368
1.200000 0.800000 1.100000 -3.556575 -6.076872 49.577606
1.200000 0.800000 1.200000 1.516563 -1.777315 5.458811
1.200000 0.900000 0.800000 17.810173 -1.590401 319.731659
1.200000 0.900000 0.900000 0.555064 11.807876 139.734024
1.200000 0.900000 1.000000 -3.301592 -4.912473 35.032898
1.200000 0.900000 1.100000 8.107964 -1.720055 68.697662
1.200000 0.900000 1.200000 3.980778 5.176462 42.642349
1.200000 1.000000 0.800000 -4.461739 21.631691 487.837158
1.200000 1.000000 0.900000 -15.461331 -1.994117 243.029266
1.200000 1.000000 1.000000 2.830009 -1.853181 11.443233
1.200000 1.000000 1.100000 -4.262403 8.059330 83.120872
1.200000 1.000000 1.200000 -9.815945 -0.780491 96.961937
1.200000 1.100000 0.800000 -12.088717 -3.444280 158.000137
1.200000 1.100000 0.900000 0.247016 -9.313120 86.795219
1.200000 1.100000 1.000000 0.402565 -0.896176 0.965190
1.200000 1.100000 1.100000 -3.772100 -6.358637 54.660999
1.200000 1.100000 1.200000 5.899675 -7.775788 95.269051
1.200000 1.200000 0.800000 -2.622292 3.595501 19.804047
1.200000 1.200000 0.900000 -2.388915 -2.538799 12.152414
1.200000 1.200000 1.000000 1.633451 -1.100018 3.878203
1.200000 1.200000 1.100000 3.718413 0.931777 14.694803
1.200000 1.200000 1.200000 -0.731279 7.358648 54.684475
