#kx 	ky 	kz 	real 	imag 	intensity
0.800000 -1.200000 6.800000 -21.240416 5.018817 476.343781
0.800000 -1.200000 6.840000 -22.566444 -2.676359 516.407288
0.800000 -1.200000 6.880000 -19.249010 -12.406263 524.439758
0.800000 -1.200000 6.920000 -9.973280 -20.204718 507.696930
0.800000 -1.200000 6.960000 3.136616 -22.069281 496.891510
0.800000 -1.200000 7.000000 15.575043 -16.455364 513.360962
0.800000 -1.200000 7.040000 22.840761 -5.269445 549.467407
0.800000 -1.200000 7.080000 22.847530 7.086898 572.233765
0.800000 -1.200000 7.120000 16.999510 16.099016 548.161621
0.800000 -1.200000 7.160000 9.172092 19.707085 472.496460
0.800000 -1.200000 7.200000 3.000492 19.218132 378.339569
0.800000 -1.160000 6.800000 -20.968235 -5.470005 469.587830
0.800000 -1.160000 6.840000 -18.124945 -9.032154 410.093414
0.800000 -1.160000 6.880000 -13.667629 -12.546089 344.208435
0.800000 -1.160000 6.920000 -6.922576 -14.283788 251.948669
0.800000 -1.160000 6.960000 0.711464 -12.118272 147.358688
0.800000 -1.160000 7.000000 6.012581 -5.725931 68.937416
0.800000 -1.160000 7.040000 6.272166 2.213285 44.238697
0.800000 -1.160000 7.080000 1.931575 7.516932 60.235252
0.800000 -1.160000 7.120000 -3.222809 7.933216 73.322403
0.800000 -1.160000 7.160000 -5.161566 5.361446 55.386864
0.800000 -1.160000 7.200000 -3.450597 4.243836 29.916765
0.800000 -1.120000 6.800000 -14.065336 -13.925503 391.753296
0.800000 -1.120000 6.840000 -11.271008 -12.181001 275.412415
0.800000 -1.120000 6.880000 -10.194458 -11.023743 225.449875
0.800000 -1.120000 6.920000 -9.256831 -10.698355 200.143723
0.800000 -1.120000 6.960000 -8.042418 -10.178217 168.276581
0.800000 -1.120000 7.000000 -7.526183 -9.204726 141.370422
0.800000 -1.120000 7.040000 -8.093533 -9.154698 149.313782
0.800000 -1.120000 7.080000 -7.950592 -11.192337 188.480316
0.800000 -1.120000 7.120000 -4.533628 -13.718263 208.744522
0.800000 -1.120000 7.160000 1.959330 -12.703838 165.226486
0.800000 -1.120000 7.200000 7.022249 -5.658710 81.332977
0.800000 -1.080000 6.800000 -3.277384 -16.006264 266.941711
0.800000 -1.080000 6.840000 -3.912985 -11.165566 139.981323
0.800000 -1.080000 6.880000 -7.850562 -9.588661 153.573746
0.800000 -1.080000 6.920000 -11.571603 -12.171318 282.042969
0.800000 -1.080000 6.960000 -12.621411 -17.350067 460.324860
0.800000 -1.080000 7.000000 -10.275131 -23.129929 640.571899
0.800000 -1.080000 7.040000 -4.422483 -27.909081 798.475098
0.800000 -1.080000 7.080000 4.820226 -29.552929 896.610168
0.800000 -1.080000 7.120000 15.503311 -25.160635 873.410217
0.800000 -1.080000 7.160000 22.648197 -13.521008 695.758545
0.800000 -1.080000 7.200000 20.551132 1.672577 425.146545
0.800000 -1.040000 6.800000 5.869081 -10.684384 148.602188
0.800000 -1.040000 6.840000 1.431287 -6.252481 41.142094
0.800000 -1.040000 6.880000 -5.343816 -7.785287 89.167061
0.800000 -1.040000 6.920000 -9.275089 -15.117354 314.561707
0.800000 -1.040000 6.960000 -7.061819 -24.807482 665.280396
0.800000 -1.040000 7.000000 1.710385 -32.463196 1056.784546
0.800000 -1.040000 7.040000 15.060551 -34.209633 1397.119141
0.800000 -1.040000 7.080000 28.900185 -27.428699 1587.554199
0.800000 -1.040000 7.120000 37.279747 -12.265165 1540.213867
0.800000 -1.040000 7.160000 34.574055 6.471941 1237.251221
0.800000 -1.040000 7.200000 19.789280 19.892605 787.331299
0.800000 -1.000000 6.800000 8.927372 -1.554665 82.114952
0.800000 -1.000000 6.840000 2.823565 0.549120 8.274049
0.800000 -1.000000 6.880000 -3.190802 -4.252200 28.262424
0.800000 -1.000000 6.920000 -3.701087 -13.832312 205.030884
0.800000 -1.000000 6.960000 3.610921 -22.975224 540.899658
0.800000 -1.000000 7.000000 17.091770 -26.165604 976.767395
0.800000 -1.000000 7.040000 31.766338 -19.886547 1404.575073
0.800000 -1.000000 7.080000 40.836739 -4.400169 1687.000610
0.800000 -1.000000 7.120000 38.404701 15.100614 1702.949585
0.800000 -1.000000 7.160000 23.335161 29.564119 1418.566895
0.800000 -1.000000 7.200000 1.857030 30.644627 942.541687
0.800000 -0.960000 6.800000 5.974235 6.012891 71.846336
0.800000 -0.960000 6.840000 0.232489 6.483605 42.091183
0.800000 -0.960000 6.880000 -3.429451 0.970352 12.702715
0.800000 -0.960000 6.920000 -0.821749 -6.906304 48.372311
0.800000 -0.960000 6.960000 8.393944 -11.565804 204.226135
0.800000 -0.960000 7.000000 20.451286 -8.492837 490.383423
0.800000 -0.960000 7.040000 28.997377 3.219827 851.215210
0.800000 -0.960000 7.080000 28.042025 19.557686 1168.858276
0.800000 -0.960000 7.120000 15.714860 32.545113 1306.141113
0.800000 -0.960000 7.160000 -3.193877 34.247990 1183.125610
0.800000 -0.960000 7.200000 -18.659328 22.316713 846.206238
0.800000 -0.920000 6.800000 0.847584 9.438198 89.797981
0.800000 -0.920000 6.840000 -4.678182 9.851112 118.929810
0.800000 -0.920000 6.880000 -7.468840 5.684083 88.092361
0.800000 -0.920000 6.920000 -5.026937 0.890409 26.062927
0.800000 -0.920000 6.960000 1.390149 -0.019831 1.932908
0.800000 -0.920000 7.000000 7.417680 5.212926 82.196571
0.800000 -0.920000 7.040000 7.998330 14.818893 283.572906
0.800000 -0.920000 7.080000 0.687355 23.347269 545.567444
0.800000 -0.920000 7.120000 -11.916362 24.609543 747.629272
0.800000 -0.920000 7.160000 -22.760029 16.056492 775.829834
0.800000 -0.920000 7.200000 -24.560892 1.603163 605.807556
0.800000 -0.880000 6.800000 -3.268821 10.419758 119.256538
0.800000 -0.880000 6.840000 -10.263247 10.625101 218.227005
0.800000 -0.880000 6.880000 -14.417101 6.971794 256.458710
0.800000 -0.880000 6.920000 -14.560727 3.042764 221.273178
0.800000 -0.880000 6.960000 -12.550298 1.749620 160.571152
0.800000 -0.880000 7.000000 -11.667006 3.337845 147.260223
0.800000 -0.880000 7.040000 -14.013050 5.264969 224.085464
0.800000 -0.880000 7.080000 -18.655184 4.152080 365.255646
0.800000 -0.880000 7.120000 -21.964304 -1.369673 484.306671
0.800000 -0.880000 7.160000 -20.247978 -8.980782 490.635071
0.800000 -0.880000 7.200000 -12.975075 -13.834817 359.754730
0.800000 -0.840000 6.800000 -7.067142 11.590421 184.282349
0.800000 -0.840000 6.840000 -16.022455 9.157546 340.579742
0.800000 -0.840000 6.880000 -21.362087 3.335032 467.461212
0.800000 -0.840000 6.920000 -23.045031 -2.712168 538.429260
0.800000 -0.840000 6.960000 -22.912142 -7.578796 582.404419
0.800000 -0.840000 7.000000 -22.274986 -11.992519 639.995544
0.800000 -0.840000 7.040000 -20.504036 -16.972128 708.468628
0.800000 -0.840000 7.080000 -15.998146 -21.775890 730.130066
0.800000 -0.840000 7.120000 -8.572176 -23.774479 638.708008
0.800000 -0.840000 7.160000 -0.848786 -20.701721 429.281677
0.800000 -0.840000 7.200000 3.054872 -13.233175 184.449173
0.800000 -0.800000 6.800000 -13.277948 12.194843 325.018127
0.800000 -0.800000 6.840000 -21.631643 4.774854 490.727203
0.800000 -0.800000 6.880000 -25.065586 -4.361552 647.306763
0.800000 -0.800000 6.920000 -25.124311 -12.778733 794.527039
0.800000 -0.800000 6.960000 -23.275684 -20.713505 970.806763
0.800000 -0.800000 7.000000 -18.646061 -28.850117 1180.004883
0.800000 -0.800000 7.040000 -9.378725 -35.267418 1331.751221
0.800000 -0.800000 7.080000 3.583900 -35.623848 1281.902954
0.800000 -0.800000 7.120000 14.748049 -27.253983 960.284485
0.800000 -0.800000 7.160000 17.281002 -13.320234 476.061646
0.800000 -0.800000 7.200000 8.986102 -2.190078 85.546471
0.840000 -1.200000 6.800000 -33.852150 -8.291948 1214.724365
0.840000 -1.200000 6.840000 -23.912991 -18.246178 904.754150
0.840000 -1.200000 6.880000 -10.705979 -21.373995 571.465637
0.840000 -1.200000 6.920000 0.803463 -18.022095 325.441437
0.840000 -1.200000 6.960000 8.394258 -11.536809 203.561539
0.840000 -1.200000 7.000000 13.055714 -4.272835 188.708771
0.840000 -1.200000 7.040000 15.729202 4.066576 263.944855
0.840000 -1.200000 7.080000 14.950201 13.906617 416.902527
0.840000 -1.200000 7.120000 8.705806 22.812529 596.202515
0.840000 -1.200000 7.160000 -1.754988 26.429018 701.572937
0.840000 -1.200000 7.200000 -11.341499 22.894463 652.786011
0.840000 -1.160000 6.800000 -20.550968 -27.116161 1157.628418
0.840000 -1.160000 6.840000 -4.353003 -25.784607 683.794556
0.840000 -1.160000 6.880000 6.988666 -14.793591 267.691772
0.840000 -1.160000 6.920000 7.975910 -0.744346 64.169189
0.840000 -1.160000 6.960000 0.495424 7.978164 63.896542
0.840000 -1.160000 7.000000 -8.035477 8.078371 129.828964
0.840000 -1.160000 7.040000 -11.358791 3.293644 139.870224
0.840000 -1.160000 7.080000 -9.173452 -0.099525 84.162132
0.840000 -1.160000 7.120000 -5.803247 0.875086 34.443455
0.840000 -1.160000 7.160000 -5.090775 4.416798 45.424088
0.840000 -1.160000 7.200000 -7.299283 7.231575 105.575203
0.840000 -1.120000 6.800000 2.370950 -31.276842 983.862244
0.840000 -1.120000 6.840000 16.174685 -16.264555 526.156128
0.840000 -1.120000 6.880000 15.209149 5.559094 262.221741
0.840000 -1.120000 6.920000 -2.043377 20.059668 406.565643
0.840000 -1.120000 6.960000 -24.498793 16.528275 873.374756
0.840000 -1.120000 7.000000 -36.251728 -2.764082 1321.827881
0.840000 -1.120000 7.040000 -29.296719 -23.784809 1424.014893
0.840000 -1.120000 7.080000 -9.647980 -31.951019 1113.951172
0.840000 -1.120000 7.120000 8.292700 -23.269464 610.236816
0.840000 -1.120000 7.160000 13.443941 -5.883049 215.349808
0.840000 -1.120000 7.200000 5.326739 7.954009 91.640404
0.840000 -1.080000 6.800000 20.854858 -18.015862 759.496338
0.840000 -1.080000 6.840000 23.499886 6.380671 592.957581
0.840000 -1.080000 6.880000 4.544427 27.838764 795.648560
0.840000 -1.080000 6.920000 -27.756618 28.085257 1559.211426
0.840000 -1.080000 6.960000 -51.605148 2.000271 2667.092285
0.840000 -1.080000 7.000000 -48.218456 -35.291416 3570.503418
0.840000 -1.080000 7.040000 -17.892727 -58.651028 3760.092773
0.840000 -1.080000 7.080000 19.267735 -52.539150 3131.607910
0.840000 -1.080000 7.120000 39.051262 -22.903746 2049.582520
0.840000 -1.080000 7.160000 31.493279 8.680232 1067.172974
0.840000 -1.080000 7.200000 6.422296 22.554552 549.953735
0.840000 -1.040000 6.800000 23.519100 3.326752 564.215332
0.840000 -1.040000 6.840000 11.367774 27.510988 886.080811
0.840000 -1.040000 6.880000 -20.943447 35.781849 1718.968750
0.840000 -1.040000 6.920000 -53.697189 13.941006 3077.739746
0.840000 -1.040000 6.960000 -60.686600 -29.973320 4581.263184
0.840000 -1.040000 7.000000 -31.346203 -67.987640 5604.903809
0.840000 -1.040000 7.040000 17.956734 -73.060875 5660.335938
0.840000 -1.040000 7.080000 55.058762 -41.149536 4724.751465
0.840000 -1.040000 7.120000 56.880936 5.149619 3261.959473
0.840000 -1.040000 7.160000 26.676092 34.744839 1918.817749
0.840000 -1.040000 7.200000 -10.704116 31.874554 1130.565308
0.840000 -1.000000 6.800000 10.565813 18.154192 441.211090
0.840000 -1.000000 6.840000 -12.217007 32.611496 1212.764893
0.840000 -1.000000 6.880000 -44.880836 22.344715 2513.575684
0.840000 -1.000000 6.920000 -62.058571 -15.198303 4082.254639
0.840000 -1.000000 6.960000 -44.189823 -58.880665 5419.672852
0.840000 -1.000000 7.000000 3.464029 -77.605331 6034.586914
0.840000 -1.000000 7.040000 51.402100 -55.414272 5712.916992
0.840000 -1.000000 7.080000 67.830841 -6.061101 4637.759766
0.840000 -1.000000 7.120000 43.815376 36.817932 3275.347412
0.840000 -1.000000 7.160000 -0.175148 46.020966 2117.959961
0.840000 -1.000000 7.200000 -31.682457 20.963459 1443.244629
0.840000 -0.960000 6.800000 -6.773615 18.101233 373.536499
0.840000 -0.960000 6.840000 -30.779884 19.264133 1318.508179
0.840000 -0.960000 6.880000 -51.442673 -3.409990 2657.976562
0.840000 -0.960000 6.920000 -47.864555 -40.372498 3920.954102
0.840000 -0.960000 6.960000 -14.397593 -66.447678 4622.584473
0.840000 -0.960000 7.000000 30.945654 -59.917404 4547.728516
0.840000 -0.960000 7.040000 58.142078 -21.689924 3850.954102
0.840000 -0.960000 7.080000 48.750698 23.167101 2913.345215
0.840000 -0.960000 7.120000 11.245663 44.366688 2094.867920
0.840000 -0.960000 7.160000 -25.635780 30.170795 1567.470215
0.840000 -0.960000 7.200000 -35.984535 -4.339821 1313.720703
0.840000 -0.920000 6.800000 -16.096836 7.051814 308.836212
0.840000 -0.920000 6.840000 -32.980072 -1.008979 1088.703247
0.840000 -0.920000 6.880000 -38.608696 -23.578148 2046.560425
0.840000 -0.920000 6.920000 -23.308342 -46.605648 2715.365234
0.840000 -0.920000 6.960000 7.249250 -52.087986 2765.709717
0.840000 -0.920000 7.000000 33.938873 -32.839035 2230.249512
0.840000 -0.920000 7.040000 38.276653 -0.089653 1465.110229
0.840000 -0.920000 7.080000 17.654882 23.911665 883.462585
0.840000 -0.920000 7.120000 -11.695646 23.262043 677.910767
0.840000 -0.920000 7.160000 -27.360390 1.193204 750.014648
0.840000 -0.920000 7.200000 -18.630539 -22.815275 867.633789
0.840000 -0.880000 6.800000 -14.054719 -3.794283 211.931702
0.840000 -0.880000 6.840000 -21.617895 -13.275712 643.577942
0.840000 -0.880000 6.880000 -19.247150 -26.745590 1085.779419
0.840000 -0.880000 6.920000 -6.762491 -35.155815 1281.662720
0.840000 -0.880000 6.960000 8.755113 -32.177383 1112.036011
0.840000 -0.880000 7.000000 17.539402 -19.220230 677.047852
0.840000 -0.880000 7.040000 14.377050 -5.001682 231.716415
0.840000 -0.880000 7.080000 2.961430 0.815647 9.435346
0.840000 -0.880000 7.120000 -6.648516 -4.690802 66.206383
0.840000 -0.880000 7.160000 -6.053825 -15.056852 263.357605
0.840000 -0.880000 7.200000 4.344866 -19.535301 400.505859
0.840000 -0.840000 6.800000 -7.539031 -6.803576 103.125626
0.840000 -0.840000 6.840000 -9.549207 -12.270877 241.761765
0.840000 -0.840000 6.880000 -8.805979 -16.987741 366.128632
0.840000 -0.840000 6.920000 -6.794165 -20.840622 480.492188
0.840000 -0.840000 6.960000 -3.411883 -24.317844 602.998474
0.840000 -0.840000 7.000000 2.059023 -26.577568 710.606689
0.840000 -0.840000 7.040000 8.975340 -25.781218 745.227905
0.840000 -0.840000 7.080000 14.977886 -21.103617 669.699707
0.840000 -0.840000 7.120000 17.706238 -13.869322 505.868958
0.840000 -0.840000 7.160000 16.515884 -6.531118 315.429962
0.840000 -0.840000 7.200000 12.336204 -0.894900 152.982758
0.840000 -0.800000 6.800000 -5.270000 -4.200462 45.416790
0.840000 -0.800000 6.840000 -6.697945 -5.541305 75.568520
0.840000 -0.800000 6.880000 -11.511578 -8.231638 200.276276
0.840000 -0.800000 6.920000 -16.141834 -17.517797 567.432007
0.840000 -0.800000 6.960000 -12.557772 -32.158413 1191.861206
0.840000 -0.800000 7.000000 3.130259 -42.892738 1849.585449
0.840000 -0.800000 7.040000 24.646671 -39.769615 2189.080811
0.840000 -0.800000 7.080000 38.974274 -21.741625 1991.692261
0.840000 -0.800000 7.120000 36.773628 1.027695 1353.355835
0.840000 -0.800000 7.160000 20.204010 14.759069 626.032166
0.840000 -0.800000 7.200000 0.940509 12.695818 162.068344
0.880000 -1.200000 6.800000 -33.694824 -33.790520 2277.140381
0.880000 -1.200000 6.840000 -12.327225 -35.685860 1425.441040
0.880000 -1.200000 6.880000 3.417060 -25.142538 643.823486
0.880000 -1.200000 6.920000 7.648907 -11.288601 185.938293
0.880000 -1.200000 6.960000 4.534466 -3.090520 30.112694
0.880000 -1.200000 7.000000 2.609886 -1.013802 7.839299
0.880000 -1.200000 7.040000 4.994399 1.636047 27.620672
0.880000 -1.200000 7.080000 6.505149 9.490959 132.395264
0.880000 -1.200000 7.120000 0.795340 18.831532 355.259155
0.880000 -1.200000 7.160000 -11.052423 21.542543 586.237244
0.880000 -1.200000 7.200000 -20.604286 14.708935 640.889404
0.880000 -1.160000 6.800000 -0.656936 -46.470978 2159.983398
0.880000 -1.160000 6.840000 22.012373 -27.860712 1260.763916
0.880000 -1.160000 6.880000 24.771994 1.754974 616.731628
0.880000 -1.160000 6.920000 5.606987 22.655619 544.715332
0.880000 -1.160000 6.960000 -20.142317 21.276997 858.423462
0.880000 -1.160000 7.000000 -32.744522 2.314568 1077.560913
0.880000 -1.160000 7.040000 -25.250267 -16.119698 897.420654
0.880000 -1.160000 7.080000 -8.123056 -19.392736 442.062256
0.880000 -1.160000 7.120000 2.434654 -8.373267 76.039146
0.880000 -1.160000 7.160000 -0.334579 4.391376 19.396130
0.880000 -1.160000 7.200000 -10.069136 8.562344 174.701218
0.880000 -1.120000 6.800000 31.832964 -30.970715 1972.522705
0.880000 -1.120000 6.840000 40.850971 7.333245 1722.578369
0.880000 -1.120000 6.880000 15.723373 44.170998 2198.301514
0.880000 -1.120000 6.920000 -32.009575 50.288239 3553.520020
0.880000 -1.120000 6.960000 -69.285698 17.163376 5095.089355
0.880000 -1.120000 7.000000 -68.527695 -32.607891 5759.319336
0.880000 -1.120000 7.040000 -31.670738 -63.148346 4990.749023
0.880000 -1.120000 7.080000 11.918018 -55.369247 3207.792725
0.880000 -1.120000 7.120000 31.412224 -21.190149 1435.750244
0.880000 -1.120000 7.160000 19.365955 10.137529 477.809723
0.880000 -1.120000 7.200000 -6.807639 18.490488 388.242126
0.880000 -1.080000 6.800000 42.072220 3.043544 1779.334839
0.880000 -1.080000 6.840000 25.115194 48.408047 2974.111816
0.880000 -1.080000 6.880000 -29.719112 69.373947 5695.970215
0.880000 -1.080000 6.920000 -89.471916 38.639450 9498.230469
0.880000 -1.080000 6.960000 -108.302124 -31.896259 12746.720703
0.880000 -1.080000 7.000000 -67.463570 -95.351021 13643.150391
0.880000 -1.080000 7.040000 5.816441 -107.466888 11582.962891
0.880000 -1.080000 7.080000 60.022503 -63.685005 7658.480469
0.880000 -1.080000 7.120000 62.103985 -1.299515 3858.593750
0.880000 -1.080000 7.160000 21.967239 34.267471 1656.819214
0.880000 -1.080000 7.200000 -21.824110 26.373148 1171.834717
0.880000 -1.040000 6.800000 23.888729 32.037750 1597.088867
0.880000 -1.040000 6.840000 -18.981770 64.625099 4536.710938
0.880000 -1.040000 6.880000 -85.437950 50.515678 9851.477539
0.880000 -1.040000 6.920000 -125.667328 -18.836460 16147.089844
0.880000 -1.040000 6.960000 -99.564941 -103.903679 20709.152344
0.880000 -1.040000 7.000000 -15.809752 -144.769043 21208.023438
0.880000 -1.040000 7.040000 70.331589 -111.459030 17369.648438
0.880000 -1.040000 7.080000 101.474312 -30.396860 11221.004883
0.880000 -1.040000 7.120000 64.899551 38.264141 5676.096191
0.880000 -1.040000 7.160000 -0.771433 51.241608 2626.297607
0.880000 -1.040000 7.200000 -42.690117 14.010304 2018.734619
0.880000 -1.000000 6.800000 -8.129034 36.658295 1409.911743
0.880000 -1.000000 6.840000 -61.588051 41.724419 5534.015137
0.880000 -1.000000 6.880000 -111.291695 -6.605233 12429.469727
0.880000 -1.000000 6.920000 -108.670425 -89.733780 19861.414062
0.880000 -1.000000 6.960000 -38.933540 -151.559479 24486.095703
0.880000 -1.000000 7.000000 58.733810 -143.344299 23997.248047
0.880000 -1.000000 7.040000 119.175591 -67.347183 18738.464844
0.880000 -1.000000 7.080000 104.731575 22.474007 11473.784180
0.880000 -1.000000 7.120000 35.667206 65.013992 5498.968750
0.880000 -1.000000 7.160000 -29.847246 41.332420 2599.227051
0.880000 -1.000000 7.200000 -46.113693 -15.220894 2358.148193
0.880000 -0.960000 6.800000 -30.446661 16.610470 1202.906860
0.880000 -0.960000 6.840000 -72.758675 -4.604246 5315.023926
0.880000 -0.960000 6.880000 -87.437943 -64.627861 11822.154297
0.880000 -0.960000 6.920000 -46.367863 -126.978043 18273.402344
0.880000 -0.960000 6.960000 36.052967 -142.474716 21598.861328
0.880000 -0.960000 7.000000 108.086327 -91.885918 20125.675781
0.880000 -0.960000 7.040000 121.224884 -6.202080 14733.938477
0.880000 -0.960000 7.080000 70.900726 56.592205 8229.590820
0.880000 -0.960000 7.120000 -0.051107 58.768490 3453.738037
0.880000 -0.960000 7.160000 -38.332455 11.842881 1609.630859
0.880000 -0.960000 7.200000 -23.539753 -37.608597 1968.526489
0.880000 -0.920000 6.800000 -29.411451 -10.506950 975.429443
0.880000 -0.920000 6.840000 -47.367504 -41.275574 3947.353516
0.880000 -0.920000 6.880000 -32.493408 -85.275017 8327.650391
0.880000 -0.920000 6.920000 18.137802 -109.168991 12246.847656
0.880000 -0.920000 6.960000 77.062790 -88.232887 13723.716797
0.880000 -0.920000 7.000000 105.370522 -29.716084 11985.993164
0.880000 -0.920000 7.040000 84.328873 29.770004 7997.612305
0.880000 -0.920000 7.080000 31.725666 52.742245 3788.262207
0.880000 -0.920000 7.120000 -12.571114 30.881901 1111.724609
0.880000 -0.920000 7.160000 -19.351711 -9.866062 471.827911
0.880000 -0.920000 7.200000 7.718291 -32.900627 1142.023315
0.880000 -0.880000 6.800000 -10.669119 -24.910814 734.378723
0.880000 -0.880000 6.840000 -8.277998 -45.659462 2153.311523
0.880000 -0.880000 6.880000 12.776188 -61.573547 3954.532715
0.880000 -0.880000 6.920000 43.609184 -58.331814 5304.361328
0.880000 -0.880000 6.960000 66.341415 -33.357315 5513.894043
0.880000 -0.880000 7.000000 66.854271 0.757984 4470.068359
0.880000 -0.880000 7.040000 45.775372 24.699888 2705.468994
0.880000 -0.880000 7.080000 18.405224 26.758102 1054.748291
0.880000 -0.880000 7.120000 2.990601 11.527744 141.832581
0.880000 -0.880000 7.160000 6.647959 -4.325909 62.908840
0.880000 -0.880000 7.200000 20.497501 -5.906929 455.039368
0.880000 -0.840000 6.800000 8.274832 -20.476513 487.760406
0.880000 -0.840000 6.840000 14.980883 -23.106686 758.345825
0.880000 -0.840000 6.880000 21.085537 -21.233210 895.449036
0.880000 -0.840000 6.920000 25.055990 -18.042130 953.321106
0.880000 -0.840000 6.960000 28.845589 -14.853622 1052.698120
0.880000 -0.840000 7.000000 33.450993 -9.565550 1210.468628
0.880000 -0.840000 7.040000 36.135620 -0.254453 1305.847778
0.880000 -0.840000 7.080000 33.019772 10.938601 1209.958252
0.880000 -0.840000 7.120000 23.845881 18.853109 924.065796
0.880000 -0.840000 7.160000 12.935480 20.337069 580.922974
0.880000 -0.840000 7.200000 4.887334 17.229664 320.747375
0.880000 -0.800000 6.800000 14.343063 -7.041622 255.307907
0.880000 -0.800000 6.840000 11.504446 1.399115 134.309799
0.880000 -0.800000 6.880000 -0.326849 0.984859 1.076778
0.880000 -0.800000 6.920000 -6.908898 -13.920990 241.526840
0.880000 -0.800000 6.960000 4.923264 -31.932955 1043.952148
0.880000 -0.800000 7.000000 31.551636 -33.822922 2139.495605
0.880000 -0.800000 7.040000 53.023510 -11.719959 2948.850098
0.880000 -0.800000 7.080000 50.639637 21.370333 3021.063965
0.880000 -0.800000 7.120000 24.524128 42.105419 2374.299316
0.880000 -0.800000 7.160000 -6.419987 37.388077 1439.084473
0.880000 -0.800000 7.200000 -21.775770 14.737984 691.392334
0.920000 -1.200000 6.800000 -11.925624 -56.501366 3334.624756
0.920000 -1.200000 6.840000 12.086933 -42.616276 1962.240967
0.920000 -1.200000 6.880000 19.052456 -19.409531 739.725952
0.920000 -1.200000 6.920000 9.794338 -3.356692 107.196442
0.920000 -1.200000 6.960000 -2.015175 -2.196510 8.885588
0.920000 -1.200000 7.000000 -3.910000 -8.542557 88.263374
0.920000 -1.200000 7.040000 3.256796 -9.154808 94.417229
0.920000 -1.200000 7.080000 7.910728 0.403423 62.742374
0.920000 -1.200000 7.120000 1.606464 11.621136 137.631531
0.920000 -1.200000 7.160000 -11.439717 13.411407 310.732971
0.920000 -1.200000 7.200000 -19.506552 4.835547 403.888062
0.920000 -1.160000 6.800000 31.840155 -46.243416 3152.249023
0.920000 -1.160000 6.840000 44.535969 -7.842604 2044.958984
0.920000 -1.160000 6.880000 23.981979 28.998144 1416.027588
0.920000 -1.160000 6.920000 -16.992607 37.236248 1675.286865
0.920000 -1.160000 6.960000 -47.576172 11.563889 2397.215820
0.920000 -1.160000 7.000000 -45.657372 -25.640709 2742.041504
0.920000 -1.160000 7.040000 -17.006428 -44.317688 2253.276123
0.920000 -1.160000 7.080000 11.767948 -33.154087 1237.678101
0.920000 -1.160000 7.120000 18.617710 -6.914709 394.432343
0.920000 -1.160000 7.160000 4.186692 10.780544 133.748535
0.920000 -1.160000 7.200000 -13.783318 9.901810 288.025696
0.920000 -1.120000 6.800000 54.518734 -6.042982 3008.809814
0.920000 -1.120000 6.840000 37.786575 47.145596 3650.532715
0.920000 -1.120000 6.880000 -21.303673 73.459366 5850.125000
0.920000 -1.120000 6.920000 -85.863708 43.746323 9286.317383
0.920000 -1.120000 6.960000 -106.922760 -27.664505 12197.801758
0.920000 -1.120000 7.000000 -66.764038 -90.483566 12644.712891
0.920000 -1.120000 7.040000 3.941246 -100.529396 10121.692383
0.920000 -1.120000 7.080000 52.734562 -56.968811 6026.379395
0.920000 -1.120000 7.120000 50.338425 0.260082 2534.024658
0.920000 -1.120000 7.160000 11.469267 28.395649 937.856934
0.920000 -1.120000 7.200000 -25.304064 17.144161 934.217896
0.920000 -1.080000 6.800000 39.556309 37.519405 2972.407227
0.920000 -1.080000 6.840000 -14.333584 81.581863 6861.052246
0.920000 -1.080000 6.880000 -98.762909 67.028732 14246.962891
0.920000 -1.080000 6.920000 -151.155914 -16.627831 23124.595703
0.920000 -1.080000 6.960000 -122.285400 -119.782921 29301.667969
0.920000 -1.080000 7.000000 -24.204582 -169.253876 29232.736328
0.920000 -1.080000 7.040000 75.281441 -130.806152 22777.544922
0.920000 -1.080000 7.080000 109.244972 -38.657578 13428.872070
0.920000 -1.080000 7.120000 66.703903 36.080727 5751.229492
0.920000 -1.080000 7.160000 -4.484738 46.989487 2228.124756
0.920000 -1.080000 7.200000 -45.642929 5.781450 2116.701904
0.920000 -1.040000 6.800000 -2.265194 54.202415 2943.032959
0.920000 -1.040000 6.840000 -79.833267 63.461983 10400.773438
0.920000 -1.040000 6.880000 -153.090302 -3.847282 23451.441406
0.920000 -1.040000 6.920000 -152.361420 -121.356384 37941.375000
0.920000 -1.040000 6.960000 -56.999176 -209.194687 47011.324219
0.920000 -1.040000 7.000000 76.887077 -199.442810 45689.054688
0.920000 -1.040000 7.040000 158.632660 -97.281044 34627.921875
0.920000 -1.040000 7.080000 138.912399 21.462530 19757.294922
0.920000 -1.040000 7.120000 48.819962 75.353058 8061.472168
0.920000 -1.040000 7.160000 -32.897377 43.806084 3001.210449
0.920000 -1.040000 7.200000 -50.206100 -25.212997 3156.347900
0.920000 -1.000000 6.800000 -40.506058 33.740868 2779.187012
0.920000 -1.000000 6.840000 -111.172325 -0.255642 12359.351562
0.920000 -1.000000 6.880000 -137.212097 -98.780029 28584.654297
0.920000 -1.000000 6.920000 -71.515701 -201.646637 45775.863281
0.920000 -1.000000 6.960000 61.717102 -227.664520 55640.132812
0.920000 -1.000000 7.000000 177.048462 -146.557602 52825.289062
0.920000 -1.000000 7.040000 196.856476 -10.730528 38867.617188
0.920000 -1.000000 7.080000 117.119308 86.375229 21177.613281
0.920000 -1.000000 7.120000 8.420090 88.256676 7860.138672
0.920000 -1.000000 7.160000 -47.608253 17.782185 2582.751953
0.920000 -1.000000 7.200000 -25.491461 -52.066666 3360.752441
0.920000 -0.960000 6.800000 -48.940273 -6.612398 2438.874268
0.920000 -0.960000 6.840000 -84.822037 -66.091469 11562.859375
0.920000 -0.960000 6.880000 -56.365021 -152.895309 26553.992188
0.920000 -0.960000 6.920000 43.402122 -199.700272 41763.945312
0.920000 -0.960000 6.960000 158.541779 -156.724869 49698.179688
0.920000 -0.960000 7.000000 210.716675 -40.423851 46035.601562
0.920000 -0.960000 7.040000 165.085495 74.242310 32765.140625
0.920000 -0.960000 7.080000 60.760059 114.598854 16824.681641
0.920000 -0.960000 7.120000 -23.238188 69.301369 5342.692871
0.920000 -0.960000 7.160000 -34.788765 -7.719530 1269.849365
0.920000 -0.960000 7.200000 13.074061 -49.038414 2575.697266
0.920000 -0.920000 6.800000 -25.258364 -36.968254 2004.636719
0.920000 -0.920000 6.840000 -21.562729 -89.335846 8445.844727
0.920000 -0.920000 6.880000 33.291084 -131.821594 18485.230469
0.920000 -0.920000 6.920000 116.333130 -120.679970 28097.052734
0.920000 -0.920000 6.960000 173.881989 -47.407902 32482.455078
0.920000 -0.920000 7.000000 164.130157 48.053871 29247.882812
0.920000 -0.920000 7.040000 93.424713 106.596024 20090.888672
0.920000 -0.920000 7.080000 12.296711 97.489639 9655.438477
0.920000 -0.920000 7.120000 -26.243914 41.809486 2436.776123
0.920000 -0.920000 7.160000 -8.702089 -8.620541 150.040070
0.920000 -0.920000 7.200000 33.279675 -16.154915 1368.518066
0.920000 -0.880000 6.800000 9.676891 -38.683796 1590.078247
0.920000 -0.880000 6.840000 31.863935 -60.570633 4684.111816
0.920000 -0.880000 6.880000 72.472000 -60.373772 8897.183594
0.920000 -0.880000 6.920000 108.225189 -27.946114 12493.676758
0.920000 -0.880000 6.960000 114.779388 24.407188 13770.018555
0.920000 -0.880000 7.000000 85.619392 68.998688 12091.499023
0.920000 -0.880000 7.040000 37.903717 82.769035 8287.405273
0.920000 -0.880000 7.080000 -0.244381 64.177124 4118.762695
0.920000 -0.880000 7.120000 -10.792402 33.117474 1213.243042
0.920000 -0.880000 7.160000 1.957352 14.236238 206.501709
0.920000 -0.880000 7.200000 17.443405 17.854822 623.067017
0.920000 -0.840000 6.800000 30.892704 -16.762527 1235.341431
0.920000 -0.840000 6.840000 42.673103 -10.186541 1924.759399
0.920000 -0.840000 6.880000 48.057732 2.278095 2314.735352
0.920000 -0.840000 6.920000 47.036015 14.281136 2416.337646
0.920000 -0.840000 6.960000 43.456970 24.058098 2467.300293
0.920000 -0.840000 7.000000 38.408951 33.874290 2622.715088
0.920000 -0.840000 7.040000 28.891808 44.047016 2774.876221
0.920000 -0.840000 7.080000 13.166819 49.976093 2670.975098
0.920000 -0.840000 7.120000 -4.482140 46.567184 2188.592285
0.920000 -0.840000 7.160000 -16.362581 34.819023 1480.098389
0.920000 -0.840000 7.200000 -19.047119 22.052132 849.089233
0.920000 -0.800000 6.800000 28.858467 8.279245 901.356995
0.920000 -0.800000 6.840000 16.459686 21.511686 733.673950
0.920000 -0.800000 6.880000 -2.041462 15.837536 254.995117
0.920000 -0.800000 6.920000 -4.518143 -5.243053 47.903221
0.920000 -0.800000 6.960000 16.825333 -18.434244 622.913208
0.920000 -0.800000 7.000000 43.921242 -3.950836 1944.684570
0.920000 -0.800000 7.040000 48.524319 32.293976 3397.510498
0.920000 -0.800000 7.080000 20.253027 61.721161 4219.687012
0.920000 -0.800000 7.120000 -21.993988 59.559685 4031.091553
0.920000 -0.800000 7.160000 -47.394432 28.062334 3033.726807
0.920000 -0.800000 7.200000 -41.647717 -6.910645 1782.289429
0.960000 -1.200000 6.800000 23.534727 -58.172829 3937.961182
0.960000 -1.200000 6.840000 37.690628 -30.214195 2333.480957
0.960000 -1.200000 6.880000 28.810959 -4.044803 846.431763
0.960000 -1.200000 6.920000 8.403069 3.802925 85.073807
0.960000 -1.200000 6.960000 -4.012333 -5.950928 51.512356
0.960000 -1.200000 7.000000 0.489682 -17.187271 295.642059
0.960000 -1.200000 7.040000 12.878304 -15.311481 400.292175
0.960000 -1.200000 7.080000 17.218674 -1.430941 298.530304
0.960000 -1.200000 7.120000 7.684103 10.703569 173.611847
0.960000 -1.200000 7.160000 -6.642259 10.465487 153.646011
0.960000 -1.200000 7.200000 -13.198998 1.107546 175.440216
0.960000 -1.160000 6.800000 56.692875 -21.180372 3662.690186
0.960000 -1.160000 6.840000 45.838509 24.469101 2699.905762
0.960000 -1.160000 6.880000 1.792713 48.024563 2309.572510
0.960000 -1.160000 6.920000 -45.215271 29.112633 2891.966309
0.960000 -1.160000 6.960000 -59.466419 -18.467270 3877.295166
0.960000 -1.160000 7.000000 -31.732719 -57.006931 4256.755859
0.960000 -1.160000 7.040000 12.686523 -58.029827 3528.408691
0.960000 -1.160000 7.080000 37.819332 -26.180130 2115.701172
0.960000 -1.160000 7.120000 28.790386 8.510029 901.306946
0.960000 -1.160000 7.160000 0.928371 20.220261 409.720825
0.960000 -1.160000 7.200000 -19.776428 8.427253 462.125702
0.960000 -1.120000 6.800000 51.340584 29.907139 3530.292480
0.960000 -1.120000 6.840000 2.078590 73.200668 5362.658203
0.960000 -1.120000 6.880000 -74.526985 62.784130 9496.118164
0.960000 -1.120000 6.920000 -121.880493 -8.939301 14934.765625
0.960000 -1.120000 6.960000 -97.973633 -96.411926 18894.093750
0.960000 -1.120000 7.000000 -16.061890 -136.192993 18806.515625
0.960000 -1.120000 7.040000 64.000114 -101.815430 14462.396484
0.960000 -1.120000 7.080000 87.212494 -25.793320 8271.314453
0.960000 -1.120000 7.120000 48.722923 31.721703 3380.189697
0.960000 -1.120000 7.160000 -8.723932 35.866196 1362.490967
0.960000 -1.120000 7.200000 -38.531944 0.992261 1485.695312
0.960000 -1.080000 6.800000 9.202339 59.776096 3657.864746
0.960000 -1.080000 6.840000 -72.688446 71.186852 10351.177734
0.960000 -1.080000 6.880000 -149.925369 3.143917 22487.501953
0.960000 -1.080000 6.920000 -150.980576 -116.144585 36284.699219
0.960000 -1.080000 6.960000 -56.168381 -204.492111 44971.910156
0.960000 -1.080000 7.000000 75.931519 -194.203629 43480.648438
0.960000 -1.080000 7.040000 154.167450 -93.136230 32441.960938
0.960000 -1.080000 7.080000 132.038895 21.299641 17887.943359
0.960000 -1.080000 7.120000 43.774467 70.009178 6817.489258
0.960000 -1.080000 7.160000 -32.640137 36.982513 2433.084961
0.960000 -1.080000 7.200000 -46.204689 -28.023003 2920.162109
0.960000 -1.040000 6.800000 -40.199913 47.365879 3859.559570
0.960000 -1.040000 6.840000 -125.060112 7.935705 15703.006836
0.960000 -1.040000 6.880000 -157.416626 -107.761528 36392.539062
0.960000 -1.040000 6.920000 -81.991287 -228.415054 58896.007812
0.960000 -1.040000 6.960000 71.770714 -258.833801 72145.968750
0.960000 -1.040000 7.000000 203.318207 -165.225296 68637.687500
0.960000 -1.040000 7.040000 223.742813 -10.545013 50172.046875
0.960000 -1.040000 7.080000 131.524872 97.181496 26743.035156
0.960000 -1.040000 7.120000 9.816200 96.203262 9351.424805
0.960000 -1.040000 7.160000 -50.043007 16.609880 2780.190674
0.960000 -1.040000 7.200000 -24.143501 -58.318565 3983.963867
0.960000 -1.000000 6.800000 -61.973534 2.827335 3848.712646
0.960000 -1.000000 6.840000 -112.180527 -77.480881 18587.757812
0.960000 -1.000000 6.880000 -75.164642 -195.660645 43932.808594
0.960000 -1.000000 6.920000 58.880775 -259.478973 70796.281250
0.960000 -1.000000 6.960000 212.931046 -201.323135 85870.632812
0.960000 -1.000000 7.000000 280.422516 -45.285019 80687.523438
0.960000 -1.000000 7.040000 216.380508 105.672165 57987.128906
0.960000 -1.000000 7.080000 76.729431 155.015778 29917.296875
0.960000 -1.000000 7.120000 -31.993000 91.759842 9443.419922
0.960000 -1.000000 7.160000 -44.147820 -9.128951 2032.367798
0.960000 -1.000000 7.200000 17.798252 -60.405182 3965.563721
0.960000 -0.960000 6.800000 -42.786285 -40.833851 3498.069580
0.960000 -0.960000 6.840000 -39.910015 -125.499336 17342.892578
0.960000 -0.960000 6.880000 47.055904 -196.084839 40663.523438
0.960000 -0.960000 6.920000 181.092590 -178.796936 64762.871094
0.960000 -0.960000 6.960000 272.259552 -59.359512 77648.820312
0.960000 -0.960000 7.000000 251.507751 94.160446 72122.335938
0.960000 -0.960000 7.040000 132.463623 183.133331 51084.429688
0.960000 -0.960000 7.080000 1.635307 159.985840 25598.142578
0.960000 -0.960000 7.120000 -55.132599 64.591110 7211.615234
0.960000 -0.960000 7.160000 -21.588223 -16.553875 740.082153
0.960000 -0.960000 7.200000 46.127716 -26.956493 2854.418701
0.960000 -0.920000 6.800000 0.395634 -54.071556 2923.889648
0.960000 -0.920000 6.840000 40.532032 -105.167343 12703.015625
0.960000 -0.920000 6.880000 126.703400 -111.326591 28447.363281
0.960000 -0.920000 6.920000 205.580765 -42.972889 44110.117188
0.960000 -0.920000 6.960000 216.209320 72.301384 51973.960938
0.960000 -0.920000 7.000000 142.712418 165.428680 47733.484375
0.960000 -0.920000 7.040000 31.135136 180.536743 33562.914062
0.960000 -0.920000 7.080000 -47.176704 120.180984 16669.109375
0.960000 -0.920000 7.120000 -53.272732 40.183830 4452.724121
0.960000 -0.920000 7.160000 -7.623047 0.104057 58.121670
0.960000 -0.920000 7.200000 35.148422 15.635885 1479.892578
0.960000 -0.880000 6.800000 36.042278 -32.371822 2346.980713
0.960000 -0.880000 6.840000 75.510132 -38.488567 7183.149414
0.960000 -0.880000 6.880000 118.286560 -8.049019 14056.497070
0.960000 -0.880000 6.920000 132.444763 52.854950 20335.261719
0.960000 -0.880000 6.960000 101.272514 113.628464 23167.550781
0.960000 -0.880000 7.000000 37.933578 140.572205 21199.501953
0.960000 -0.880000 7.040000 -23.290939 121.958740 15416.402344
0.960000 -0.880000 7.080000 -52.377041 75.890572 8502.733398
0.960000 -0.880000 7.120000 -44.589375 34.830528 3201.377930
0.960000 -0.880000 7.160000 -20.413246 20.471584 835.786377
0.960000 -0.880000 7.200000 -6.264235 29.812691 928.037170
0.960000 -0.840000 6.800000 43.278740 4.107455 1889.920532
0.960000 -0.840000 6.840000 52.029278 21.738232 3179.596436
0.960000 -0.840000 6.880000 48.232040 42.342091 4119.182617
0.960000 -0.840000 6.920000 35.238976 57.485466 4546.364258
0.960000 -0.840000 6.960000 19.215294 65.775398 4695.630371
0.960000 -0.840000 7.000000 2.170624 69.612740 4850.645020
0.960000 -0.840000 7.040000 -17.152245 68.560196 4994.700195
0.960000 -0.840000 7.080000 -36.947350 58.771523 4819.198242
0.960000 -0.840000 7.120000 -50.171116 39.408405 4070.163330
0.960000 -0.840000 7.160000 -50.682560 17.279388 2867.299316
0.960000 -0.840000 7.200000 -40.807243 2.401333 1670.997437
0.960000 -0.800000 6.800000 24.986639 29.795156 1512.083496
0.960000 -0.800000 6.840000 2.330338 38.088799 1456.187012
0.960000 -0.800000 6.880000 -16.159161 22.860107 783.703003
0.960000 -0.800000 6.920000 -10.135628 0.559525 103.044014
0.960000 -0.800000 6.960000 14.539055 -1.295765 213.063110
0.960000 -0.800000 7.000000 28.728703 25.604103 1480.908447
0.960000 -0.800000 7.040000 9.440360 58.331505 3491.684814
0.960000 -0.800000 7.080000 -34.729301 63.638611 5255.997070
0.960000 -0.800000 7.120000 -69.772980 31.184132 5840.718750
0.960000 -0.800000 7.160000 -68.746300 -15.566473 4968.368652
0.960000 -0.800000 7.200000 -37.051426 -42.275246 3160.004395
1.000000 -1.200000 6.800000 51.492615 -33.649422 3783.772949
1.000000 -1.200000 6.840000 48.674694 -2.453840 2375.247070
1.000000 -1.200000 6.880000 26.627922 14.935007 932.100647
1.000000 -1.200000 6.920000 4.230850 9.793182 113.806511
1.000000 -1.200000 6.960000 -1.284925 -7.113892 52.258484
1.000000 -1.200000 7.000000 10.087322 -16.497879 373.934082
1.000000 -1.200000 7.040000 22.897743 -9.151466 608.055969
1.000000 -1.200000 7.080000 22.693916 6.757647 560.679626
1.000000 -1.200000 7.120000 9.624573 16.052374 350.311096
1.000000 -1.200000 7.160000 -4.220535 12.372930 170.902298
1.000000 -1.200000 7.200000 -8.985838 2.604480 87.528603
1.000000 -1.160000 6.800000 56.293320 14.675480 3384.307373
1.000000 -1.160000 6.840000 23.174023 48.148476 2855.311035
1.000000 -1.160000 6.880000 -27.761934 44.909828 2787.617676
1.000000 -1.160000 6.920000 -58.919357 2.430588 3477.398438
1.000000 -1.160000 6.960000 -45.490803 -48.259094 4398.353516
1.000000 -1.160000 7.000000 1.088234 -68.352615 4673.264160
1.000000 -1.160000 7.040000 42.968254 -45.241302 3893.046387
1.000000 -1.160000 7.080000 49.673325 -1.872536 2470.945557
1.000000 -1.160000 7.120000 22.916946 26.404083 1222.362061
1.000000 -1.160000 7.160000 -9.981251 23.299076 642.472290
1.000000 -1.160000 7.200000 -24.310047 1.140922 592.280090
1.000000 -1.120000 6.800000 22.268433 51.741554 3173.071533
1.000000 -1.120000 6.840000 -42.925064 63.085522 5822.344238
1.000000 -1.120000 6.880000 -104.104523 12.731133 10999.833984
1.000000 -1.120000 6.920000 -106.879982 -76.274040 17241.058594
1.000000 -1.120000 6.960000 -38.046730 -141.103500 21357.750000
1.000000 -1.120000 7.000000 56.756569 -132.375488 20744.578125
1.000000 -1.120000 7.040000 110.045952 -58.526402 15535.451172
1.000000 -1.120000 7.080000 90.181595 21.954479 8614.719727
1.000000 -1.120000 7.120000 25.121609 52.720299 3410.525146
1.000000 -1.120000 7.160000 -28.142454 25.559809 1445.301514
1.000000 -1.120000 7.200000 -35.552624 -21.546694 1728.249023
1.000000 -1.080000 6.800000 -28.416542 50.402077 3347.869141
1.000000 -1.080000 6.840000 -105.222092 16.365801 11339.528320
1.000000 -1.080000 6.880000 -135.587326 -85.169235 25637.722656
1.000000 -1.080000 6.920000 -71.217621 -190.860214 41499.570312
1.000000 -1.080000 6.960000 61.008450 -217.383423 50977.582031
1.000000 -1.080000 7.000000 172.703918 -136.613785 48489.968750
1.000000 -1.080000 7.040000 187.679749 -4.930298 35247.996094
1.000000 -1.080000 7.080000 107.036484 84.173805 18542.039062
1.000000 -1.080000 7.120000 3.969374 79.789619 6382.139160
1.000000 -1.080000 7.160000 -44.362503 10.516328 2078.624756
1.000000 -1.080000 7.200000 -20.731024 -52.077530 3141.844482
1.000000 -1.040000 6.800000 -59.908169 11.376356 3718.410156
1.000000 -1.040000 6.840000 -111.778793 -69.216408 17285.410156
1.000000 -1.040000 6.880000 -76.013229 -188.383179 41266.234375
1.000000 -1.040000 6.920000 57.354568 -252.942535 67269.468750
1.000000 -1.040000 6.960000 210.243530 -195.068222 82253.953125
1.000000 -1.040000 7.000000 275.582062 -40.167175 77558.875000
1.000000 -1.040000 7.040000 209.849777 107.614487 55617.808594
1.000000 -1.040000 7.080000 71.099319 152.817657 28408.349609
1.000000 -1.040000 7.120000 -34.122402 87.330742 8790.997070
1.000000 -1.040000 7.160000 -43.133171 -12.306358 2011.916870
1.000000 -1.040000 7.200000 18.459021 -60.987198 4060.173584
1.000000 -1.000000 6.800000 -50.617027 -36.718857 3910.357910
1.000000 -1.000000 6.840000 -49.230431 -134.640930 20551.814453
1.000000 -1.000000 6.880000 49.949802 -217.488083 49796.050781
1.000000 -1.000000 6.920000 204.337753 -198.388763 81112.015625
1.000000 -1.000000 6.960000 308.400879 -60.622551 98786.195312
1.000000 -1.000000 7.000000 281.810150 115.252380 92700.070312
1.000000 -1.000000 7.040000 142.437714 213.851166 66020.820312
1.000000 -1.000000 7.080000 -7.132267 181.909393 33141.898438
1.000000 -1.000000 7.120000 -68.149017 69.100273 9419.136719
1.000000 -1.000000 7.160000 -25.650335 -23.317589 1201.649658
1.000000 -1.000000 7.200000 52.414444 -33.238075 3852.043457
1.000000 -0.960000 6.800000 -9.440323 -60.045807 3694.618652
1.000000 -0.960000 6.840000 41.820179 -132.400055 19278.703125
1.000000 -0.960000 6.880000 159.332779 -144.514755 46271.445312
1.000000 -0.960000 6.920000 268.442627 -52.104797 74776.351562
1.000000 -0.960000 6.960000 281.563843 106.342537 90586.929688
1.000000 -0.960000 7.000000 176.416199 231.623215 84771.984375
1.000000 -0.960000 7.040000 20.811584 244.714767 60318.437500
1.000000 -0.960000 7.080000 -82.683235 152.772034 30175.812500
1.000000 -0.960000 7.120000 -81.801651 38.749592 8193.041016
1.000000 -0.960000 7.160000 -11.043465 -13.672039 308.882751
1.000000 -0.960000 7.200000 50.074032 12.145611 2654.924561
1.000000 -0.920000 6.800000 33.070248 -45.255905 3141.738281
1.000000 -0.920000 6.840000 99.040955 -66.549675 14237.969727
1.000000 -0.920000 6.880000 179.666519 -20.760620 32711.062500
1.000000 -0.920000 6.920000 210.048889 87.314240 51744.312500
1.000000 -0.920000 6.960000 151.973297 197.448853 62081.933594
1.000000 -0.920000 7.000000 31.556274 238.957535 58096.500000
1.000000 -0.920000 7.040000 -78.011978 188.988358 41802.464844
1.000000 -0.920000 7.080000 -115.282166 90.824738 21539.109375
1.000000 -0.920000 7.120000 -77.991455 15.537098 6324.068359
1.000000 -0.920000 7.160000 -17.515770 3.098417 316.402374
1.000000 -0.920000 7.200000 10.814436 36.228539 1429.458984
1.000000 -0.880000 6.800000 49.591991 -6.899743 2506.972168
1.000000 -0.880000 6.840000 89.576561 12.205505 8172.934570
1.000000 -0.880000 6.880000 110.000885 67.007721 16590.228516
1.000000 -0.880000 6.920000 85.162094 132.194931 24728.082031
1.000000 -0.880000 6.960000 18.569992 169.292206 29004.695312
1.000000 -0.880000 7.000000 -57.011436 155.500336 27430.658203
1.000000 -0.880000 7.040000 -103.170296 100.980911 20841.253906
1.000000 -0.880000 7.080000 -103.561722 40.126026 12335.127930
1.000000 -0.880000 7.120000 -72.981003 4.844448 5349.695312
1.000000 -0.880000 7.160000 -41.907288 2.640644 1763.193726
1.000000 -0.880000 7.200000 -31.551464 16.386156 1264.000977
1.000000 -0.840000 6.800000 35.085075 27.546612 1989.778320
1.000000 -0.840000 6.840000 33.458366 51.037674 3724.306641
1.000000 -0.840000 6.880000 16.434273 70.661942 5263.195312
1.000000 -0.840000 6.920000 -8.261734 78.517059 6233.185059
1.000000 -0.840000 6.960000 -32.493629 75.250595 6718.487793
1.000000 -0.840000 7.000000 -53.381653 64.434578 7001.416016
1.000000 -0.840000 7.040000 -70.375572 46.821030 7144.929688
1.000000 -0.840000 7.080000 -79.891602 22.078215 6870.115723
1.000000 -0.840000 7.120000 -76.404907 -5.303669 5865.838867
1.000000 -0.840000 7.160000 -59.694336 -25.460751 4211.663574
1.000000 -0.840000 7.200000 -38.759235 -31.065350 2467.334229
1.000000 -0.800000 6.800000 5.628878 39.735546 1610.597778
1.000000 -0.800000 6.840000 -19.985456 36.831955 1756.011353
1.000000 -0.800000 6.880000 -30.886387 14.884695 1175.523071
1.000000 -0.800000 6.920000 -17.595856 -1.841766 313.006226
1.000000 -0.800000 6.960000 1.137611 6.912460 49.076267
1.000000 -0.800000 7.000000 -3.049471 32.872734 1089.916016
1.000000 -0.800000 7.040000 -36.449341 44.870235 3341.892578
1.000000 -0.800000 7.080000 -73.191139 20.791651 5789.235840
1.000000 -0.800000 7.120000 -79.435333 -27.677322 7076.006348
1.000000 -0.800000 7.160000 -47.424679 -64.695007 6434.543945
1.000000 -0.800000 7.200000 -3.438499 -65.106270 4250.649414
1.040000 -1.200000 6.800000 54.001816 2.754217 2923.781738
1.040000 -1.200000 6.840000 37.681160 24.945932 2042.169434
1.040000 -1.200000 6.880000 12.595291 28.199059 953.828247
1.040000 -1.200000 6.920000 -3.106666 13.721573 197.932922
1.040000 -1.200000 6.960000 -0.527618 -3.143337 10.158951
1.040000 -1.200000 7.000000 12.805725 -7.427387 219.152679
1.040000 -1.200000 7.040000 21.504009 2.340406 467.899933
1.040000 -1.200000 7.080000 17.179386 14.972775 519.315308
1.040000 -1.200000 7.120000 4.571686 18.981636 381.202820
1.040000 -1.200000 7.160000 -5.681247 12.915464 199.085785
1.040000 -1.200000 7.200000 -8.186982 3.877651 82.062859
1.040000 -1.160000 6.800000 31.211391 38.017136 2419.453613
1.040000 -1.160000 6.840000 -8.195692 48.141045 2384.729492
1.040000 -1.160000 6.880000 -45.338020 22.654808 2568.776367
1.040000 -1.160000 6.920000 -50.202030 -24.339336 3112.647217
1.040000 -1.160000 6.960000 -16.921677 -58.246910 3679.045898
1.040000 -1.160000 7.000000 29.019554 -53.835049 3740.346924
1.040000 -1.160000 7.040000 52.694946 -17.347637 3077.697754
1.040000 -1.160000 7.080000 39.793518 20.335762 1997.067261
1.040000 -1.160000 7.120000 6.352133 31.898991 1057.895142
1.040000 -1.160000 7.160000 -19.118826 15.435829 603.794312
1.040000 -1.160000 7.200000 -21.494251 -9.245873 547.489014
1.040000 -1.120000 6.800000 -11.550686 44.311569 2096.933594
1.040000 -1.120000 6.840000 -64.580719 23.366875 4716.680176
1.040000 -1.120000 6.880000 -87.360771 -42.528500 9440.577148
1.040000 -1.120000 6.920000 -48.340046 -111.698532 14813.322266
1.040000 -1.120000 6.960000 34.640205 -130.014984 18103.839844
1.040000 -1.120000 7.000000 104.314629 -79.898987 17265.390625
1.040000 -1.120000 7.040000 112.364639 1.793236 12629.028320
1.040000 -1.120000 7.080000 60.618759 55.494541 6754.278320
1.040000 -1.120000 7.120000 -3.778830 49.994503 2513.729980
1.040000 -1.120000 7.160000 -32.600246 4.604525 1083.977783
1.040000 -1.120000 7.200000 -16.269564 -35.430622 1520.027710
1.040000 -1.080000 6.800000 -44.162827 15.825483 2200.801270
1.040000 -1.080000 6.840000 -84.875443 -44.442001 9178.932617
1.040000 -1.080000 6.880000 -59.923859 -134.660904 21724.427734
1.040000 -1.080000 6.920000 38.832657 -184.482605 35541.808594
1.040000 -1.080000 6.960000 152.648422 -142.509766 43610.574219
1.040000 -1.080000 7.000000 200.877914 -27.980690 41134.855469
1.040000 -1.080000 7.040000 151.211823 80.585655 29359.062500
1.040000 -1.080000 7.080000 47.959587 111.918777 14825.934570
1.040000 -1.080000 7.120000 -28.901308 61.033112 4560.326172
1.040000 -1.080000 7.160000 -33.422382 -13.957756 1311.874634
1.040000 -1.080000 7.200000 13.955787 -49.859032 2680.687012
1.040000 -1.040000 6.800000 -43.263275 -26.807201 2590.336914
1.040000 -1.040000 6.840000 -43.437428 -110.485046 14093.755859
1.040000 -1.040000 6.880000 40.512291 -182.554138 34967.257812
1.040000 -1.040000 6.920000 172.799973 -167.281738 57843.007812
1.040000 -1.040000 6.960000 261.991180 -49.527489 71092.343750
1.040000 -1.040000 7.000000 238.276260 100.793411 66934.890625
1.040000 -1.040000 7.040000 117.675491 183.470291 47508.867188
1.040000 -1.040000 7.080000 -10.139187 153.075638 23534.953125
1.040000 -1.040000 7.120000 -59.924564 54.092152 6516.914062
1.040000 -1.040000 7.160000 -20.406284 -25.200338 1051.473511
1.040000 -1.040000 7.200000 48.090660 -32.348450 3359.133789
1.040000 -1.000000 6.800000 -10.826151 -52.753685 2900.156738
1.040000 -1.000000 6.840000 37.485970 -124.461708 16895.914062
1.040000 -1.000000 6.880000 152.664337 -138.138565 42388.664062
1.040000 -1.000000 6.920000 260.773682 -47.734951 70281.539062
1.040000 -1.000000 6.960000 273.151184 108.926498 86476.554688
1.040000 -1.000000 7.000000 167.134644 231.603745 81574.281250
1.040000 -1.000000 7.040000 11.995335 240.678604 58070.078125
1.040000 -1.000000 7.080000 -88.191727 144.928619 28782.085938
1.040000 -1.000000 7.120000 -82.097275 29.880968 7632.834473
1.040000 -1.000000 7.160000 -7.275583 -20.289154 464.583893
1.040000 -1.000000 7.200000 54.786777 8.399059 3072.135254
1.040000 -0.960000 6.800000 28.473450 -45.219978 2855.583740
1.040000 -0.960000 6.840000 102.632111 -73.822960 15983.179688
1.040000 -0.960000 6.880000 197.798477 -24.085157 39704.332031
1.040000 -0.960000 6.920000 235.062256 101.507156 65557.968750
1.040000 -0.960000 6.960000 166.024902 230.475098 80683.039062
1.040000 -0.960000 7.000000 22.257877 275.670654 76489.726562
1.040000 -0.960000 7.040000 -105.411507 209.663696 55070.453125
1.040000 -0.960000 7.080000 -141.827286 88.143860 27884.318359
1.040000 -0.960000 7.120000 -87.537140 0.041954 7662.752930
1.040000 -0.960000 7.160000 -9.530640 -7.821466 152.008423
1.040000 -0.960000 7.200000 24.118261 38.379181 2054.652100
1.040000 -0.920000 6.800000 47.930992 -12.742361 2459.747803
1.040000 -0.920000 6.840000 109.044945 4.792421 11913.767578
1.040000 -0.920000 6.880000 147.596161 81.597168 28442.724609
1.040000 -0.920000 6.920000 115.605499 181.294525 46232.335938
1.040000 -0.920000 6.960000 13.691559 237.858414 56764.082031
1.040000 -0.920000 7.000000 -102.355331 209.468307 54353.585938
1.040000 -0.920000 7.040000 -164.263611 114.973175 40201.363281
1.040000 -0.920000 7.080000 -145.909729 18.447262 21629.949219
1.040000 -0.920000 7.120000 -80.564316 -24.146687 7073.671387
1.040000 -0.920000 7.160000 -27.093864 -7.258060 786.756958
1.040000 -0.920000 7.200000 -19.033154 29.267756 1218.862427
1.040000 -0.880000 6.800000 38.616768 20.783766 1923.219727
1.040000 -0.880000 6.840000 60.355034 57.171177 6911.273438
1.040000 -0.880000 6.880000 47.535942 111.932877 14788.634766
1.040000 -0.880000 6.920000 -7.233315 151.186111 22909.560547
1.040000 -0.880000 6.960000 -80.962616 145.807083 27814.650391
1.040000 -0.880000 7.000000 -135.430664 94.520798 27275.646484
1.040000 -0.880000 7.040000 -145.024094 25.286964 21671.417969
1.040000 -0.880000 7.080000 -114.094925 -26.051371 13696.326172
1.040000 -0.880000 7.120000 -70.255768 -41.366516 6647.061523
1.040000 -0.880000 7.160000 -41.269302 -29.347858 2564.452148
1.040000 -0.880000 7.200000 -35.821499 -13.178408 1456.850220
1.040000 -0.840000 6.800000 12.098387 36.202286 1456.976440
1.040000 -0.840000 6.840000 -0.853354 56.249886 3164.777832
1.040000 -0.840000 6.880000 -26.307877 65.323845 4959.309082
1.040000 -0.840000 6.920000 -53.536270 59.211739 6372.162109
1.040000 -0.840000 6.960000 -74.544197 41.722404 7297.596680
1.040000 -0.840000 7.000000 -86.947983 17.922485 7881.166992
1.040000 -0.840000 7.040000 -89.853973 -9.501503 8164.014648
1.040000 -0.840000 7.080000 -80.754211 -37.167553 7902.669922
1.040000 -0.840000 7.120000 -58.964890 -57.617107 6796.588867
1.040000 -0.840000 7.160000 -31.080692 -62.836407 4914.423340
1.040000 -0.840000 7.200000 -9.473373 -52.565662 2852.893799
1.040000 -0.800000 6.800000 -13.044899 31.113029 1138.190063
1.040000 -0.800000 6.840000 -32.749073 18.898991 1429.673706
1.040000 -0.800000 6.880000 -33.709019 -2.236996 1141.302124
1.040000 -0.800000 6.920000 -19.150162 -10.073677 468.207672
1.040000 -0.800000 6.960000 -11.629463 1.814583 138.537125
1.040000 -0.800000 7.000000 -27.416862 14.280319 955.611816
1.040000 -0.800000 7.040000 -55.434242 2.227875 3077.918701
1.040000 -0.800000 7.080000 -65.729843 -36.429668 5647.532715
1.040000 -0.800000 7.120000 -40.389286 -74.719749 7214.335449
1.040000 -0.800000 7.160000 5.908772 -82.012543 6760.970703
1.040000 -0.800000 7.200000 38.858177 -54.913963 4525.501465
1.080000 -1.200000 6.800000 31.326500 27.748648 1751.337036
1.080000 -1.200000 6.840000 12.353207 36.022339 1450.210571
1.080000 -1.200000 6.880000 -6.211327 29.042725 882.060425
1.080000 -1.200000 6.920000 -13.106522 12.942505 339.289368
1.080000 -1.200000 6.960000 -6.762863 0.010300 45.736423
1.080000 -1.200000 7.000000 4.382843 -1.942869 22.984053
1.080000 -1.200000 7.040000 10.257088 4.918953 129.403946
1.080000 -1.200000 7.080000 7.441910 12.308117 206.871765
1.080000 -1.200000 7.120000 0.088211 13.898444 193.174530
1.080000 -1.200000 7.160000 -5.645141 9.532331 122.732941
1.080000 -1.200000 7.200000 -6.832715 2.980073 55.566826
1.080000 -1.160000 6.800000 0.374390 35.265015 1243.761353
1.080000 -1.160000 6.840000 -27.566008 27.483725 1515.239868
1.080000 -1.160000 6.880000 -42.413830 -2.271709 1804.093628
1.080000 -1.160000 6.920000 -29.199074 -35.398029 2105.606445
1.080000 -1.160000 6.960000 4.960350 -47.461899 2277.236816
1.080000 -1.160000 7.000000 35.365402 -29.848549 2141.647461
1.080000 -1.160000 7.040000 40.746300 2.483307 1666.427856
1.080000 -1.160000 7.080000 20.893047 24.468025 1035.203735
1.080000 -1.160000 7.120000 -5.173756 22.370766 527.218933
1.080000 -1.160000 7.160000 -17.297905 3.190001 309.393646
1.080000 -1.160000 7.200000 -10.461069 -14.888068 331.088531
1.080000 -1.120000 6.800000 -25.490862 16.169836 911.247681
1.080000 -1.120000 6.840000 -49.770481 -15.534342 2718.416504
1.080000 -1.120000 6.880000 -39.528240 -65.225868 5816.895996
1.080000 -1.120000 6.920000 11.431149 -95.214935 9196.554688
1.080000 -1.120000 6.960000 72.719543 -76.530823 11145.098633
1.080000 -1.120000 7.000000 100.707939 -17.804008 10459.071289
1.080000 -1.120000 7.040000 76.641724 39.578804 7440.435547
1.080000 -1.120000 7.080000 22.956448 56.780674 3751.043457
1.080000 -1.120000 7.120000 -17.676182 29.836567 1202.668091
1.080000 -1.120000 7.160000 -19.716114 -10.866174 506.798889
1.080000 -1.120000 7.200000 6.964533 -31.007717 1009.983215
1.080000 -1.080000 6.800000 -26.837204 -15.499122 960.458313
1.080000 -1.080000 6.840000 -28.600100 -66.489952 5238.879395
1.080000 -1.080000 6.880000 21.714603 -112.654755 13162.618164
1.080000 -1.080000 6.920000 103.990730 -105.718811 21990.539062
1.080000 -1.080000 6.960000 161.288666 -34.055561 27173.814453
1.080000 -1.080000 7.000000 148.357819 59.687393 25572.628906
1.080000 -1.080000 7.040000 73.757401 111.987251 17981.298828
1.080000 -1.080000 7.080000 -6.260838 92.917641 8672.885742
1.080000 -1.080000 7.120000 -36.990318 29.921391 2263.573242
1.080000 -1.080000 7.160000 -10.480555 -20.650316 536.277588
1.080000 -1.080000 7.200000 34.877625 -24.639778 1823.567383
1.080000 -1.040000 6.800000 -3.409431 -35.637619 1281.664185
1.080000 -1.040000 6.840000 28.701241 -85.515663 8136.689941
1.080000 -1.040000 6.880000 109.401749 -96.478546 21276.851562
1.080000 -1.040000 6.920000 187.108093 -33.223526 36113.242188
1.080000 -1.040000 6.960000 196.920227 78.936157 45008.492188
1.080000 -1.040000 7.000000 120.726715 167.479965 42624.476562
1.080000 -1.040000 7.040000 8.331488 173.387360 30132.589844
1.080000 -1.040000 7.080000 -63.629082 102.448532 14544.362305
1.080000 -1.040000 7.120000 -56.965935 17.810875 3562.344971
1.080000 -1.040000 7.160000 0.296715 -17.948195 322.225739
1.080000 -1.040000 7.200000 47.172211 5.285371 2253.152588
1.080000 -1.000000 6.800000 25.956942 -30.030910 1575.618408
1.080000 -1.000000 6.840000 83.475983 -53.886925 9872.040039
1.080000 -1.000000 6.880000 160.674530 -14.950186 26039.812500
1.080000 -1.000000 6.920000 191.827637 87.640015 44478.617188
1.080000 -1.000000 6.960000 134.485306 194.235001 55813.531250
1.080000 -1.000000 7.000000 14.064117 230.568329 53359.554688
1.080000 -1.000000 7.040000 -92.090805 172.627289 38280.898438
1.080000 -1.000000 7.080000 -119.435410 68.365814 18938.703125
1.080000 -1.000000 7.120000 -69.143913 -5.257570 4808.522949
1.080000 -1.000000 7.160000 -0.240207 -8.415714 70.881950
1.080000 -1.000000 7.200000 28.189957 34.554241 1988.669189
1.080000 -0.960000 6.800000 39.768173 -5.054300 1607.053467
1.080000 -0.960000 6.840000 96.779312 7.912058 9428.835938
1.080000 -0.960000 6.880000 135.590378 79.453529 24697.613281
1.080000 -0.960000 6.920000 105.889549 176.127289 42233.417969
1.080000 -0.960000 6.960000 5.633156 230.921921 53356.667969
1.080000 -0.960000 7.000000 -108.763306 199.718628 51716.988281
1.080000 -0.960000 7.040000 -166.341431 101.883621 38049.742188
1.080000 -0.960000 7.080000 -140.576828 5.025789 19787.101562
1.080000 -0.960000 7.120000 -68.418633 -32.521225 5738.739258
1.080000 -0.960000 7.160000 -13.134113 -7.494331 228.669922
1.080000 -0.960000 7.200000 -8.517715 35.037476 1300.176270
1.080000 -0.920000 6.800000 31.056408 19.914516 1361.088379
1.080000 -0.920000 6.840000 62.029396 56.868526 7081.675293
1.080000 -0.920000 6.880000 53.459637 123.021439 17992.207031
1.080000 -0.920000 6.920000 -11.161289 174.382996 30534.003906
1.080000 -0.920000 6.960000 -103.809570 167.483337 38827.093750
1.080000 -0.920000 7.000000 -169.909821 97.867622 38447.417969
1.080000 -0.920000 7.040000 -171.810211 6.572544 29561.947266
1.080000 -0.920000 7.080000 -118.605049 -52.789886 16853.929688
1.080000 -0.920000 7.120000 -55.460609 -56.480595 6265.936523
1.080000 -0.920000 7.160000 -23.826458 -24.618231 1173.757324
1.080000 -0.920000 7.200000 -29.979618 3.089276 908.321167
1.080000 -0.880000 6.800000 9.996233 29.888691 993.258545
1.080000 -0.880000 6.840000 8.563898 63.666210 4126.726562
1.080000 -0.880000 6.880000 -24.473835 94.877258 9600.663086
1.080000 -0.880000 6.920000 -79.520538 97.137947 15759.296875
1.080000 -0.880000 6.960000 -128.300613 60.308968 20098.218750
1.080000 -0.880000 7.000000 -143.903412 -0.290298 20708.275391
1.080000 -0.880000 7.040000 -120.216835 -54.611893 17434.546875
1.080000 -0.880000 7.080000 -74.828148 -79.414818 11905.964844
1.080000 -0.880000 7.120000 -34.244415 -72.814407 6474.618164
1.080000 -0.880000 7.160000 -14.797928 -51.326206 2853.358154
1.080000 -0.880000 7.200000 -14.534084 -34.378017 1393.087646
1.080000 -0.840000 6.800000 -8.330774 24.540497 671.637756
1.080000 -0.840000 6.840000 -26.105267 34.396786 1864.623779
1.080000 -0.840000 6.880000 -49.235291 30.631769 3362.418945
1.080000 -0.840000 6.920000 -67.795769 13.972008 4791.482910
1.080000 -0.840000 6.960000 -76.616035 -9.879860 5967.628906
1.080000 -0.840000 7.000000 -74.799484 -35.842461 6879.645020
1.080000 -0.840000 7.040000 -61.981873 -60.106071 7454.492188
1.080000 -0.840000 7.080000 -38.268360 -77.143250 7415.548340
1.080000 -0.840000 7.120000 -8.399504 -79.994118 6469.610840
1.080000 -0.840000 7.160000 16.779345 -66.338577 4682.353027
1.080000 -0.840000 7.200000 26.767279 -43.885742 2642.445557
1.080000 -0.800000 6.800000 -17.234024 13.374496 475.888733
1.080000 -0.800000 6.840000 -27.500607 -0.878468 757.055115
1.080000 -0.800000 6.880000 -22.600580 -15.171356 740.956299
1.080000 -0.800000 6.920000 -12.752886 -16.437172 432.816711
1.080000 -0.800000 6.960000 -14.262268 -9.669590 296.913269
1.080000 -0.800000 7.000000 -28.455879 -13.326002 987.319397
1.080000 -0.800000 7.040000 -36.786369 -37.104313 2729.966797
1.080000 -0.800000 7.080000 -19.896324 -67.043129 4890.645020
1.080000 -0.800000 7.120000 19.135780 -76.643410 6240.390625
1.080000 -0.800000 7.160000 54.000664 -54.098999 5842.773438
1.080000 -0.800000 7.200000 59.928566 -16.420725 3861.073242
1.120000 -1.200000 6.800000 1.668312 27.549744 761.771667
1.120000 -1.200000 6.840000 -10.403956 26.692404 820.726746
1.120000 -1.200000 6.880000 -20.017841 17.938248 722.494690
1.120000 -1.200000 6.920000 -22.083351 5.039059 513.066528
1.120000 -1.200000 6.960000 -15.915878 -5.721789 286.054047
1.120000 -1.200000 7.000000 -5.443699 -9.668358 123.111000
1.120000 -1.200000 7.040000 3.577232 -6.344303 53.046776
1.120000 -1.200000 7.080000 7.043081 0.710632 50.109985
1.120000 -1.200000 7.120000 4.659346 6.402924 62.706936
1.120000 -1.200000 7.160000 -0.178713 7.203676 51.924889
1.120000 -1.200000 7.200000 -2.675661 3.387366 18.633413
1.120000 -1.160000 6.800000 -14.765409 13.216015 392.680359
1.120000 -1.160000 6.840000 -25.561340 3.498899 665.624451
1.120000 -1.160000 6.880000 -26.609583 -14.914190 930.502930
1.120000 -1.160000 6.920000 -12.656075 -30.712391 1103.427246
1.120000 -1.160000 6.960000 9.476660 -32.065155 1117.981323
1.120000 -1.160000 7.000000 25.512505 -17.421425 954.393921
1.120000 -1.160000 7.040000 25.567549 2.510212 660.000671
1.120000 -1.160000 7.080000 12.313881 13.675258 338.644348
1.120000 -1.160000 7.120000 -1.870266 10.201494 107.568382
1.120000 -1.160000 7.160000 -5.759896 -1.675767 35.984600
1.120000 -1.160000 7.200000 1.863677 -10.176409 107.032585
1.120000 -1.120000 6.800000 -12.744380 -8.260320 230.652100
1.120000 -1.120000 6.840000 -15.581159 -26.668362 953.974060
1.120000 -1.120000 6.880000 1.214581 -47.184578 2227.859375
1.120000 -1.120000 6.920000 33.991714 -49.678768 3623.416504
1.120000 -1.120000 6.960000 61.554211 -25.226704 4425.307617
1.120000 -1.120000 7.000000 62.947178 12.748569 4124.873047
1.120000 -1.120000 7.040000 37.025974 38.353600 2841.921387
1.120000 -1.120000 7.080000 4.356695 35.590897 1285.692749
1.120000 -1.120000 7.120000 -10.808865 11.898897 258.415314
1.120000 -1.120000 7.160000 -1.279982 -9.810105 97.876518
1.120000 -1.120000 7.200000 18.991745 -12.281848 511.530151
1.120000 -1.080000 6.800000 6.021761 -18.545668 380.203400
1.120000 -1.080000 6.840000 17.569889 -39.102180 1837.681396
1.120000 -1.080000 6.880000 52.412834 -46.141891 4876.179688
1.120000 -1.080000 6.920000 89.910736 -19.880980 8479.193359
1.120000 -1.080000 6.960000 98.512512 32.143333 10737.908203
1.120000 -1.080000 7.000000 65.611275 76.830811 10207.812500
1.120000 -1.080000 7.040000 12.050552 83.378929 7097.261719
1.120000 -1.080000 7.080000 -24.560392 51.024200 3206.681885
1.120000 -1.080000 7.120000 -22.562399 9.416958 597.740967
1.120000 -1.080000 7.160000 6.428033 -8.697067 116.958588
1.120000 -1.080000 7.200000 31.343651 4.272689 1000.680298
1.120000 -1.040000 6.800000 25.138676 -8.680302 707.300659
1.120000 -1.040000 6.840000 50.713074 -20.069719 2974.609619
1.120000 -1.040000 6.880000 89.587540 -1.441090 8028.003906
1.120000 -1.040000 6.920000 107.246628 52.092312 14215.447266
1.120000 -1.040000 6.960000 77.638191 110.682953 18278.404297
1.120000 -1.040000 7.000000 11.499504 132.365204 17652.785156
1.120000 -1.040000 7.040000 -48.666588 100.868988 12542.989258
1.120000 -1.040000 7.080000 -64.553497 41.619980 5899.376465
1.120000 -1.040000 7.120000 -34.913101 -0.646126 1219.342163
1.120000 -1.040000 7.160000 6.194889 -1.158061 39.717758
1.120000 -1.040000 7.200000 22.772663 26.436985 1217.508301
1.120000 -1.000000 6.800000 28.190130 12.713227 956.309631
1.120000 -1.000000 6.840000 57.973770 18.969921 3720.815918
1.120000 -1.000000 6.880000 80.418465 60.157383 10086.040039
1.120000 -1.000000 6.920000 62.323513 119.021149 18050.253906
1.120000 -1.000000 6.960000 -0.911275 153.375488 23524.871094
1.120000 -1.000000 7.000000 -74.512878 132.710815 23164.328125
1.120000 -1.000000 7.040000 -111.293129 67.886688 16994.761719
1.120000 -1.000000 7.080000 -92.265121 3.722697 8526.710938
1.120000 -1.000000 7.120000 -41.996452 -19.625589 2148.865723
1.120000 -1.000000 7.160000 -4.332956 0.341255 18.890966
1.120000 -1.000000 7.200000 -2.974369 31.768442 1018.080750
1.120000 -0.960000 6.800000 13.466113 27.756542 951.761841
1.120000 -0.960000 6.840000 33.559525 49.874130 3613.670654
1.120000 -0.960000 6.880000 28.190727 95.068039 9832.648438
1.120000 -0.960000 6.920000 -18.547396 131.969696 17760.005859
1.120000 -0.960000 6.960000 -87.785965 125.725365 23513.242188
1.120000 -0.960000 7.000000 -136.966400 70.723816 23761.652344
1.120000 -0.960000 7.040000 -135.042114 -0.991235 18237.355469
1.120000 -0.960000 7.080000 -89.131844 -45.527157 10017.207031
1.120000 -0.960000 7.120000 -37.104942 -43.500195 3269.043701
1.120000 -0.960000 7.160000 -13.707037 -12.967616 356.041931
1.120000 -0.960000 7.200000 -22.873762 11.470757 654.787231
1.120000 -0.920000 6.800000 -5.654673 26.070477 711.645081
1.120000 -0.920000 6.840000 -3.329029 52.090870 2724.541260
1.120000 -0.920000 6.880000 -29.543789 80.644745 7376.410156
1.120000 -0.920000 6.920000 -79.573395 84.076385 13400.763672
1.120000 -0.920000 6.960000 -125.506935 48.309845 18085.832031
1.120000 -0.920000 7.000000 -137.208862 -12.180286 18974.630859
1.120000 -0.920000 7.040000 -107.231956 -63.905960 15582.664062
1.120000 -0.920000 7.080000 -56.845806 -80.730652 9748.883789
1.120000 -0.920000 7.120000 -17.744040 -63.275574 4318.649414
1.120000 -0.920000 7.160000 -6.753399 -34.631538 1244.951904
1.120000 -0.920000 7.200000 -16.162544 -18.292328 595.837097
1.120000 -0.880000 6.800000 -14.735643 13.259837 392.962463
1.120000 -0.880000 6.840000 -26.471737 29.409197 1565.653809
1.120000 -0.880000 6.880000 -54.030304 34.001892 4075.402344
1.120000 -0.880000 6.920000 -84.085800 15.989056 7326.071777
1.120000 -0.880000 6.960000 -98.272362 -21.508110 10120.055664
1.120000 -0.880000 7.000000 -86.282722 -62.133217 11305.244141
1.120000 -0.880000 7.040000 -53.135292 -87.225693 10431.680664
1.120000 -0.880000 7.080000 -15.188654 -87.989136 7972.783203
1.120000 -0.880000 7.120000 11.209153 -69.752083 4990.998047
1.120000 -0.880000 7.160000 19.431202 -46.345627 2525.488770
1.120000 -0.880000 7.200000 14.244156 -30.100981 1108.964966
1.120000 -0.840000 6.800000 -12.011612 3.022117 153.412018
1.120000 -0.840000 6.840000 -25.525068 3.409281 663.152283
1.120000 -0.840000 6.880000 -38.029076 -6.129681 1483.783569
1.120000 -0.840000 6.920000 -44.166260 -22.355301 2450.417969
1.120000 -0.840000 6.960000 -42.164188 -41.114918 3468.255127
1.120000 -0.840000 7.000000 -31.387260 -59.153229 4484.264648
1.120000 -0.840000 7.040000 -11.343674 -72.089249 5325.538574
1.120000 -0.840000 7.080000 15.193150 -73.525162 5636.781250
1.120000 -0.840000 7.120000 39.390778 -59.418228 5082.159180
1.120000 -0.840000 7.160000 50.070633 -34.351028 3687.061523
1.120000 -0.840000 7.200000 42.965042 -11.452604 1977.156982
1.120000 -0.800000 6.800000 -7.784672 1.863767 64.074753
1.120000 -0.800000 6.840000 -11.537475 -8.429070 204.162537
1.120000 -0.800000 6.880000 -7.027295 -15.341192 284.735046
1.120000 -0.800000 6.920000 -3.710587 -15.360409 249.710602
1.120000 -0.800000 6.960000 -7.435593 -16.894606 340.715729
1.120000 -0.800000 7.000000 -10.692734 -29.062786 958.980042
1.120000 -0.800000 7.040000 0.343616 -47.357460 2242.847168
1.120000 -0.800000 7.080000 28.305128 -54.243416 3743.528320
1.120000 -0.800000 7.120000 56.942596 -36.822388 4598.347656
1.120000 -0.800000 7.160000 64.489578 -3.011322 4167.973633
1.120000 -0.800000 7.200000 45.783646 22.955498 2623.096924
1.160000 -1.200000 6.800000 -14.070036 7.940641 261.019684
1.160000 -1.200000 6.840000 -17.540592 7.045318 357.308868
1.160000 -1.200000 6.880000 -22.628584 2.068281 516.330566
1.160000 -1.200000 6.920000 -24.285070 -8.484634 661.753662
1.160000 -1.200000 6.960000 -17.421030 -20.419519 720.449097
1.160000 -1.200000 7.000000 -2.488695 -25.882742 676.109924
1.160000 -1.200000 7.040000 13.114324 -19.913651 568.538940
1.160000 -1.200000 7.080000 20.332680 -5.634050 445.160400
1.160000 -1.200000 7.120000 16.214691 7.566684 320.170898
1.160000 -1.200000 7.160000 6.660347 11.986035 188.025269
1.160000 -1.200000 7.200000 0.947132 8.334658 70.363579
1.160000 -1.160000 6.800000 -7.455467 -8.122212 121.554321
1.160000 -1.160000 6.840000 -9.852608 -7.680271 156.060440
1.160000 -1.160000 6.880000 -12.287439 -13.394463 330.392792
1.160000 -1.160000 6.920000 -7.833941 -22.609766 572.572144
1.160000 -1.160000 6.960000 4.788790 -27.184566 761.933167
1.160000 -1.160000 7.000000 18.780054 -21.182064 801.370239
1.160000 -1.160000 7.040000 24.899441 -7.135281 670.894409
1.160000 -1.160000 7.080000 20.028351 5.662045 433.193573
1.160000 -1.160000 7.120000 10.136027 9.607546 195.043991
1.160000 -1.160000 7.160000 4.439560 5.705245 52.259521
1.160000 -1.160000 7.200000 6.449882 2.000781 45.604103
1.160000 -1.120000 6.800000 11.123963 -10.666557 237.518005
1.160000 -1.120000 6.840000 8.180425 -9.398121 155.244019
1.160000 -1.120000 6.880000 9.152273 -13.866775 276.051544
1.160000 -1.120000 6.920000 17.749437 -16.324490 581.531494
1.160000 -1.120000 6.960000 28.318878 -9.624329 894.586548
1.160000 -1.120000 7.000000 31.270634 4.505465 998.151733
1.160000 -1.120000 7.040000 23.133469 16.406498 804.330566
1.160000 -1.120000 7.080000 10.617241 17.924057 433.997620
1.160000 -1.120000 7.120000 4.175044 10.680312 131.500061
1.160000 -1.120000 7.160000 7.545694 4.369611 76.031006
1.160000 -1.120000 7.200000 14.193813 6.752620 247.062210
1.160000 -1.080000 6.800000 24.547310 5.572123 633.618958
1.160000 -1.080000 6.840000 20.851116 6.352018 475.117188
1.160000 -1.080000 6.880000 23.798906 5.656518 598.384155
1.160000 -1.080000 6.920000 29.952341 12.011029 1041.407593
1.160000 -1.080000 6.960000 29.434925 25.562607 1519.861572
1.160000 -1.080000 7.000000 17.347155 36.590160 1639.763672
1.160000 -1.080000 7.040000 0.430897 35.294003 1245.852295
1.160000 -1.080000 7.080000 -8.703778 22.608315 586.891663
1.160000 -1.080000 7.120000 -4.211770 10.161808 121.001350
1.160000 -1.080000 7.160000 6.883547 8.961131 127.685097
1.160000 -1.080000 7.200000 11.753483 18.441463 478.231934
1.160000 -1.040000 6.800000 18.159321 28.378876 1135.121582
1.160000 -1.040000 6.840000 14.701132 28.067566 1003.911560
1.160000 -1.040000 6.880000 16.235550 31.754440 1271.937500
1.160000 -1.040000 6.920000 13.648586 42.572235 1998.679077
1.160000 -1.040000 6.960000 -0.232703 52.349285 2740.501953
1.160000 -1.040000 7.000000 -20.718832 49.515079 2881.013184
1.160000 -1.040000 7.040000 -33.960175 32.156925 2187.361328
1.160000 -1.040000 7.080000 -30.359884 11.853542 1062.229004
1.160000 -1.040000 7.120000 -14.687088 3.384692 227.166702
1.160000 -1.040000 7.160000 -1.926907 10.565248 115.337425
1.160000 -1.040000 7.200000 -2.739932 22.936024 533.568359
1.160000 -1.000000 6.800000 -5.717798 37.850029 1465.317871
1.160000 -1.000000 6.840000 -8.029570 37.133217 1443.349854
1.160000 -1.000000 6.880000 -10.745087 42.790726 1946.503174
1.160000 -1.000000 6.920000 -22.582218 50.129692 3022.942627
1.160000 -1.000000 6.960000 -42.778675 47.543266 4090.376953
1.160000 -1.000000 7.000000 -59.083546 29.238689 4345.766602
1.160000 -1.000000 7.040000 -58.706749 3.399655 3458.040039
1.160000 -1.000000 7.080000 -41.367691 -13.770532 1900.913452
1.160000 -1.000000 7.120000 -20.565443 -12.792078 586.574707
1.160000 -1.000000 7.160000 -11.271041 0.499565 127.285927
1.160000 -1.000000 7.200000 -16.381838 11.304612 396.158875
1.160000 -0.960000 6.800000 -28.565340 24.801224 1431.079346
1.160000 -0.960000 6.840000 -30.020081 24.859631 1519.206543
1.160000 -0.960000 6.880000 -36.929089 28.711838 2188.127197
1.160000 -0.960000 6.920000 -52.184357 27.328896 3470.075684
1.160000 -0.960000 6.960000 -67.941895 12.582298 4774.415527
1.160000 -0.960000 7.000000 -71.399063 -12.861723 5263.250000
1.160000 -0.960000 7.040000 -56.955627 -35.683464 4517.252930
1.160000 -0.960000 7.080000 -32.485798 -42.942493 2899.384766
1.160000 -0.960000 7.120000 -13.031576 -33.353348 1282.267822
1.160000 -0.960000 7.160000 -7.893108 -17.769964 378.072784
1.160000 -0.960000 7.200000 -13.733294 -8.671634 263.800598
1.160000 -0.920000 6.800000 -32.425102 -0.031278 1051.388184
1.160000 -0.920000 6.840000 -34.417122 1.065514 1185.673706
1.160000 -0.920000 6.880000 -42.695404 0.802624 1823.541748
1.160000 -0.920000 6.920000 -54.123779 -7.995050 2993.304443
1.160000 -0.920000 6.960000 -59.568027 -26.965412 4275.483398
1.160000 -0.920000 7.000000 -51.301914 -48.868683 5020.034668
1.160000 -0.920000 7.040000 -30.252388 -62.235039 4788.406738
1.160000 -0.920000 7.080000 -6.158419 -60.228310 3665.375244
1.160000 -0.920000 7.120000 9.653476 -45.806618 2191.436035
1.160000 -0.920000 7.160000 12.442287 -28.845535 986.875366
1.160000 -0.920000 7.200000 6.244020 -18.202799 370.329681
1.160000 -0.880000 6.800000 -16.877981 -15.851959 536.150879
1.160000 -0.880000 6.840000 -20.510822 -15.137684 649.843262
1.160000 -0.880000 6.880000 -26.802973 -18.961262 1077.928833
1.160000 -0.880000 6.920000 -31.425579 -29.292347 1845.608643
1.160000 -0.880000 6.960000 -29.135559 -44.263195 2808.111328
1.160000 -0.880000 7.000000 -16.973719 -58.146111 3669.077393
1.160000 -0.880000 7.040000 3.118009 -63.861782 4088.049072
1.160000 -0.880000 7.080000 24.170143 -57.088356 3843.276123
1.160000 -0.880000 7.120000 37.425152 -39.644012 2972.289551
1.160000 -0.880000 7.160000 37.624245 -19.442814 1793.606689
1.160000 -0.880000 7.200000 26.888987 -6.023469 759.299744
1.160000 -0.840000 6.800000 0.797342 -11.819162 140.328354
1.160000 -0.840000 6.840000 -3.606912 -13.735443 201.672211
1.160000 -0.840000 6.880000 -6.182551 -18.561066 382.737091
1.160000 -0.840000 6.920000 -6.572861 -25.370255 686.852356
1.160000 -0.840000 6.960000 -3.485722 -34.348724 1191.985107
1.160000 -0.840000 7.000000 6.250423 -43.663010 1945.526123
1.160000 -0.840000 7.040000 23.854839 -47.176224 2794.649414
1.160000 -0.840000 7.080000 43.727203 -38.033543 3358.618652
1.160000 -0.840000 7.120000 54.623432 -16.319717 3250.052490
1.160000 -0.840000 7.160000 48.461330 7.476989 2404.405762
1.160000 -0.840000 7.200000 29.103077 19.168137 1214.406494
1.160000 -0.800000 6.800000 3.070127 2.634967 16.368729
1.160000 -0.800000 6.840000 0.999786 -2.675025 8.155334
1.160000 -0.800000 6.880000 1.707206 -5.763624 36.133907
1.160000 -0.800000 6.920000 0.869221 -8.398705 71.293785
1.160000 -0.800000 6.960000 0.502556 -15.543221 241.844269
1.160000 -0.800000 7.000000 8.197392 -26.020838 744.281250
1.160000 -0.800000 7.040000 26.911739 -29.563686 1598.253174
1.160000 -0.800000 7.080000 47.113094 -16.235611 2483.238525
1.160000 -0.800000 7.120000 52.587353 10.675161 2879.388672
1.160000 -0.800000 7.160000 36.372227 33.709560 2459.273438
1.160000 -0.800000 7.200000 10.219901 36.183537 1413.694702
1.200000 -1.200000 6.800000 -8.580505 -12.428749 228.098877
1.200000 -1.200000 6.840000 -8.949303 -7.777714 140.582855
1.200000 -1.200000 6.880000 -14.984345 -9.707969 318.775269
1.200000 -1.200000 6.920000 -16.510660 -21.169086 720.732117
1.200000 -1.200000 6.960000 -5.080258 -33.761646 1165.657837
1.200000 -1.200000 7.000000 16.195148 -34.604122 1459.728149
1.200000 -1.200000 7.040000 33.806625 -18.918493 1500.797363
1.200000 -1.200000 7.080000 35.773758 4.427360 1299.363281
1.200000 -1.200000 7.120000 22.684612 20.611244 939.415039
1.200000 -1.200000 7.160000 6.630764 22.302139 541.352417
1.200000 -1.200000 7.200000 -0.830578 15.374561 237.067001
1.200000 -1.160000 6.800000 11.050637 -13.123743 294.349213
1.200000 -1.160000 6.840000 4.172597 -3.363276 28.722193
1.200000 -1.160000 6.880000 -7.077640 -6.811934 96.495438
1.200000 -1.160000 6.920000 -8.243237 -21.061882 511.553833
1.200000 -1.160000 6.960000 6.192505 -31.898836 1055.882935
1.200000 -1.160000 7.000000 26.713009 -26.820238 1432.910034
1.200000 -1.160000 7.040000 37.531544 -7.205660 1460.538330
1.200000 -1.160000 7.080000 31.446800 13.217893 1163.613892
1.200000 -1.160000 7.120000 15.723600 21.789772 722.025757
1.200000 -1.160000 7.160000 3.563559 18.186300 343.440460
1.200000 -1.160000 7.200000 0.754920 12.361738 153.382477
1.200000 -1.120000 6.800000 24.042965 6.197175 616.469116
1.200000 -1.120000 6.840000 6.465322 13.760905 231.162918
1.200000 -1.120000 6.880000 -8.460859 2.993496 80.547165
1.200000 -1.120000 6.920000 -6.488876 -15.569516 284.515350
1.200000 -1.120000 6.960000 11.229756 -24.325562 717.840393
1.200000 -1.120000 7.000000 29.659388 -14.906815 1101.892334
1.200000 -1.120000 7.040000 34.348526 4.986819 1204.689697
1.200000 -1.120000 7.080000 24.107098 20.311258 993.699341
1.200000 -1.120000 7.120000 9.715444 23.150505 630.335693
1.200000 -1.120000 7.160000 1.549300 18.072485 329.015045
1.200000 -1.120000 7.200000 0.038054 14.282579 203.993530
1.200000 -1.080000 6.800000 14.378951 32.051826 1234.073853
1.200000 -1.080000 6.840000 -10.333715 28.218132 903.048706
1.200000 -1.080000 6.880000 -22.045410 6.974302 534.640991
1.200000 -1.080000 6.920000 -12.407121 -14.139165 353.852631
1.200000 -1.080000 6.960000 9.219721 -18.729252 435.788147
1.200000 -1.080000 7.000000 25.081949 -5.270144 656.878601
1.200000 -1.080000 7.040000 24.905087 13.628463 805.998291
1.200000 -1.080000 7.080000 12.890981 24.309082 757.108826
1.200000 -1.080000 7.120000 0.606265 23.560188 555.450012
1.200000 -1.080000 7.160000 -5.077758 17.993731 349.557983
1.200000 -1.080000 7.200000 -6.276093 14.396914 246.660461
1.200000 -1.040000 6.800000 -15.677126 41.776829 1991.075684
1.200000 -1.040000 6.840000 -36.957397 22.948425 1892.479492
1.200000 -1.040000 6.880000 -37.176418 -4.960117 1406.688843
1.200000 -1.040000 6.920000 -17.581448 -22.422825 811.890381
1.200000 -1.040000 6.960000 6.002025 -19.225721 405.652649
1.200000 -1.040000 7.000000 17.214695 -1.606493 298.926544
1.200000 -1.040000 7.040000 12.006293 15.298206 378.186188
1.200000 -1.040000 7.080000 -1.009889 21.126366 447.343201
1.200000 -1.040000 7.120000 -10.814966 16.956329 404.480591
1.200000 -1.040000 7.160000 -13.509588 10.434864 291.395355
1.200000 -1.040000 7.200000 -12.463816 6.764557 201.105927
1.200000 -1.000000 6.800000 -44.792206 23.548828 2560.888916
1.200000 -1.000000 6.840000 -52.252464 -4.061802 2746.818359
1.200000 -1.000000 6.880000 -38.053535 -28.675667 2270.365479
1.200000 -1.000000 6.920000 -12.331468 -35.258255 1395.209595
1.200000 -1.000000 6.960000 7.472281 -22.741924 573.030151
1.200000 -1.000000 7.000000 10.753181 -3.420473 127.330551
1.200000 -1.000000 7.040000 0.675516 8.504121 72.776390
1.200000 -1.000000 7.080000 -11.215431 8.069315 190.899750
1.200000 -1.000000 7.120000 -16.051380 0.843913 258.359009
1.200000 -1.000000 7.160000 -13.670126 -4.749860 209.433517
1.200000 -1.000000 7.200000 -9.568631 -5.191919 118.514725
1.200000 -0.960000 6.800000 -49.971146 -11.343848 2625.798340
1.200000 -0.960000 6.840000 -41.622253 -35.362587 2982.924561
1.200000 -0.960000 6.880000 -19.051950 -47.257561 2596.253906
1.200000 -0.960000 6.920000 3.708140 -40.742889 1673.733276
1.200000 -0.960000 6.960000 13.462285 -22.917446 706.442505
1.200000 -0.960000 7.000000 8.070126 -7.730152 124.882187
1.200000 -0.960000 7.040000 -3.326635 -4.247721 29.109638
1.200000 -0.960000 7.080000 -9.469145 -10.356812 196.928268
1.200000 -0.960000 7.120000 -6.545470 -16.794048 324.883240
1.200000 -0.960000 7.160000 0.306784 -16.529863 273.330505
1.200000 -0.960000 7.200000 3.526021 -10.323398 119.005363
1.200000 -0.920000 6.800000 -27.285904 -36.849136 2102.379395
1.200000 -0.920000 6.840000 -11.376837 -48.024017 2435.738525
1.200000 -0.920000 6.880000 8.216640 -45.718201 2157.666992
1.200000 -0.920000 6.920000 19.854088 -31.882957 1410.707764
1.200000 -0.920000 6.960000 18.238163 -17.105301 625.221924
1.200000 -0.920000 7.000000 8.848986 -11.549990 211.706818
1.200000 -0.920000 7.040000 2.679935 -16.228966 270.561401
1.200000 -0.920000 7.080000 6.083003 -22.792709 556.510559
1.200000 -0.920000 7.120000 15.299327 -21.941542 715.500610
1.200000 -0.920000 7.160000 20.688057 -12.290022 579.040344
1.200000 -0.920000 7.200000 16.278675 -1.285533 266.647858
1.200000 -0.880000 6.800000 3.797104 -34.882385 1231.198730
1.200000 -0.880000 6.840000 15.568601 -34.121010 1406.624634
1.200000 -0.880000 6.880000 24.181171 -25.295826 1224.607910
1.200000 -0.880000 6.920000 23.890787 -14.150057 770.993835
1.200000 -0.880000 6.960000 16.652424 -9.208167 362.093567
1.200000 -0.880000 7.000000 11.266615 -13.412220 306.824280
1.200000 -0.880000 7.040000 15.154585 -20.357895 644.105347
1.200000 -0.880000 7.080000 26.448298 -19.800932 1091.589355
1.200000 -0.880000 7.120000 34.744286 -7.866168 1269.041992
1.200000 -0.880000 7.160000 30.742340 8.171885 1011.871216
1.200000 -0.880000 7.200000 15.679914 15.967016 500.805298
1.200000 -0.840000 6.800000 17.676823 -11.619993 447.494324
1.200000 -0.840000 6.840000 19.930908 -8.174448 464.062683
1.200000 -0.840000 6.880000 18.835886 -3.009991 363.850647
1.200000 -0.840000 6.920000 13.589897 -1.048958 185.785614
1.200000 -0.840000 6.960000 9.477490 -5.846498 124.004364
1.200000 -0.840000 7.000000 13.516600 -13.679458 369.826050
1.200000 -0.840000 7.040000 26.105656 -14.918009 904.052246
1.200000 -0.840000 7.080000 37.851280 -3.194802 1442.926147
1.200000 -0.840000 7.120000 36.829727 16.404198 1625.526489
1.200000 -0.840000 7.160000 20.470306 29.731392 1302.989136
1.200000 -0.840000 7.200000 -0.056595 26.046581 678.427551
1.200000 -0.800000 6.800000 5.921153 8.554991 108.247925
1.200000 -0.800000 6.840000 3.293170 6.267962 50.132309
1.200000 -0.800000 6.880000 0.670201 3.696520 14.113429
1.200000 -0.800000 6.920000 -1.106317 -1.928180 4.941813
1.200000 -0.800000 6.960000 2.858687 -10.098125 110.144218
1.200000 -0.800000 7.000000 15.167442 -13.849939 421.872131
1.200000 -0.800000 7.040000 29.653563 -5.299794 907.421631
1.200000 -0.800000 7.080000 33.889595 14.539017 1359.887695
1.200000 -0.800000 7.120000 20.723135 32.889503 1511.167847
1.200000 -0.800000 7.160000 -2.474945 35.071796 1236.156250
1.200000 -0.800000 7.200000 -18.024998 18.898918 682.069641
