#kx 	ky 	kz 	real 	imag 	intensity
2.800000 0.800000 6.983333 -95.763351 -32.814114 10247.384766
2.800000 0.800000 6.991667 -13.997202 -45.468826 2263.335693
2.800000 0.800000 7.000000 9.818289 -2.834643 104.433998
2.800000 0.800000 7.008333 -57.550079 25.890347 3982.321777
2.800000 0.800000 7.016667 -50.089451 -56.376080 5687.215820
2.800000 0.900000 6.983333 11.004710 -43.438332 2007.992310
2.800000 0.900000 6.991667 64.332039 46.185097 6271.674805
2.800000 0.900000 7.000000 -83.203026 16.868134 7207.277344
2.800000 0.900000 7.008333 18.949150 -67.592972 4927.880371
2.800000 0.900000 7.016667 39.088852 -22.382120 2028.897705
2.800000 1.000000 6.983333 17.260506 10.271233 403.423279
2.800000 1.000000 6.991667 -55.226643 36.586956 4388.587402
2.800000 1.000000 7.000000 39.376343 -88.060478 9305.144531
2.800000 1.000000 7.008333 62.273064 79.009979 10120.511719
2.800000 1.000000 7.016667 9.970332 69.405220 4916.492188
2.800000 1.100000 6.983333 -14.694517 23.624319 774.037292
2.800000 1.100000 6.991667 35.662155 -4.281979 1290.124634
2.800000 1.100000 7.000000 -7.214211 117.589241 13879.274414
2.800000 1.100000 7.008333 -85.179535 17.881908 7575.315918
2.800000 1.100000 7.016667 -115.085732 48.434471 15590.623047
2.800000 1.200000 6.983333 -0.728947 -24.769909 614.079773
2.800000 1.200000 6.991667 -26.126085 83.681168 7685.109863
2.800000 1.200000 7.000000 -122.456726 -106.880531 26419.097656
2.800000 1.200000 7.008333 66.990005 -43.968117 6420.855957
2.800000 1.200000 7.016667 -64.311951 -93.757126 12926.425781
2.900000 0.800000 6.983333 -108.188583 -20.665611 12131.836914
2.900000 0.800000 6.991667 -23.970943 -130.491135 17602.541016
2.900000 0.800000 7.000000 26.562950 47.709743 2981.810059
2.900000 0.800000 7.008333 -141.361542 -72.958649 25306.050781
2.900000 0.800000 7.016667 54.776207 -99.320801 12865.053711
2.900000 0.900000 6.983333 230.837753 -293.124939 139208.296875
2.900000 0.900000 6.991667 -448.507996 804.947388 849099.750000
2.900000 0.900000 7.000000 -1049.427124 -779.643372 1709141.000000
2.900000 0.900000 7.008333 264.698669 -699.096863 558801.812500
2.900000 0.900000 7.016667 167.198608 -379.078430 171655.828125
2.900000 1.000000 6.983333 482.111298 317.343750 333138.343750
2.900000 1.000000 6.991667 -1374.617310 -541.620667 2182925.750000
2.900000 1.000000 7.000000 940.519226 -1711.921875 3815253.000000
2.900000 1.000000 7.008333 985.858887 188.586700 1007482.687500
2.900000 1.000000 7.016667 642.503540 135.149887 431076.312500
2.900000 1.100000 6.983333 -132.034698 403.701111 180407.750000
2.900000 1.100000 6.991667 125.690521 -851.760986 741294.875000
2.900000 1.100000 7.000000 1090.605591 348.748627 1311046.125000
2.900000 1.100000 7.008333 27.756714 625.885376 392502.937500
2.900000 1.100000 7.016667 -101.345978 412.849304 180715.546875
2.900000 1.200000 6.983333 -81.234100 101.413994 16883.777344
2.900000 1.200000 6.991667 -150.180038 -126.038788 38439.820312
2.900000 1.200000 7.000000 131.473007 -82.472855 24086.923828
2.900000 1.200000 7.008333 -59.442486 85.822891 10898.978516
2.900000 1.200000 7.016667 6.815084 -134.804276 18218.638672
3.000000 0.800000 6.983333 -102.494293 -160.066483 36126.359375
3.000000 0.800000 6.991667 177.451492 -105.431808 42604.898438
3.000000 0.800000 7.000000 -56.469387 53.713520 6073.934082
3.000000 0.800000 7.008333 32.449039 -203.179535 42334.863281
3.000000 0.800000 7.016667 146.797501 20.160637 21955.957031
3.000000 0.900000 6.983333 477.056824 229.540512 280272.062500
3.000000 0.900000 6.991667 -1250.031250 -475.932404 1789089.750000
3.000000 0.900000 7.000000 845.164124 -1756.742554 3800447.000000
3.000000 0.900000 7.008333 1179.035767 145.821869 1411389.375000
3.000000 0.900000 7.016667 648.559448 204.157776 462309.750000
3.000000 1.000000 6.983333 -367.879669 776.569763 738396.062500
3.000000 1.000000 6.991667 500.596313 -2160.114502 4916691.000000
3.000000 1.000000 7.000000 2839.008057 913.872192 8895129.000000
3.000000 1.000000 7.008333 67.615906 1650.033691 2727183.250000
3.000000 1.000000 7.016667 -83.067581 1069.408081 1150533.875000
3.000000 1.100000 6.983333 -634.551208 -122.645866 417697.250000
3.000000 1.100000 6.991667 1364.678345 19.952087 1862745.125000
3.000000 1.100000 7.000000 -258.887573 1838.918457 3448643.750000
3.000000 1.100000 7.008333 -1033.770264 238.241302 1125439.875000
3.000000 1.100000 7.016667 -732.117615 -8.740723 536072.562500
3.000000 1.200000 6.983333 -147.836868 -140.112671 41487.300781
3.000000 1.200000 6.991667 142.448395 -152.015289 43400.195312
3.000000 1.200000 7.000000 18.960155 73.070587 5698.797852
3.000000 1.200000 7.008333 -53.381775 -123.994080 18224.146484
3.000000 1.200000 7.016667 139.213028 -71.592438 24505.744141
3.100000 0.800000 6.983333 81.265709 -74.209915 12111.226562
3.100000 0.800000 6.991667 43.304657 120.153427 16312.138672
3.100000 0.800000 7.000000 -57.362587 -34.756409 4498.474121
3.100000 0.800000 7.008333 106.117813 -11.964781 11404.146484
3.100000 0.800000 7.016667 16.134581 110.615578 12496.129883
3.100000 0.900000 6.983333 -96.724159 266.627075 80445.562500
3.100000 0.900000 6.991667 204.142517 -820.355286 714657.000000
3.100000 0.900000 7.000000 1174.754883 311.198669 1476893.625000
3.100000 0.900000 7.008333 82.292755 779.089172 613752.062500
3.100000 0.900000 7.016667 -117.679321 428.896179 197800.359375
3.100000 1.000000 6.983333 -455.329773 -200.422195 247494.250000
3.100000 1.000000 6.991667 1372.352051 176.573395 1914528.250000
3.100000 1.000000 7.000000 -259.566223 1831.973633 3423502.000000
3.100000 1.000000 7.008333 -1069.000366 280.118774 1221228.250000
3.100000 1.000000 7.016667 -684.524231 -3.565747 468586.156250
3.100000 1.100000 6.983333 84.010452 -419.658691 183171.171875
3.100000 1.100000 6.991667 71.720856 848.673462 725390.500000
3.100000 1.100000 7.000000 -1153.487793 -13.455963 1330715.250000
3.100000 1.100000 7.008333 -257.812073 -660.011230 502081.875000
3.100000 1.100000 7.016667 -34.580994 -473.349518 225255.609375
3.100000 1.200000 6.983333 164.277908 -77.561127 33002.960938
3.100000 1.200000 6.991667 93.842850 89.032013 16733.179688
3.100000 1.200000 7.000000 44.057205 -5.339218 1969.544556
3.100000 1.200000 7.008333 112.028046 39.178558 14085.242188
3.100000 1.200000 7.016667 63.844521 103.492706 14786.863281
3.200000 0.800000 6.983333 -79.786591 2.447247 6371.889160
3.200000 0.800000 6.991667 -47.750885 -117.049805 15980.804688
3.200000 0.800000 7.000000 31.359632 -48.957516 3380.264893
3.200000 0.800000 7.008333 26.539394 -33.374184 1818.175659
3.200000 0.800000 7.016667 -7.812855 18.426239 400.566986
3.200000 0.900000 6.983333 83.843361 -62.017998 10875.941406
3.200000 0.900000 6.991667 76.496742 59.196918 9356.026367
3.200000 0.900000 7.000000 48.825565 21.245462 2835.305420
3.200000 0.900000 7.008333 -4.296139 76.509163 5872.108887
3.200000 0.900000 7.016667 9.473967 -38.939342 1606.028320
3.200000 1.000000 6.983333 98.747841 75.409027 15437.657227
3.200000 1.000000 6.991667 -112.542656 19.443983 13043.917969
3.200000 1.000000 7.000000 34.465157 2.844157 1195.936279
3.200000 1.000000 7.008333 -73.800446 -22.432159 5949.707520
3.200000 1.000000 7.016667 64.650520 5.568294 4210.695801
3.200000 1.100000 6.983333 67.830719 80.106659 11018.083008
3.200000 1.100000 6.991667 37.677208 -49.668625 3886.544434
3.200000 1.100000 7.000000 84.848328 52.682472 9974.681641
3.200000 1.100000 7.008333 49.675526 25.521610 3119.010498
3.200000 1.100000 7.016667 13.388548 76.791351 6076.165039
3.200000 1.200000 6.983333 14.521923 171.375504 29580.449219
3.200000 1.200000 6.991667 -40.676247 56.909653 4893.265625
3.200000 1.200000 7.000000 5.134216 128.914993 16645.435547
3.200000 1.200000 7.008333 -124.403900 90.405289 23649.445312
3.200000 1.200000 7.016667 -86.520485 5.033195 7511.127441
