#kx 	ky 	kz 	real 	imag 	intensity
2.800000 0.800000 6.800000 -22.494888 2.066009 510.288391
2.800000 0.800000 6.840000 -21.534260 -5.096880 489.702515
2.800000 0.800000 6.880000 -17.344069 -12.515211 457.447205
2.800000 0.800000 6.920000 -9.153207 -18.076893 410.555237
2.800000 0.800000 6.960000 1.841493 -18.931782 361.803436
2.800000 0.800000 7.000000 12.150683 -13.571705 331.830292
2.800000 0.800000 7.040000 17.787773 -3.551208 329.015961
2.800000 0.800000 7.080000 17.043819 7.040701 340.063263
2.800000 0.800000 7.120000 11.665541 14.372190 342.644714
2.800000 0.800000 7.160000 5.133690 17.458429 331.151520
2.800000 0.800000 7.200000 -0.452896 17.980433 323.501068
2.800000 0.840000 6.800000 -19.812784 -11.867220 533.377319
2.800000 0.840000 6.840000 -15.710161 -13.735413 435.470703
2.800000 0.840000 6.880000 -11.465800 -15.627277 375.676361
2.800000 0.840000 6.920000 -5.536731 -16.259109 295.014038
2.800000 0.840000 6.960000 0.737017 -13.247846 176.048615
2.800000 0.840000 7.000000 3.767986 -6.912083 61.974606
2.800000 0.840000 7.040000 1.799589 -1.170718 4.609102
2.800000 0.840000 7.080000 -2.345552 0.145082 5.522665
2.800000 0.840000 7.120000 -3.666325 -2.230455 18.416866
2.800000 0.840000 7.160000 -0.523804 -3.194114 10.476732
2.800000 0.840000 7.200000 2.791272 1.239368 9.327234
2.800000 0.880000 6.800000 -7.597141 -21.610149 524.715149
2.800000 0.880000 6.840000 -4.681185 -17.772034 337.758667
2.800000 0.880000 6.880000 -3.941012 -15.623100 259.612854
2.800000 0.880000 6.920000 -3.263152 -14.242006 213.482910
2.800000 0.880000 6.960000 -3.502987 -12.576631 170.442551
2.800000 0.880000 7.000000 -5.716874 -12.488402 188.642838
2.800000 0.880000 7.040000 -7.313752 -16.561909 327.787781
2.800000 0.880000 7.080000 -3.216726 -23.057369 541.989624
2.800000 0.880000 7.120000 7.943991 -24.936338 684.927979
2.800000 0.880000 7.160000 19.597137 -16.047510 641.570374
2.800000 0.880000 7.200000 21.252069 1.115820 452.895508
2.800000 0.920000 6.800000 8.999334 -20.476040 500.256226
2.800000 0.920000 6.840000 7.401228 -13.420404 234.885437
2.800000 0.920000 6.880000 2.978775 -10.820709 125.960846
2.800000 0.920000 6.920000 -1.398900 -12.028570 146.643417
2.800000 0.920000 6.960000 -4.608740 -16.697727 300.054565
2.800000 0.920000 7.000000 -4.158299 -25.125797 648.597107
2.800000 0.920000 7.040000 4.156814 -34.439045 1203.326904
2.800000 0.920000 7.080000 21.145073 -36.803738 1801.629272
2.800000 0.920000 7.120000 39.153797 -24.737473 2144.962402
2.800000 0.920000 7.160000 44.925625 -0.021772 2018.312256
2.800000 0.920000 7.200000 30.496964 23.731239 1493.236450
2.800000 0.960000 6.800000 20.540340 -7.851845 483.557037
2.800000 0.960000 6.840000 13.627586 -1.389772 187.642578
2.800000 0.960000 6.880000 5.314255 -2.107458 32.682686
2.800000 0.960000 6.920000 -0.307525 -8.968761 80.533257
2.800000 0.960000 6.960000 0.118938 -20.070419 402.835876
2.800000 0.960000 7.000000 9.990818 -31.193325 1072.839966
2.800000 0.960000 7.040000 29.435549 -34.275246 2041.244019
2.800000 0.960000 7.080000 50.672752 -21.371984 3024.489502
2.800000 0.960000 7.120000 59.487988 6.859511 3585.873535
2.800000 0.960000 7.160000 45.355301 36.873596 3416.765381
2.800000 0.960000 7.200000 12.480021 49.476463 2603.671387
2.800000 1.000000 6.800000 20.060926 9.066167 484.636139
2.800000 1.000000 6.840000 9.540928 11.807528 230.447021
2.800000 1.000000 6.880000 0.791301 5.950404 36.033459
2.800000 1.000000 6.920000 -1.098357 -5.668695 33.340496
2.800000 1.000000 6.960000 7.238379 -17.676636 364.857574
2.800000 1.000000 7.000000 25.513416 -22.005838 1135.191284
2.800000 1.000000 7.040000 46.498978 -10.912333 2281.234131
2.800000 1.000000 7.080000 56.715416 16.020985 3473.310303
2.800000 1.000000 7.120000 44.702435 47.032719 4210.384277
2.800000 1.000000 7.160000 11.926523 63.049187 4117.441895
2.800000 1.000000 7.200000 -24.350124 51.444260 3239.440430
2.800000 1.040000 6.800000 8.701945 20.351803 489.919739
2.800000 1.040000 6.840000 -2.526372 18.137064 335.335663
2.800000 1.040000 6.880000 -8.099045 8.142457 131.894135
2.800000 1.040000 6.920000 -3.631999 -3.858758 28.081432
2.800000 1.040000 6.960000 10.781301 -9.767447 211.639496
2.800000 1.040000 7.000000 28.746170 -2.307159 831.665283
2.800000 1.040000 7.040000 38.527824 19.524912 1865.615479
2.800000 1.040000 7.080000 29.487213 46.418411 3024.164551
2.800000 1.040000 7.120000 1.253865 61.873184 3829.863281
2.800000 1.040000 7.160000 -32.481983 53.188828 3884.130371
2.800000 1.040000 7.200000 -51.427231 22.585583 3154.868652
2.800000 1.080000 6.800000 -5.554262 21.057880 474.284149
2.800000 1.080000 6.840000 -14.878073 14.460338 430.458435
2.800000 1.080000 6.880000 -15.434471 3.262583 248.867355
2.800000 1.080000 6.920000 -6.103763 -4.346732 56.150002
2.800000 1.080000 6.960000 7.665106 -1.167847 60.117714
2.800000 1.080000 7.000000 15.773378 14.048073 446.147827
2.800000 1.080000 7.040000 9.320498 33.886772 1235.185059
2.800000 1.080000 7.080000 -12.293566 45.226429 2196.561768
2.800000 1.080000 7.120000 -38.606888 37.786751 2918.330322
2.800000 1.080000 7.160000 -53.629341 12.717915 3037.851562
2.800000 1.080000 7.200000 -47.108730 -16.336630 2486.117920
2.800000 1.120000 6.800000 -15.068266 14.209798 428.971008
2.800000 1.120000 6.840000 -20.876896 4.693302 457.871887
2.800000 1.120000 6.880000 -16.893587 -4.691592 307.404297
2.800000 1.120000 6.920000 -6.996097 -5.907771 83.847137
2.800000 1.120000 6.960000 -0.392107 3.119285 9.883684
2.800000 1.120000 7.000000 -4.940191 16.033405 281.475586
2.800000 1.120000 7.040000 -20.591839 21.965889 906.524109
2.800000 1.120000 7.080000 -38.260994 13.593966 1648.699585
2.800000 1.120000 7.120000 -45.822758 -6.610409 2143.422607
2.800000 1.120000 7.160000 -37.128151 -27.282806 2122.851074
2.800000 1.120000 7.200000 -17.024952 -36.156731 1597.158203
2.800000 1.160000 6.800000 -18.500854 6.271484 381.613129
2.800000 1.160000 6.840000 -20.024044 -4.593102 422.058929
2.800000 1.160000 6.880000 -13.341803 -10.478071 287.793671
2.800000 1.160000 6.920000 -6.854055 -6.906524 94.678146
2.800000 1.160000 6.960000 -9.112590 1.181629 84.435539
2.800000 1.160000 7.000000 -20.476915 3.399164 430.858398
2.800000 1.160000 7.040000 -31.867222 -6.568224 1058.661377
2.800000 1.160000 7.080000 -32.354496 -24.475851 1645.880615
2.800000 1.160000 7.120000 -18.977154 -38.401241 1834.787598
2.800000 1.160000 7.160000 0.149934 -38.706028 1498.179077
2.800000 1.160000 7.200000 12.390257 -26.184597 839.151611
2.800000 1.200000 6.800000 -19.689007 0.157872 387.681915
2.800000 1.200000 6.840000 -16.498516 -10.495628 382.359253
2.800000 1.200000 6.880000 -8.946534 -12.600277 238.807465
2.800000 1.200000 6.920000 -7.216786 -7.665341 110.839455
2.800000 1.200000 6.960000 -14.647006 -5.848316 248.737595
2.800000 1.200000 7.000000 -23.135965 -15.317389 769.895264
2.800000 1.200000 7.040000 -20.535831 -32.553692 1481.463135
2.800000 1.200000 7.080000 -3.372134 -44.093342 1955.594116
2.800000 1.200000 7.120000 18.040707 -38.957703 1843.169678
2.800000 1.200000 7.160000 27.962444 -19.840055 1175.526123
2.800000 1.200000 7.200000 19.540136 -1.799232 385.054169
2.840000 0.800000 6.800000 -30.774265 -6.878048 994.362976
2.840000 0.800000 6.840000 -22.433895 -15.296569 737.264648
2.840000 0.800000 6.880000 -11.856598 -18.269619 474.357910
2.840000 0.800000 6.920000 -2.366947 -16.479969 277.191833
2.840000 0.800000 6.960000 4.784814 -11.990108 166.657135
2.840000 0.800000 7.000000 9.954819 -5.910358 134.030762
2.840000 0.800000 7.040000 12.962152 1.965889 171.882095
2.840000 0.800000 7.080000 12.227819 11.234241 275.727753
2.840000 0.800000 7.120000 6.453365 19.396738 417.879395
2.840000 0.800000 7.160000 -3.113506 23.002510 538.809387
2.840000 0.800000 7.200000 -12.677008 20.431274 578.143494
2.840000 0.840000 6.800000 -16.398703 -25.365704 912.336426
2.840000 0.840000 6.840000 -2.754297 -23.104591 541.408325
2.840000 0.840000 6.880000 5.906752 -13.297054 211.701355
2.840000 0.840000 6.920000 5.652020 -1.686567 34.789833
2.840000 0.840000 6.960000 -1.633579 4.742453 25.159437
2.840000 0.840000 7.000000 -9.333397 3.056078 96.451912
2.840000 0.840000 7.040000 -11.249619 -3.363091 137.864288
2.840000 0.840000 7.080000 -6.479620 -7.781806 102.541985
2.840000 0.840000 7.120000 0.199366 -5.741162 33.000690
2.840000 0.840000 7.160000 2.605652 1.486446 8.998944
2.840000 0.840000 7.200000 -1.794156 8.300623 72.119339
2.840000 0.880000 6.800000 8.505238 -27.998514 856.255859
2.840000 0.880000 6.840000 19.043217 -12.305434 514.067810
2.840000 0.880000 6.880000 15.305092 7.564852 291.472839
2.840000 0.880000 6.920000 -2.852148 18.815987 362.176086
2.840000 0.880000 6.960000 -24.322330 11.973765 734.946777
2.840000 0.880000 7.000000 -33.330135 -10.062258 1212.146973
2.840000 0.880000 7.040000 -21.763700 -32.211857 1511.262451
2.840000 0.880000 7.080000 3.294746 -38.132309 1464.928345
2.840000 0.880000 7.120000 24.345348 -23.216272 1131.691284
2.840000 0.880000 7.160000 27.047295 1.653904 734.291565
2.840000 0.880000 7.200000 11.165816 18.962049 484.234772
2.840000 0.920000 6.800000 27.909203 -10.819736 895.990295
2.840000 0.920000 6.840000 25.854200 13.802238 858.941467
2.840000 0.920000 6.880000 3.648851 31.980625 1036.074463
2.840000 0.920000 6.920000 -28.788059 27.368027 1577.761230
2.840000 0.920000 6.960000 -49.303680 -3.103565 2440.484863
2.840000 0.920000 7.000000 -39.584427 -42.165203 3344.831055
2.840000 0.920000 7.040000 -1.865633 -62.507076 3910.614990
2.840000 0.920000 7.080000 39.789619 -48.013229 3888.484131
2.840000 0.920000 7.120000 57.055626 -7.796984 3316.137451
2.840000 0.920000 7.160000 39.553219 30.256018 2479.883789
2.840000 0.920000 7.200000 2.436268 41.423882 1721.873413
2.840000 0.960000 6.800000 27.890074 15.285504 1011.502808
2.840000 0.960000 6.840000 9.332797 37.661896 1505.519409
2.840000 0.960000 6.880000 -25.817919 40.093102 2274.021729
2.840000 0.960000 6.920000 -56.136955 11.746844 3289.345947
2.840000 0.960000 6.960000 -55.905792 -35.650707 4396.430664
2.840000 0.960000 7.000000 -17.355019 -71.026169 5345.913574
2.840000 0.960000 7.040000 38.154369 -66.523102 5881.079102
2.840000 0.960000 7.080000 73.344223 -21.553288 5843.918945
2.840000 0.960000 7.120000 63.897865 34.068130 5243.574707
2.840000 0.960000 7.160000 18.287529 62.680084 4263.226562
2.840000 0.960000 7.200000 -29.384722 48.196705 3186.384277
2.840000 1.000000 6.800000 8.580418 32.110283 1104.693848
2.840000 1.000000 6.840000 -20.662285 40.943810 2103.325439
2.840000 1.000000 6.880000 -53.388710 22.228676 3344.468262
2.840000 1.000000 6.920000 -63.830616 -21.424461 4533.354980
2.840000 1.000000 6.960000 -35.510464 -64.375168 5405.155273
2.840000 1.000000 7.000000 20.403927 -73.889969 5876.047852
2.840000 1.000000 7.040000 68.130661 -37.260895 6030.161133
2.840000 1.000000 7.080000 73.428345 23.981125 5966.815918
2.840000 1.000000 7.120000 31.911190 68.208313 5670.698242
2.840000 1.000000 7.160000 -26.090534 66.135757 5054.654297
2.840000 1.000000 7.200000 -59.650204 23.703375 4119.996582
2.840000 1.040000 6.800000 -15.508265 28.893824 1075.359253
2.840000 1.040000 6.840000 -42.896690 20.743454 2270.416992
2.840000 1.040000 6.880000 -58.778603 -10.685491 3569.103760
2.840000 1.040000 6.920000 -44.640839 -49.988853 4491.689941
2.840000 1.040000 6.960000 -0.995390 -68.981903 4759.493652
2.840000 1.040000 7.000000 46.830589 -48.233986 4519.621094
2.840000 1.040000 7.040000 64.849625 3.718441 4219.300293
2.840000 1.040000 7.080000 37.752300 52.761333 4208.994629
2.840000 1.040000 7.120000 -16.384487 64.542427 4434.176758
2.840000 1.040000 7.160000 -58.888950 32.161613 4502.277832
2.840000 1.040000 7.200000 -61.058464 -18.298101 4062.956543
2.840000 1.080000 6.800000 -27.886047 10.784730 893.942078
2.840000 1.080000 6.840000 -42.796059 -7.479471 1887.445190
2.840000 1.080000 6.880000 -39.177296 -35.533005 2797.455078
2.840000 1.080000 6.920000 -12.700686 -54.888039 3174.004150
2.840000 1.080000 6.960000 23.338760 -48.149338 2863.056396
2.840000 1.080000 7.000000 44.353100 -14.640028 2181.527832
2.840000 1.080000 7.040000 32.977634 25.103092 1717.689697
2.840000 1.080000 7.080000 -5.118164 42.948372 1870.758179
2.840000 1.080000 7.120000 -43.227642 25.458323 2516.755127
2.840000 1.080000 7.160000 -53.855930 -14.276255 3104.272705
2.840000 1.080000 7.200000 -30.641914 -46.585812 3109.164795
2.840000 1.120000 6.800000 -23.799749 -7.049854 616.128540
2.840000 1.120000 6.840000 -24.605225 -23.876720 1175.514893
2.840000 1.120000 6.880000 -11.588507 -37.274208 1523.660034
2.840000 1.120000 6.920000 8.635706 -36.849503 1432.461304
2.840000 1.120000 6.960000 22.665447 -20.716139 942.880859
2.840000 1.120000 7.000000 19.608267 1.253384 386.055115
2.840000 1.120000 7.040000 0.272141 13.316789 177.410919
2.840000 1.120000 7.080000 -21.832321 5.700549 509.146484
2.840000 1.120000 7.120000 -29.968782 -16.882416 1183.143921
2.840000 1.120000 7.160000 -17.355406 -37.932152 1740.058228
2.840000 1.120000 7.200000 7.049143 -41.804886 1797.338867
2.840000 1.160000 6.800000 -12.293203 -13.797225 341.486267
2.840000 1.160000 6.840000 -5.816777 -21.729752 506.016998
2.840000 1.160000 6.880000 3.302620 -21.511909 473.669525
2.840000 1.160000 6.920000 7.507426 -14.843227 276.682861
2.840000 1.160000 6.960000 3.901147 -8.676598 90.502296
2.840000 1.160000 7.000000 -3.583521 -9.301922 99.367371
2.840000 1.160000 7.040000 -7.566734 -17.200872 353.125488
2.840000 1.160000 7.080000 -3.242580 -26.709873 723.931641
2.840000 1.160000 7.120000 7.857973 -30.517036 993.037231
2.840000 1.160000 7.160000 19.038887 -25.203707 997.706055
2.840000 1.160000 7.200000 23.403725 -13.724306 736.090881
2.840000 1.200000 6.800000 -5.336683 -11.677265 164.838715
2.840000 1.200000 6.840000 0.347243 -11.461980 131.497559
2.840000 1.200000 6.880000 -0.079875 -7.197311 51.807671
2.840000 1.200000 6.920000 -7.019356 -7.797232 110.068184
2.840000 1.200000 6.960000 -12.013151 -18.074760 471.012756
2.840000 1.200000 7.000000 -5.760921 -32.486427 1088.556152
2.840000 1.200000 7.040000 12.001513 -39.074318 1670.838623
2.840000 1.200000 7.080000 30.730820 -30.363880 1866.348511
2.840000 1.200000 7.120000 37.613277 -10.823615 1531.909302
2.840000 1.200000 7.160000 28.598343 6.332916 857.971069
2.840000 1.200000 7.200000 11.750308 10.062845 239.330597
2.880000 0.800000 6.800000 -30.448019 -24.813160 1542.774780
2.880000 0.800000 6.840000 -14.730768 -27.738970 986.445984
2.880000 0.800000 6.880000 -2.625633 -21.892689 486.183777
2.880000 0.800000 6.920000 2.249081 -13.601950 190.071396
2.880000 0.800000 6.960000 2.991882 -8.280264 77.514130
2.880000 0.800000 7.000000 4.717354 -5.365372 51.040642
2.880000 0.800000 7.040000 8.120986 -0.299259 66.039970
2.880000 0.800000 7.080000 8.604103 8.857582 152.487350
2.880000 0.800000 7.120000 1.960344 17.893387 324.016235
2.880000 0.800000 7.160000 -9.871191 20.160028 503.867188
2.880000 0.800000 7.200000 -19.633831 13.541679 568.864380
2.880000 0.840000 6.800000 -0.975189 -36.173904 1309.502441
2.880000 0.840000 6.840000 16.513596 -20.352406 686.919250
2.880000 0.840000 6.880000 16.777639 3.369017 292.839478
2.880000 0.840000 6.920000 -0.574383 18.126837 328.912140
2.880000 0.840000 6.960000 -21.422171 13.378952 637.905762
2.880000 0.840000 7.000000 -28.857981 -5.274078 860.598999
2.880000 0.840000 7.040000 -18.044762 -21.020123 767.458984
2.880000 0.840000 7.080000 0.188023 -20.972374 439.875824
2.880000 0.840000 7.120000 10.069569 -6.982201 150.147339
2.880000 0.840000 7.160000 5.090992 7.779615 86.440613
2.880000 0.840000 7.200000 -7.882717 11.896811 203.671326
2.880000 0.880000 6.800000 28.838337 -20.431564 1249.098511
2.880000 0.880000 6.840000 32.433605 14.372246 1258.500122
2.880000 0.880000 6.880000 5.099194 43.780727 1942.753906
2.880000 0.880000 6.920000 -39.167244 41.970978 3295.635986
2.880000 0.880000 6.960000 -68.278191 4.732716 4684.309570
2.880000 0.880000 7.000000 -58.506145 -43.045822 5275.911621
2.880000 0.880000 7.040000 -16.040951 -66.554474 4686.810059
2.880000 0.880000 7.080000 27.451380 -50.251709 3278.812500
2.880000 0.880000 7.120000 41.762600 -10.090355 1845.930054
2.880000 0.880000 7.160000 22.474083 22.103737 993.659607
2.880000 0.880000 7.200000 -8.996706 26.233477 769.136047
2.880000 0.920000 6.800000 36.151451 13.781692 1496.862427
2.880000 0.920000 6.840000 12.626432 53.596882 3032.052490
2.880000 0.920000 6.880000 -42.935745 64.069336 5948.358398
2.880000 0.920000 6.920000 -94.812042 23.991776 9564.928711
2.880000 0.920000 6.960000 -100.221031 -48.177147 12365.292969
2.880000 0.920000 7.000000 -47.717972 -103.369148 12962.185547
2.880000 0.920000 7.040000 28.748796 -101.371506 11102.675781
2.880000 0.920000 7.080000 76.061974 -45.360222 7842.973633
2.880000 0.920000 7.120000 65.681786 21.017527 4755.833496
2.880000 0.920000 7.160000 15.005589 51.338886 2860.848877
2.880000 0.920000 7.200000 -31.836067 33.569435 2140.442139
2.880000 0.960000 6.800000 13.851845 41.502350 1914.318726
2.880000 0.960000 6.840000 -34.938942 64.314224 5357.048828
2.880000 0.960000 6.880000 -97.294792 37.239670 10853.069336
2.880000 0.960000 6.920000 -123.353210 -38.986778 16735.984375
2.880000 0.960000 6.960000 -80.634010 -118.302917 20497.423828
2.880000 0.960000 7.000000 11.687848 -142.398132 20413.833984
2.880000 0.960000 7.040000 92.444717 -90.571884 16749.292969
2.880000 0.960000 7.080000 107.373795 0.075800 11529.137695
2.880000 0.960000 7.120000 53.715233 64.782814 7082.139160
2.880000 0.960000 7.160000 -20.264164 64.585564 4581.931152
2.880000 0.960000 7.200000 -58.889084 14.527092 3678.960693
2.880000 1.000000 6.800000 -21.681541 41.561104 2197.414551
2.880000 1.000000 6.840000 -76.420166 33.181801 6941.073730
2.880000 1.000000 6.880000 -115.177795 -26.351017 13960.300781
2.880000 1.000000 6.920000 -94.571030 -108.849716 20791.941406
2.880000 1.000000 6.960000 -11.301293 -155.768173 24391.443359
2.880000 1.000000 7.000000 85.542908 -125.872665 23161.515625
2.880000 1.000000 7.040000 129.962799 -34.279510 18065.414062
2.880000 1.000000 7.080000 93.580978 55.901588 11882.386719
2.880000 1.000000 7.120000 9.479349 84.602783 7247.488770
2.880000 1.000000 7.160000 -56.943520 42.942375 5086.612305
2.880000 1.000000 7.200000 -62.920528 -24.504604 4559.468750
2.880000 1.040000 6.800000 -43.642910 14.744888 2122.115234
2.880000 1.040000 6.840000 -80.292877 -19.168743 6814.387207
2.880000 1.040000 6.880000 -79.710175 -83.601151 13342.864258
2.880000 1.040000 6.920000 -23.156681 -136.399353 19141.015625
2.880000 1.040000 6.960000 63.718292 -131.943390 21469.080078
2.880000 1.040000 7.000000 124.113739 -62.458221 19305.250000
2.880000 1.040000 7.040000 114.991730 29.252714 14078.819336
2.880000 1.040000 7.080000 44.476734 81.457184 8613.453125
2.880000 1.040000 7.120000 -33.557961 63.522865 5161.291016
2.880000 1.040000 7.160000 -64.140060 -0.493628 4114.190918
2.880000 1.040000 7.200000 -34.936878 -55.336098 4282.668945
2.880000 1.080000 6.800000 -37.482727 -17.258383 1702.806641
2.880000 1.080000 6.840000 -45.261070 -55.009476 5074.606934
2.880000 1.080000 6.880000 -16.810305 -95.439285 9391.243164
2.880000 1.080000 6.920000 41.453133 -105.083527 12760.910156
2.880000 1.080000 6.960000 95.065262 -66.572571 13469.311523
2.880000 1.080000 7.000000 105.825836 1.989162 11203.064453
2.880000 1.080000 7.040000 63.969887 56.821575 7320.837891
2.880000 1.080000 7.080000 -1.054337 62.374420 3891.679932
2.880000 1.080000 7.120000 -43.084686 20.386847 2271.913574
2.880000 1.080000 7.160000 -36.356972 -32.177433 2357.216553
2.880000 1.080000 7.200000 5.393591 -54.598595 3010.097412
2.880000 1.120000 6.800000 -12.203520 -31.434576 1137.058472
2.880000 1.120000 6.840000 -0.691961 -52.484741 2755.126709
2.880000 1.120000 6.880000 27.713106 -60.928722 4480.325684
2.880000 1.120000 6.920000 58.372292 -45.379555 5466.628418
2.880000 1.120000 6.960000 71.080414 -10.127434 5154.990234
2.880000 1.120000 7.000000 55.346863 25.012966 3688.923584
2.880000 1.120000 7.040000 20.260441 38.142410 1865.328979
2.880000 1.120000 7.080000 -10.729412 22.291733 612.041626
2.880000 1.120000 7.120000 -17.413816 -8.414749 374.049011
2.880000 1.120000 7.160000 1.437241 -29.643829 880.822266
2.880000 1.120000 7.200000 27.700336 -26.167143 1452.028076
2.880000 1.160000 6.800000 9.962793 -22.936581 625.343994
2.880000 1.160000 6.840000 21.003498 -23.081718 973.912720
2.880000 1.160000 6.880000 28.954781 -15.488497 1078.272827
2.880000 1.160000 6.920000 29.855354 -5.401222 920.515381
2.880000 1.160000 6.960000 25.045784 1.709320 630.213074
2.880000 1.160000 7.000000 18.664742 3.715454 362.177185
2.880000 1.160000 7.040000 14.256935 1.859983 206.719727
2.880000 1.160000 7.080000 13.240900 -1.183861 176.722946
2.880000 1.160000 7.120000 15.131889 -2.867836 237.198563
2.880000 1.160000 7.160000 18.054907 -1.476430 328.159515
2.880000 1.160000 7.200000 19.158846 3.078350 376.537598
2.880000 1.200000 6.800000 14.731710 -6.419110 258.228271
2.880000 1.200000 6.840000 12.794237 2.551702 170.203690
2.880000 1.200000 6.880000 1.941697 4.103451 20.608496
2.880000 1.200000 6.920000 -5.868187 -7.291183 87.596977
2.880000 1.200000 6.960000 0.887825 -23.095360 534.183838
2.880000 1.200000 7.000000 20.619965 -27.911345 1204.226074
2.880000 1.200000 7.040000 38.637379 -14.490679 1702.826782
2.880000 1.200000 7.080000 40.370964 8.617184 1704.070557
2.880000 1.200000 7.120000 24.758173 24.545868 1215.466797
2.880000 1.200000 7.160000 4.702538 23.213768 560.992859
2.880000 1.200000 7.200000 -5.174366 9.250929 112.353745
2.920000 0.800000 6.800000 -14.432052 -40.447823 1844.310547
2.920000 0.800000 6.840000 2.505314 -32.809837 1082.762085
2.920000 0.800000 6.880000 8.638836 -19.169270 442.090393
2.920000 0.800000 6.920000 5.394749 -10.040957 129.924133
2.920000 0.800000 6.960000 1.849800 -9.025238 84.876678
2.920000 0.800000 7.000000 4.571176 -10.042595 121.749359
2.920000 0.800000 7.040000 10.616032 -5.069420 138.399139
2.920000 0.800000 7.080000 11.297653 6.275398 167.017593
2.920000 0.800000 7.120000 2.357765 15.851086 256.815979
2.920000 0.800000 7.160000 -10.755400 15.688141 361.796387
2.920000 0.800000 7.200000 -18.225109 6.547710 375.027100
2.920000 0.840000 6.800000 21.205202 -32.629612 1514.352051
2.920000 0.840000 6.840000 29.134911 -2.260515 853.952942
2.920000 0.840000 6.880000 9.979790 24.421116 695.987122
2.920000 0.840000 6.920000 -23.108463 25.641220 1191.473267
2.920000 0.840000 6.960000 -43.476639 -0.017677 1890.218506
2.920000 0.840000 7.000000 -34.707378 -30.921387 2160.734375
2.920000 0.840000 7.040000 -5.472878 -41.616451 1761.881348
2.920000 0.840000 7.080000 19.149162 -25.438560 1013.810791
2.920000 0.840000 7.120000 20.948528 1.343014 440.644531
2.920000 0.840000 7.160000 3.426752 16.597626 287.223816
2.920000 0.840000 7.200000 -15.009704 12.497934 381.489563
2.920000 0.880000 6.800000 38.981316 2.411135 1525.356567
2.920000 0.880000 6.840000 18.200508 46.267323 2471.923584
2.920000 0.880000 6.880000 -37.384388 60.422543 5048.476074
2.920000 0.880000 6.920000 -89.792694 22.895084 8586.913086
2.920000 0.880000 6.960000 -95.703369 -46.013069 11276.337891
2.920000 0.880000 7.000000 -46.161049 -96.729111 11487.363281
2.920000 0.880000 7.040000 23.069275 -92.454941 9080.107422
2.920000 0.880000 7.080000 61.965912 -40.785561 5503.236328
2.920000 0.880000 7.120000 48.831280 15.091053 2612.233887
2.920000 0.880000 7.160000 5.042915 35.866116 1311.809326
2.920000 0.880000 7.200000 -29.442743 17.716816 1180.760742
2.920000 0.920000 6.800000 21.762877 39.941246 2068.925781
2.920000 0.920000 6.840000 -34.926105 71.332962 6308.224609
2.920000 0.920000 6.880000 -110.451241 42.534920 14008.696289
2.920000 0.920000 6.920000 -143.554993 -45.843605 22709.671875
2.920000 0.920000 6.960000 -95.896164 -137.958893 28228.730469
2.920000 0.920000 7.000000 8.049873 -165.828796 27563.990234
2.920000 0.920000 7.040000 96.837936 -108.609482 21173.605469
2.920000 0.920000 7.080000 111.804558 -11.562710 12633.955078
2.920000 0.920000 7.120000 55.185616 53.982937 5959.609375
2.920000 0.920000 7.160000 -17.539345 51.255333 2934.737793
2.920000 0.920000 7.200000 -50.551998 2.710582 2562.851562
2.920000 0.960000 6.800000 -19.746906 49.803215 2870.300293
2.920000 0.960000 6.840000 -94.948425 42.968773 10861.518555
2.920000 0.960000 6.880000 -151.023132 -35.953846 24100.666016
2.920000 0.960000 6.920000 -126.321259 -148.335724 37960.546875
2.920000 0.960000 6.960000 -16.366409 -213.363846 45791.988281
2.920000 0.960000 7.000000 111.474815 -176.211395 43477.089844
2.920000 0.960000 7.040000 170.149567 -59.441185 32484.128906
2.920000 0.960000 7.080000 126.185043 53.426277 18777.031250
2.920000 0.960000 7.120000 25.764544 88.598694 8513.540039
2.920000 0.960000 7.160000 -49.664886 41.000248 4147.621094
2.920000 0.960000 7.200000 -54.040245 -31.188946 3893.098633
2.920000 1.000000 6.800000 -53.707714 22.730085 3401.175293
2.920000 1.000000 6.840000 -113.773499 -25.952353 13617.933594
2.920000 1.000000 6.880000 -117.297241 -126.573685 29779.539062
2.920000 1.000000 6.920000 -31.673285 -211.823639 45872.449219
2.920000 1.000000 6.960000 103.087524 -208.445160 54076.421875
2.920000 1.000000 7.000000 197.942322 -104.552177 50112.320312
2.920000 1.000000 7.040000 187.841705 32.974285 36371.812500
2.920000 1.000000 7.080000 87.706078 111.715469 20172.701172
2.920000 1.000000 7.120000 -21.626425 90.145096 8593.840820
2.920000 1.000000 7.160000 -63.950439 7.067762 4139.611816
2.920000 1.000000 7.200000 -28.319191 -60.135818 4418.292969
2.920000 1.040000 6.800000 -53.741402 -20.598816 3312.449463
2.920000 1.040000 6.840000 -73.590332 -86.754295 12941.844727
2.920000 1.040000 6.880000 -25.952175 -164.051300 27586.343750
2.920000 1.040000 6.920000 81.221970 -186.815216 41496.933594
2.920000 1.040000 6.960000 183.321793 -119.106300 47793.187500
2.920000 1.040000 7.000000 207.672134 6.350613 43168.046875
2.920000 1.040000 7.040000 135.969803 108.657516 30294.242188
2.920000 1.040000 7.080000 22.131878 124.170433 15908.117188
2.920000 1.040000 7.120000 -52.805206 57.978916 6149.944336
2.920000 1.040000 7.160000 -47.602211 -25.283279 2905.214600
2.920000 1.040000 7.200000 11.233744 -60.370159 3770.753174
2.920000 1.080000 6.800000 -21.366364 -47.180813 2682.550537
2.920000 1.080000 6.840000 -4.129652 -96.534164 9335.898438
2.920000 1.080000 6.880000 59.140247 -124.148422 18910.400391
2.920000 1.080000 6.920000 136.783798 -93.510445 27454.009766
2.920000 1.080000 6.960000 174.902069 -8.368286 30660.761719
2.920000 1.080000 7.000000 141.317307 82.677254 26806.109375
2.920000 1.080000 7.040000 55.562523 122.112320 17998.613281
2.920000 1.080000 7.080000 -24.447794 90.137222 8722.413086
2.920000 1.080000 7.120000 -49.098389 20.019623 2811.437256
2.920000 1.080000 7.160000 -15.577114 -31.668692 1245.552490
2.920000 1.080000 7.200000 35.293686 -32.174309 2280.830566
2.920000 1.120000 6.800000 16.650187 -40.002190 1877.403809
2.920000 1.120000 6.840000 43.724274 -55.070122 4944.530273
2.920000 1.120000 6.880000 82.820587 -44.494789 8839.036133
2.920000 1.120000 6.920000 108.986473 -3.643242 11891.325195
2.920000 1.120000 6.960000 100.619759 49.428223 12567.485352
2.920000 1.120000 7.000000 57.758392 84.443329 10466.708008
2.920000 1.120000 7.040000 4.658920 81.251915 6623.579102
2.920000 1.120000 7.080000 -27.408865 45.804955 2849.339600
2.920000 1.120000 7.120000 -23.704365 5.605927 593.323303
2.920000 1.120000 7.160000 3.839912 -12.026018 159.370041
2.920000 1.120000 7.200000 28.136791 -0.496628 791.925659
2.920000 1.160000 6.800000 33.019386 -10.719542 1205.188477
2.920000 1.160000 6.840000 42.692490 -1.916317 1826.320923
2.920000 1.160000 6.880000 45.104973 11.909027 2176.283447
2.920000 1.160000 6.920000 39.855885 24.677460 2197.468506
2.920000 1.160000 6.960000 29.960838 33.073353 1991.498535
2.920000 1.160000 7.000000 18.201035 36.523113 1665.215332
2.920000 1.160000 7.040000 6.393333 34.892406 1258.354736
2.920000 1.160000 7.080000 -2.963840 28.105568 798.707336
2.920000 1.160000 7.120000 -6.634960 18.227604 376.268250
2.920000 1.160000 7.160000 -3.663555 10.204945 117.562531
2.920000 1.160000 7.200000 2.050541 8.532923 77.015488
2.920000 1.200000 6.800000 22.917362 14.032783 722.124512
2.920000 1.200000 6.840000 9.345726 22.146606 577.814758
2.920000 1.200000 6.880000 -5.827263 13.589916 218.642822
2.920000 1.200000 6.920000 -5.539261 -5.263964 58.392723
2.920000 1.200000 6.960000 12.938431 -14.954704 391.046143
2.920000 1.200000 7.000000 33.023399 -2.671295 1097.680786
2.920000 1.200000 7.040000 34.250755 23.479111 1724.382812
2.920000 1.200000 7.080000 12.756166 41.156269 1856.558350
2.920000 1.200000 7.120000 -14.418570 35.168671 1444.730591
2.920000 1.200000 7.160000 -25.753391 11.773539 801.853394
2.920000 1.200000 7.200000 -15.460901 -8.400311 309.604675
2.960000 0.800000 6.800000 10.700016 -39.766327 1695.851074
2.960000 0.800000 6.840000 20.034880 -23.319365 945.189209
2.960000 0.800000 6.880000 15.850990 -8.971147 331.735352
2.960000 0.800000 6.920000 6.881741 -5.641155 79.180984
2.960000 0.800000 6.960000 4.572617 -10.204071 125.031883
2.960000 0.800000 7.000000 11.231596 -11.610161 260.944580
2.960000 0.800000 7.040000 18.191101 -3.146004 340.813507
2.960000 0.800000 7.080000 15.648399 10.415729 353.359802
2.960000 0.800000 7.120000 3.302519 18.156668 340.571198
2.960000 0.800000 7.160000 -9.558749 14.637984 305.640259
2.960000 0.800000 7.200000 -14.034006 5.054740 222.503723
2.960000 0.840000 6.800000 35.071243 -12.326063 1381.923950
2.960000 0.840000 6.840000 23.343998 20.865562 980.313965
2.960000 0.840000 6.880000 -12.641350 33.105251 1255.761353
2.960000 0.840000 6.920000 -45.483864 11.013824 2190.086426
2.960000 0.840000 6.960000 -47.470181 -29.223129 3107.409180
2.960000 0.840000 7.000000 -16.474541 -54.881088 3283.344238
2.960000 0.840000 7.040000 21.753357 -45.994820 2588.731934
2.960000 0.840000 7.080000 37.315781 -12.416828 1546.645142
2.960000 0.840000 7.120000 22.344921 17.365654 800.861450
2.960000 0.840000 7.160000 -5.355080 23.154694 564.816711
2.960000 0.840000 7.200000 -22.300423 8.731815 573.553467
2.960000 0.880000 6.800000 27.765759 27.122551 1506.570068
2.960000 0.880000 6.840000 -19.629175 56.735741 3604.248779
2.960000 0.880000 6.880000 -83.460701 34.721386 8171.263184
2.960000 0.880000 6.920000 -111.115303 -37.024063 13717.391602
2.960000 0.880000 6.960000 -72.054947 -110.158257 17326.757812
2.960000 0.880000 7.000000 10.569618 -129.308594 16832.429688
2.960000 0.880000 7.040000 77.332932 -81.116264 12560.230469
2.960000 0.880000 7.080000 83.785332 -5.563412 7050.933594
2.960000 0.880000 7.120000 36.742874 40.992020 3030.384521
2.960000 0.880000 7.160000 -17.560783 34.410645 1492.473511
2.960000 0.880000 7.200000 -38.534061 -2.871846 1493.121460
2.960000 0.920000 6.800000 -10.428751 46.646370 2284.642578
2.960000 0.920000 6.840000 -85.573380 42.551132 9133.402344
2.960000 0.920000 6.880000 -142.381729 -34.076279 21433.750000
2.960000 0.920000 6.920000 -119.063019 -143.783203 34849.613281
2.960000 0.920000 6.960000 -12.726593 -206.040527 42614.664062
2.960000 0.920000 7.000000 108.770821 -168.868134 40347.539062
2.960000 0.920000 7.040000 161.655075 -57.505138 29439.203125
2.960000 0.920000 7.080000 117.708817 46.300297 15999.083008
2.960000 0.920000 7.120000 24.833355 75.263718 6281.322266
2.960000 0.920000 7.160000 -40.664616 30.153542 2562.847168
2.960000 0.920000 7.200000 -41.306221 -31.939804 2726.354980
2.960000 0.960000 6.800000 -51.197464 27.294811 3366.187012
2.960000 0.960000 6.840000 -121.357132 -25.811121 15393.767578
2.960000 0.960000 6.880000 -127.447723 -139.972534 35835.234375
2.960000 0.960000 6.920000 -31.453098 -237.036835 57175.757812
2.960000 0.960000 6.960000 119.749863 -233.201324 68722.890625
2.960000 0.960000 7.000000 224.479736 -116.988640 64077.492188
2.960000 0.960000 7.040000 211.699020 34.067024 45977.039062
2.960000 0.960000 7.080000 102.062454 117.742928 24280.140625
2.960000 0.960000 7.120000 -13.403271 92.872086 8804.872070
2.960000 0.960000 7.160000 -54.975788 6.546077 3065.188232
2.960000 0.960000 7.200000 -17.563156 -58.208572 3696.702148
2.960000 1.000000 6.800000 -61.342937 -18.331364 4098.995117
2.960000 1.000000 6.840000 -90.796585 -103.626526 18982.476562
2.960000 1.000000 6.880000 -30.767197 -206.369843 43535.132812
2.960000 1.000000 6.920000 109.136887 -237.761292 68441.296875
2.960000 1.000000 6.960000 242.367493 -149.902832 81212.859375
2.960000 1.000000 7.000000 273.244080 12.433867 74816.929688
2.960000 1.000000 7.040000 180.500381 142.584946 52910.855469
2.960000 1.000000 7.080000 36.946609 160.726257 27197.982422
2.960000 1.000000 7.120000 -54.399342 78.327003 9094.408203
2.960000 1.000000 7.160000 -46.902657 -20.426453 2617.099121
2.960000 1.000000 7.200000 20.485023 -58.096359 3794.823242
2.960000 1.040000 6.800000 -31.657148 -55.295792 4059.799561
2.960000 1.040000 6.840000 -10.391842 -133.098724 17823.259766
2.960000 1.040000 6.880000 86.221268 -180.231506 39917.503906
2.960000 1.040000 6.920000 208.511902 -135.123550 61735.585938
2.960000 1.040000 6.960000 268.931091 -2.767921 72331.593750
2.960000 1.040000 7.000000 216.221954 138.357819 65894.820312
2.960000 1.040000 7.040000 83.528076 197.549713 46002.828125
2.960000 1.040000 7.080000 -37.217007 147.229889 23061.746094
2.960000 1.040000 7.120000 -72.344315 42.723808 7059.023438
2.960000 1.040000 7.160000 -23.641710 -30.395823 1482.836426
2.960000 1.040000 7.200000 44.504173 -29.529219 2852.596191
2.960000 1.080000 6.800000 14.968580 -55.986626 3358.560547
2.960000 1.080000 6.840000 62.580994 -94.066521 12764.891602
2.960000 1.080000 6.880000 143.610382 -81.453568 27258.625000
2.960000 1.080000 6.920000 202.664215 -0.844910 41073.500000
2.960000 1.080000 6.960000 187.771301 109.873802 47330.312500
2.960000 1.080000 7.000000 97.512108 182.014008 42637.710938
2.960000 1.080000 7.040000 -12.956829 171.249939 29494.419922
2.960000 1.080000 7.080000 -75.351151 94.182442 14548.127930
2.960000 1.080000 7.120000 -62.796589 12.626011 4102.827637
2.960000 1.080000 7.160000 -6.629787 -19.252314 414.605652
2.960000 1.080000 7.200000 36.946953 3.834196 1379.778320
2.960000 1.120000 6.800000 43.946232 -22.960768 2458.468018
2.960000 1.120000 6.840000 79.770508 -20.879320 6799.279785
2.960000 1.120000 6.880000 112.420876 14.927155 12861.273438
2.960000 1.120000 6.920000 113.032898 73.936600 18243.056641
2.960000 1.120000 6.960000 70.536179 124.214577 20404.613281
2.960000 1.120000 7.000000 3.542809 135.010178 18240.298828
2.960000 1.120000 7.040000 -51.496109 100.710709 12794.496094
2.960000 1.120000 7.080000 -67.173401 45.479355 6580.637695
2.960000 1.120000 7.120000 -44.702915 4.280027 2016.669189
2.960000 1.120000 7.160000 -10.107664 -3.501783 114.427361
2.960000 1.120000 7.200000 8.406734 14.223768 272.988770
2.960000 1.160000 6.800000 38.556995 15.769547 1735.320435
2.960000 1.160000 6.840000 41.806461 30.461147 2675.661621
2.960000 1.160000 6.880000 35.375801 46.360325 3400.727051
2.960000 1.160000 6.920000 21.444756 57.632965 3781.436035
2.960000 1.160000 6.960000 3.802643 62.132877 3874.954590
2.960000 1.160000 7.000000 -14.859581 59.311245 3738.630859
2.960000 1.160000 7.040000 -31.561897 48.301838 3329.220947
2.960000 1.160000 7.080000 -41.248917 29.878189 2594.179199
2.960000 1.160000 7.120000 -39.255577 9.599464 1633.150146
2.960000 1.160000 7.160000 -26.733982 -3.575541 727.490295
2.960000 1.160000 7.200000 -12.359802 -4.185579 170.283783
2.960000 1.200000 6.800000 11.315418 33.132462 1225.798706
2.960000 1.200000 6.840000 -8.493452 31.906715 1090.177246
2.960000 1.200000 6.880000 -18.646912 13.840712 539.272583
2.960000 1.200000 6.920000 -7.756210 -3.492439 72.355927
2.960000 1.200000 6.960000 13.092316 -0.465115 171.625076
2.960000 1.200000 7.000000 19.782473 22.508553 897.981201
2.960000 1.200000 7.040000 0.185760 42.904427 1840.824341
2.960000 1.200000 7.080000 -31.652719 37.885410 2437.198975
2.960000 1.200000 7.120000 -48.094971 7.867218 2375.019287
2.960000 1.200000 7.160000 -35.070251 -23.058142 1761.600342
2.960000 1.200000 7.200000 -5.731552 -30.704163 975.596313
3.000000 0.800000 6.800000 27.872183 -19.979897 1176.054810
3.000000 0.800000 6.840000 25.085634 -3.326950 640.357666
3.000000 0.800000 6.880000 13.589558 3.498367 196.914642
3.000000 0.800000 6.920000 5.734446 -1.074860 34.039188
3.000000 0.800000 6.960000 8.682959 -7.350708 129.426682
3.000000 0.800000 7.000000 17.445557 -4.807251 327.457092
3.000000 0.800000 7.040000 20.735264 7.079249 480.066956
3.000000 0.800000 7.080000 12.866497 18.916821 523.392822
3.000000 0.800000 7.120000 -0.981613 21.537746 464.838074
3.000000 0.800000 7.160000 -11.007635 14.902255 343.245239
3.000000 0.800000 7.200000 -12.911922 6.633285 210.718170
3.000000 0.840000 6.800000 28.669975 12.217829 971.242798
3.000000 0.840000 6.840000 0.882896 31.706509 1006.082153
3.000000 0.840000 6.880000 -35.249912 20.504677 1662.998047
3.000000 0.840000 6.920000 -49.339294 -17.415863 2737.678223
3.000000 0.840000 6.960000 -27.141785 -52.977516 3543.293701
3.000000 0.840000 7.000000 14.856079 -57.382885 3513.498535
3.000000 0.840000 7.040000 43.731091 -27.972754 2694.883301
3.000000 0.840000 7.080000 39.388939 10.495358 1661.641113
3.000000 0.840000 7.120000 10.373472 29.438599 974.240051
3.000000 0.840000 7.160000 -17.517878 20.897013 743.561157
3.000000 0.840000 7.200000 -26.222588 0.015197 687.624329
3.000000 0.880000 6.800000 0.395557 34.472668 1188.521362
3.000000 0.880000 6.840000 -54.465050 32.700363 4035.755371
3.000000 0.880000 6.880000 -95.320435 -21.549236 9550.354492
3.000000 0.880000 6.920000 -78.270309 -98.075188 15744.983398
3.000000 0.880000 6.960000 -3.726318 -138.984970 19330.707031
3.000000 0.880000 7.000000 78.224075 -109.837982 18183.388672
3.000000 0.880000 7.040000 109.708000 -31.865318 13051.244141
3.000000 0.880000 7.080000 74.830505 36.649105 6942.761230
3.000000 0.880000 7.120000 10.084555 51.667942 2771.274414
3.000000 0.880000 7.160000 -32.423145 17.910425 1372.043701
3.000000 0.880000 7.200000 -30.792061 -23.830738 1516.055054
3.000000 0.920000 6.800000 -37.644680 24.471863 2015.994019
3.000000 0.920000 6.840000 -97.636467 -19.614693 9917.616211
3.000000 0.920000 6.880000 -103.073715 -115.704910 24011.816406
3.000000 0.920000 6.920000 -22.186111 -196.432312 39077.875000
3.000000 0.920000 6.960000 103.628860 -191.286560 47329.488281
3.000000 0.920000 7.000000 188.057709 -93.004349 44015.511719
3.000000 0.920000 7.040000 173.664703 31.103653 31126.867188
3.000000 0.920000 7.080000 81.278336 96.362144 15891.831055
3.000000 0.920000 7.120000 -11.936188 72.311340 5371.402832
3.000000 0.920000 7.160000 -42.624001 1.387644 1818.730957
3.000000 0.920000 7.200000 -11.162878 -48.535339 2480.289062
3.000000 0.960000 6.800000 -54.000439 -14.441696 3124.609863
3.000000 0.960000 6.840000 -83.848663 -96.658386 16373.441406
3.000000 0.960000 6.880000 -25.983410 -196.794846 39403.347656
3.000000 0.960000 6.920000 109.992935 -226.804703 63538.820312
3.000000 0.960000 6.960000 238.124939 -140.339737 76398.734375
3.000000 0.960000 7.000000 265.259674 16.751068 70643.296875
3.000000 0.960000 7.040000 173.477509 139.622833 49588.980469
3.000000 0.960000 7.080000 36.258579 153.196228 24783.769531
3.000000 0.960000 7.120000 -47.486912 72.859047 7563.447754
3.000000 0.960000 7.160000 -37.443001 -18.499674 1744.216187
3.000000 0.960000 7.200000 24.674179 -50.000397 3108.854980
3.000000 1.000000 6.800000 -32.524845 -53.336357 3902.632812
3.000000 1.000000 6.840000 -11.086428 -140.862564 19965.169922
3.000000 1.000000 6.880000 96.843964 -195.138336 47457.722656
3.000000 1.000000 6.920000 234.519989 -144.517792 75885.015625
3.000000 1.000000 6.960000 301.196472 4.789966 90742.257812
3.000000 1.000000 7.000000 239.572571 161.906342 83608.679688
3.000000 1.000000 7.040000 90.179947 224.402191 58488.765625
3.000000 1.000000 7.080000 -41.677288 164.863586 28916.998047
3.000000 1.000000 7.120000 -76.151665 49.414158 8240.834961
3.000000 1.000000 7.160000 -20.976669 -26.804920 1158.524414
3.000000 1.000000 7.200000 49.426025 -22.369110 2943.309082
3.000000 1.040000 6.800000 12.333466 -61.577034 3943.845703
3.000000 1.040000 6.840000 72.582130 -115.726585 18660.808594
3.000000 1.040000 6.880000 181.509247 -102.352409 43421.621094
3.000000 1.040000 6.920000 262.022919 4.872047 68679.742188
3.000000 1.040000 6.960000 241.163284 153.317932 81666.117188
3.000000 1.040000 7.000000 118.250572 247.267899 75124.609375
3.000000 1.040000 7.040000 -28.430101 227.669968 52641.882812
3.000000 1.040000 7.080000 -106.065414 121.780304 26080.314453
3.000000 1.040000 7.120000 -83.460159 16.145502 7226.275391
3.000000 1.040000 7.160000 -8.867456 -19.863953 473.208374
3.000000 1.040000 7.200000 42.500858 12.822891 1970.749512
3.000000 1.080000 6.800000 47.425449 -32.991096 3337.585938
3.000000 1.080000 6.840000 108.852745 -39.380127 13399.714844
3.000000 1.080000 6.880000 171.812256 17.045818 29810.011719
3.000000 1.080000 6.920000 177.892548 120.733749 46222.398438
3.000000 1.080000 6.960000 102.845428 209.672684 54539.816406
3.000000 1.080000 7.000000 -16.364372 223.609863 50269.164062
3.000000 1.080000 7.040000 -107.925140 155.057480 35690.656250
3.000000 1.080000 7.080000 -123.053986 55.540314 18227.009766
3.000000 1.080000 7.120000 -72.855179 -8.708729 5383.718750
3.000000 1.080000 7.160000 -12.098995 -10.129665 248.995804
3.000000 1.080000 7.200000 11.496830 25.582041 786.617920
3.000000 1.120000 6.800000 49.147659 9.925065 2513.999268
3.000000 1.120000 6.840000 79.096054 31.566048 7252.601074
3.000000 1.120000 6.880000 87.475716 81.906273 14360.638672
3.000000 1.120000 6.920000 54.038589 135.097794 21171.583984
3.000000 1.120000 6.960000 -13.078262 156.296585 24599.664062
3.000000 1.120000 7.000000 -80.183960 128.741776 23003.912109
3.000000 1.120000 7.040000 -112.352150 67.637459 17197.832031
3.000000 1.120000 7.080000 -99.000847 8.534435 9874.004883
3.000000 1.120000 7.120000 -59.359898 -19.630342 3908.947754
3.000000 1.120000 7.160000 -24.637079 -13.819305 797.958862
3.000000 1.120000 7.200000 -13.716702 6.206739 226.671509
3.000000 1.160000 6.800000 21.739483 36.912285 1835.121826
3.000000 1.160000 6.840000 16.835505 52.116169 2999.529297
3.000000 1.160000 6.880000 1.685356 63.995369 4098.247559
3.000000 1.160000 6.920000 -19.103638 67.366394 4903.179688
3.000000 1.160000 6.960000 -40.490829 61.293091 5396.350586
3.000000 1.160000 7.000000 -58.785583 46.261047 5595.829102
3.000000 1.160000 7.040000 -69.772911 23.195290 5406.280762
3.000000 1.160000 7.080000 -68.275284 -3.847572 4676.317871
3.000000 1.160000 7.120000 -52.381565 -25.923737 3415.868408
3.000000 1.160000 7.160000 -28.383337 -33.599976 1934.572266
3.000000 1.160000 7.200000 -9.095522 -25.220581 718.806213
3.000000 1.200000 6.800000 -10.168789 35.373611 1354.696655
3.000000 1.200000 6.840000 -27.007553 24.402588 1324.894165
3.000000 1.200000 6.880000 -27.496773 4.159306 773.372314
3.000000 1.200000 6.920000 -11.376633 -4.868526 153.130310
3.000000 1.200000 6.960000 1.630056 7.298996 55.932426
3.000000 1.200000 7.000000 -7.752951 26.516815 763.249756
3.000000 1.200000 7.040000 -35.741722 27.195854 2017.085205
3.000000 1.200000 7.080000 -56.294746 -0.438457 3169.290527
3.000000 1.200000 7.120000 -46.604057 -37.694298 3592.798340
3.000000 1.200000 7.160000 -11.206356 -54.261829 3069.928711
3.000000 1.200000 7.200000 21.213667 -38.195271 1908.898315
3.040000 0.800000 6.800000 24.034184 5.661724 609.697083
3.040000 0.800000 6.840000 13.217699 13.277031 350.987122
3.040000 0.800000 6.880000 2.873569 9.899796 106.263344
3.040000 0.800000 6.920000 1.718462 1.664993 5.725314
3.040000 0.800000 6.960000 8.715111 -1.081470 77.122734
3.040000 0.800000 7.000000 14.681587 5.662187 247.609360
3.040000 0.800000 7.040000 11.993176 16.162531 405.063660
3.040000 0.800000 7.080000 1.735897 21.569538 468.258301
3.040000 0.800000 7.120000 -8.690808 18.707201 425.489532
3.040000 0.800000 7.160000 -13.765818 11.719348 326.840851
3.040000 0.800000 7.200000 -14.373692 6.065870 243.397797
3.040000 0.840000 6.800000 5.646175 22.584618 541.944214
3.040000 0.840000 6.840000 -22.174608 21.015144 933.349548
3.040000 0.840000 6.880000 -40.779404 -5.428463 1692.427979
3.040000 0.840000 6.920000 -31.035675 -39.521278 2525.144531
3.040000 0.840000 6.960000 3.114868 -54.218918 2949.393555
3.040000 0.840000 7.000000 36.459755 -37.092995 2705.204102
3.040000 0.840000 7.040000 44.446262 -1.596786 1978.019897
3.040000 0.840000 7.080000 24.013180 25.476105 1225.664795
3.040000 0.840000 7.120000 -6.111036 27.425102 789.481018
3.040000 0.840000 7.160000 -24.035200 9.484933 667.654785
3.040000 0.840000 7.200000 -22.940636 -10.198217 630.276428
3.040000 0.880000 6.800000 -22.683603 17.018785 804.184937
3.040000 0.880000 6.840000 -58.750870 -10.697819 3566.108154
3.040000 0.880000 6.880000 -60.624802 -68.898514 8422.372070
3.040000 0.880000 6.920000 -10.692566 -115.701134 13501.083008
3.040000 0.880000 6.960000 63.868797 -109.616035 16094.898438
3.040000 0.880000 7.000000 110.804092 -49.036911 14682.166016
3.040000 0.880000 7.040000 97.933197 23.727081 10153.885742
3.040000 0.880000 7.080000 40.609283 58.849007 5112.319336
3.040000 0.880000 7.120000 -14.304424 40.889793 1876.591797
3.040000 0.880000 7.160000 -30.838888 -2.987602 959.962830
3.040000 0.880000 7.200000 -11.394111 -33.086861 1224.566162
3.040000 0.920000 6.800000 -36.962158 -12.128710 1513.306763
3.040000 0.920000 6.840000 -57.272831 -70.752190 8286.049805
3.040000 0.920000 6.880000 -14.616104 -141.646469 20277.353516
3.040000 0.920000 6.920000 83.290749 -161.131912 32900.839844
3.040000 0.920000 6.960000 173.558380 -96.917152 39515.445312
3.040000 0.920000 7.000000 189.671051 16.087761 36233.925781
3.040000 0.920000 7.040000 121.001526 101.726395 24989.628906
3.040000 0.920000 7.080000 22.417650 107.656570 12092.488281
3.040000 0.920000 7.120000 -35.313889 47.633808 3516.050293
3.040000 0.920000 7.160000 -25.722342 -17.704308 975.081360
3.040000 0.920000 7.200000 19.111353 -39.110641 1894.886108
3.040000 0.960000 6.800000 -21.547016 -44.175064 2415.710205
3.040000 0.960000 6.840000 -3.710501 -115.279816 13303.203125
3.040000 0.960000 6.880000 85.948242 -159.132294 32710.185547
3.040000 0.960000 6.920000 199.813400 -115.338348 53228.328125
3.040000 0.960000 6.960000 253.054642 10.177258 64140.230469
3.040000 0.960000 7.000000 198.610718 140.005356 59047.718750
3.040000 0.960000 7.040000 72.657578 188.565277 40835.988281
3.040000 0.960000 7.080000 -35.407326 135.383209 19582.292969
3.040000 0.960000 7.120000 -60.420429 38.472969 5130.797363
3.040000 0.960000 7.160000 -12.309956 -22.663872 665.186035
3.040000 0.960000 7.200000 44.945450 -16.669952 2297.980713
3.040000 1.000000 6.800000 15.276814 -53.110558 3054.112549
3.040000 1.000000 6.840000 71.345055 -104.512665 16013.013672
3.040000 1.000000 6.880000 175.404755 -91.627243 39162.378906
3.040000 1.000000 6.920000 252.032104 12.343528 63672.546875
3.040000 1.000000 6.960000 229.516602 155.497299 76857.281250
3.040000 1.000000 7.000000 108.430878 243.524948 71061.656250
3.040000 1.000000 7.040000 -32.713871 220.045502 49490.222656
3.040000 1.000000 7.080000 -103.423401 114.962616 23912.802734
3.040000 1.000000 7.120000 -76.778503 14.668720 6110.109863
3.040000 1.000000 7.160000 -3.830706 -15.506224 255.117279
3.040000 1.000000 7.200000 42.101471 18.369690 2109.979248
3.040000 1.040000 6.800000 46.942616 -30.274803 3120.172852
3.040000 1.040000 6.840000 115.270706 -40.412273 14920.488281
3.040000 1.040000 6.880000 188.137634 22.219006 35889.453125
3.040000 1.040000 6.920000 195.373413 141.018677 58057.039062
3.040000 1.040000 6.960000 107.517151 242.028244 70137.609375
3.040000 1.040000 7.000000 -30.235296 253.697662 65276.675781
3.040000 1.040000 7.040000 -131.611450 169.711136 46123.445312
3.040000 1.040000 7.080000 -141.250839 54.555996 22928.156250
3.040000 1.040000 7.120000 -77.728439 -13.614445 6227.063477
3.040000 1.040000 7.160000 -9.049395 -7.770279 142.268768
3.040000 1.040000 7.200000 11.786543 35.329838 1387.119995
3.040000 1.080000 6.800000 51.017616 8.090923 2668.260254
3.040000 1.080000 6.840000 98.569702 32.712471 10786.091797
3.040000 1.080000 6.880000 117.394150 105.443405 24899.699219
3.040000 1.080000 6.920000 70.571503 186.363037 39711.515625
3.040000 1.080000 6.960000 -30.238201 216.879318 47950.988281
3.040000 1.080000 7.000000 -128.105240 169.638123 45188.046875
3.040000 1.080000 7.040000 -165.826996 73.710243 32931.792969
3.040000 1.080000 7.080000 -132.057846 -9.387094 17527.392578
3.040000 1.080000 7.120000 -66.421005 -36.541008 5746.995117
3.040000 1.080000 7.160000 -21.273359 -13.781549 642.486938
3.040000 1.080000 7.200000 -18.047083 18.498798 667.902710
3.040000 1.120000 6.800000 27.386063 35.481781 2008.953125
3.040000 1.120000 6.840000 39.443115 66.390297 5963.430664
3.040000 1.120000 6.880000 20.447800 109.188049 12340.142578
3.040000 1.120000 6.920000 -32.553177 133.405762 18856.806641
3.040000 1.120000 6.960000 -95.803406 116.080093 22652.880859
3.040000 1.120000 7.000000 -135.156738 61.065739 21996.367188
3.040000 1.120000 7.040000 -131.567749 -3.085068 17319.589844
3.040000 1.120000 7.080000 -94.021378 -44.772297 10844.578125
3.040000 1.120000 7.120000 -49.932373 -51.528854 5148.464844
3.040000 1.120000 7.160000 -23.109922 -34.827248 1747.005615
3.040000 1.120000 7.200000 -18.611160 -16.276754 611.307983
3.040000 1.160000 6.800000 -4.278840 37.513969 1425.606323
3.040000 1.160000 6.840000 -15.320061 48.273094 2564.995850
3.040000 1.160000 6.880000 -34.510422 51.191124 3811.500488
3.040000 1.160000 6.920000 -54.846004 43.176552 4872.298828
3.040000 1.160000 6.960000 -70.641518 25.866508 5659.300293
3.040000 1.160000 7.000000 -78.535316 2.046173 6171.982910
3.040000 1.160000 7.040000 -75.420784 -24.994854 6313.037109
3.040000 1.160000 7.080000 -58.852486 -49.064674 5870.957031
3.040000 1.160000 7.120000 -31.412210 -61.118961 4722.254395
3.040000 1.160000 7.160000 -3.451473 -55.276287 3067.380615
3.040000 1.160000 7.200000 11.930043 -35.916874 1432.347778
3.040000 1.200000 6.800000 -23.674093 21.025711 1002.543213
3.040000 1.200000 6.840000 -32.789684 6.654619 1119.447388
3.040000 1.200000 6.880000 -26.441727 -8.753223 775.783813
3.040000 1.200000 6.920000 -12.671676 -9.847008 257.534912
3.040000 1.200000 6.960000 -10.165121 2.060051 107.573502
3.040000 1.200000 7.000000 -26.135143 7.654549 741.637817
3.040000 1.200000 7.040000 -44.773041 -9.730703 2099.311768
3.040000 1.200000 7.080000 -41.451767 -43.227821 3586.893555
3.040000 1.200000 7.120000 -9.389769 -65.638275 4396.551270
3.040000 1.200000 7.160000 30.109421 -55.847580 4025.529297
3.040000 1.200000 7.200000 46.777592 -21.402868 2646.225830
3.080000 0.800000 6.800000 2.448936 18.150429 335.435364
3.080000 0.800000 6.840000 -6.535400 14.292362 246.983078
3.080000 0.800000 6.880000 -8.675093 5.793068 108.816864
3.080000 0.800000 6.920000 -3.499451 0.529268 12.526279
3.080000 0.800000 6.960000 2.612026 2.693446 14.077331
3.080000 0.800000 7.000000 3.286762 9.052427 92.749245
3.080000 0.800000 7.040000 -1.760471 13.194969 177.206467
3.080000 0.800000 7.080000 -7.822038 12.252449 211.306793
3.080000 0.800000 7.120000 -11.125683 8.586151 197.502808
3.080000 0.800000 7.160000 -12.301267 5.433886 180.848282
3.080000 0.800000 7.200000 -13.719281 2.680110 195.401657
3.080000 0.840000 6.800000 -16.111105 10.796896 376.140656
3.080000 0.840000 6.840000 -28.540133 -3.327400 825.610779
3.080000 0.840000 6.880000 -25.851345 -26.202139 1354.844116
3.080000 0.840000 6.920000 -4.850929 -41.274635 1727.127075
3.080000 0.840000 6.960000 21.725815 -35.663628 1743.905273
3.080000 0.840000 7.000000 35.400558 -12.290283 1404.250610
3.080000 0.840000 7.040000 27.583866 12.324913 912.773193
3.080000 0.840000 7.080000 6.014421 22.101892 524.666931
3.080000 0.840000 7.120000 -13.181926 13.809437 364.463715
3.080000 0.840000 7.160000 -19.130049 -2.853344 374.100342
3.080000 0.840000 7.200000 -12.930747 -15.592920 410.343384
3.080000 0.880000 6.800000 -22.690796 -12.086489 660.955383
3.080000 0.880000 6.840000 -29.017452 -41.406570 2556.516602
3.080000 0.880000 6.880000 -5.048450 -74.367813 5556.058594
3.080000 0.880000 6.920000 43.806797 -80.702446 8431.919922
3.080000 0.880000 6.960000 86.350243 -46.632298 9630.935547
3.080000 0.880000 7.000000 91.377693 9.157509 8433.743164
3.080000 0.880000 7.040000 55.612370 49.500946 5543.079102
3.080000 0.880000 7.080000 6.763645 50.156662 2561.437500
3.080000 0.880000 7.120000 -21.068966 18.920490 801.886292
3.080000 0.880000 7.160000 -15.666386 -14.594143 458.424652
3.080000 0.880000 7.200000 7.410280 -26.752274 770.596375
3.080000 0.920000 6.800000 -6.972975 -34.380230 1230.622559
3.080000 0.920000 6.840000 6.120750 -72.989319 5364.903809
3.080000 0.920000 6.880000 59.503628 -95.236244 12610.624023
3.080000 0.920000 6.920000 125.366684 -66.361351 20120.634766
3.080000 0.920000 6.960000 154.157669 9.358967 23852.177734
3.080000 0.920000 7.000000 119.063118 85.688950 21518.623047
3.080000 0.920000 7.040000 42.699135 112.284668 14431.062500
3.080000 0.920000 7.080000 -21.277536 78.102173 6552.682617
3.080000 0.920000 7.120000 -34.540096 18.744350 1544.369019
3.080000 0.920000 7.160000 -3.964414 -18.105198 343.514771
3.080000 0.920000 7.200000 31.613701 -14.232985 1202.003906
3.080000 0.960000 6.800000 22.996248 -36.812710 1884.003174
3.080000 0.960000 6.840000 60.378235 -67.554642 8209.160156
3.080000 0.960000 6.880000 129.468735 -55.915134 19888.654297
3.080000 0.960000 6.920000 179.297821 16.988098 32436.304688
3.080000 0.960000 6.960000 160.641815 115.498581 39145.714844
3.080000 0.960000 7.000000 74.499519 174.257385 35915.816406
3.080000 0.960000 7.040000 -23.681581 154.734894 24503.703125
3.080000 0.960000 7.080000 -70.725372 79.238419 11280.804688
3.080000 0.960000 7.120000 -49.127457 9.279289 2499.612305
3.080000 0.960000 7.160000 3.530307 -9.893881 110.351944
3.080000 0.960000 7.200000 35.247322 15.545174 1484.026123
3.080000 1.000000 6.800000 45.717049 -14.543759 2301.569580
3.080000 1.000000 6.840000 96.084602 -20.623980 9657.599609
3.080000 1.000000 6.880000 150.965851 29.319382 23650.314453
3.080000 1.000000 6.920000 154.112457 123.473831 38996.437500
3.080000 1.000000 6.960000 81.348984 202.439240 47599.300781
3.080000 1.000000 7.000000 -30.223280 208.260925 44286.058594
3.080000 1.000000 7.040000 -109.816376 136.979614 30823.050781
3.080000 1.000000 7.080000 -113.234917 43.018848 14672.767578
3.080000 1.000000 7.120000 -58.298756 -9.419230 3487.466797
3.080000 1.000000 7.160000 -2.709721 -0.601940 7.704917
3.080000 1.000000 7.200000 11.169939 35.987122 1419.840454
3.080000 1.040000 6.800000 44.414696 17.537466 2280.227783
3.080000 1.040000 6.840000 86.304245 38.516289 8931.927734
3.080000 1.040000 6.880000 103.332878 105.268929 21759.230469
3.080000 1.040000 6.920000 58.194622 180.602142 36003.750000
3.080000 1.040000 6.960000 -38.550564 206.996216 44333.578125
3.080000 1.040000 7.000000 -130.443115 157.785614 41911.707031
3.080000 1.040000 7.040000 -161.254333 63.452847 30029.224609
3.080000 1.040000 7.080000 -122.429550 -13.762037 15178.388672
3.080000 1.040000 7.120000 -56.838264 -33.023819 4321.161133
3.080000 1.040000 7.160000 -16.995874 -5.192688 315.823761
3.080000 1.040000 7.200000 -19.941982 26.027935 1075.136108
3.080000 1.080000 6.800000 21.315769 37.611610 1868.995239
3.080000 1.080000 6.840000 38.894356 70.621033 6500.101074
3.080000 1.080000 6.880000 19.760353 122.280815 15343.069336
3.080000 1.080000 6.920000 -43.661102 152.645844 25207.044922
3.080000 1.080000 6.960000 -120.501808 129.410446 31267.750000
3.080000 1.080000 7.000000 -163.887527 58.319637 30260.300781
3.080000 1.080000 7.040000 -149.695602 -19.331232 22782.470703
3.080000 1.080000 7.080000 -95.547882 -60.666382 12809.807617
3.080000 1.080000 7.120000 -43.026711 -54.890198 4864.231445
3.080000 1.080000 7.160000 -21.486454 -26.283920 1152.512207
3.080000 1.080000 7.200000 -27.799465 -7.091550 823.100342
3.080000 1.120000 6.800000 -5.723290 35.566742 1297.749268
3.080000 1.120000 6.840000 -11.106941 59.641609 3680.485840
3.080000 1.120000 6.880000 -41.774818 78.479210 7904.122070
3.080000 1.120000 6.920000 -86.696114 70.857002 12536.931641
3.080000 1.120000 6.960000 -120.786102 31.958080 15610.601562
3.080000 1.120000 7.000000 -123.800156 -21.528252 15789.944336
3.080000 1.120000 7.040000 -95.282654 -63.801468 13149.411133
3.080000 1.120000 7.080000 -53.199425 -78.608894 9009.537109
3.080000 1.120000 7.120000 -19.074448 -68.420525 5045.202637
3.080000 1.120000 7.160000 -3.367382 -48.339157 2348.013428
3.080000 1.120000 7.200000 -2.413662 -32.646877 1071.644409
3.080000 1.160000 6.800000 -20.306692 19.462318 791.143555
3.080000 1.160000 6.840000 -32.980080 23.317242 1631.379395
3.080000 1.160000 6.880000 -48.833435 17.026468 2674.604980
3.080000 1.160000 6.920000 -60.415474 1.429886 3652.074219
3.080000 1.160000 6.960000 -63.996479 -19.123451 4461.255859
3.080000 1.160000 7.000000 -58.679356 -40.877167 5114.209473
3.080000 1.160000 7.040000 -43.627991 -60.389492 5550.292480
3.080000 1.160000 7.080000 -19.074957 -71.955704 5541.477539
3.080000 1.160000 7.120000 9.472242 -68.960098 4845.218262
3.080000 1.160000 7.160000 30.738230 -50.376778 3482.658691
3.080000 1.160000 7.200000 34.972794 -25.460676 1871.342285
3.080000 1.200000 6.800000 -20.854195 4.610073 456.150208
3.080000 1.200000 6.840000 -24.446112 -7.318010 651.165649
3.080000 1.200000 6.880000 -17.164047 -16.583504 569.617126
3.080000 1.200000 6.920000 -8.967150 -15.027996 306.250427
3.080000 1.200000 6.960000 -11.574726 -9.773125 229.488251
3.080000 1.200000 7.000000 -22.083099 -15.982912 743.116760
3.080000 1.200000 7.040000 -22.940208 -37.523571 1934.271606
3.080000 1.200000 7.080000 -0.963413 -58.092041 3375.613525
3.080000 1.200000 7.120000 34.910477 -55.481617 4296.951172
3.080000 1.200000 7.160000 58.545296 -25.650234 4085.486328
3.080000 1.200000 7.200000 51.736160 9.851688 2773.686035
3.120000 0.800000 6.800000 -19.509258 9.011982 461.826965
3.120000 0.800000 6.840000 -18.997791 -0.078316 360.922211
3.120000 0.800000 6.880000 -12.972593 -5.467189 198.178329
3.120000 0.800000 6.920000 -6.806423 -4.808403 69.448143
3.120000 0.800000 6.960000 -4.854233 -1.415571 25.567417
3.120000 0.800000 7.000000 -6.184708 -0.052341 38.253349
3.120000 0.800000 7.040000 -6.662459 -1.476318 46.567883
3.120000 0.800000 7.080000 -4.616406 -2.329100 26.735914
3.120000 0.800000 7.120000 -2.921183 -0.255185 8.598427
3.120000 0.800000 7.160000 -4.877272 2.330735 29.220110
3.120000 0.800000 7.200000 -9.091158 0.902427 83.463531
3.120000 0.840000 6.800000 -19.663532 -13.020741 556.194214
3.120000 0.840000 6.840000 -14.727402 -22.866053 739.752747
3.120000 0.840000 6.880000 -3.219883 -29.027225 852.947510
3.120000 0.840000 6.920000 10.722416 -26.685184 827.069275
3.120000 0.840000 6.960000 20.106800 -15.999725 660.274658
3.120000 0.840000 7.000000 20.317623 -2.530972 419.211639
3.120000 0.840000 7.040000 12.362185 6.699018 197.700455
3.120000 0.840000 7.080000 1.690460 7.868100 64.764656
3.120000 0.840000 7.120000 -5.729487 2.065757 37.094376
3.120000 0.840000 7.160000 -6.777508 -6.272519 85.279114
3.120000 0.840000 7.200000 -2.135271 -12.399188 158.299255
3.120000 0.880000 6.800000 0.196736 -29.468830 868.450623
3.120000 0.880000 6.840000 10.525820 -38.478363 1591.377319
3.120000 0.880000 6.880000 30.677246 -40.485519 2580.170654
3.120000 0.880000 6.920000 51.943184 -26.408482 3395.502197
3.120000 0.880000 6.960000 59.606339 1.312996 3554.639404
3.120000 0.880000 7.000000 46.083298 27.812111 2897.183838
3.120000 0.880000 7.040000 19.017086 37.108696 1738.704834
3.120000 0.880000 7.080000 -4.048944 25.413498 662.239868
3.120000 0.880000 7.120000 -9.805511 3.997837 112.130760
3.120000 0.880000 7.160000 0.797537 -10.880861 119.029205
3.120000 0.880000 7.200000 15.397615 -11.326880 365.384766
3.120000 0.920000 6.800000 28.725471 -24.187481 1410.187012
3.120000 0.920000 6.840000 44.704575 -29.012886 2840.246582
3.120000 0.920000 6.880000 70.436089 -18.653984 5309.213867
3.120000 0.920000 6.920000 87.306503 14.301197 7826.949707
3.120000 0.920000 6.960000 76.137711 56.102909 8944.487305
3.120000 0.920000 7.000000 37.311668 80.308441 7841.606445
3.120000 0.920000 7.040000 -6.089130 70.719910 5038.383301
3.120000 0.920000 7.080000 -26.886591 36.570900 2060.319336
3.120000 0.920000 7.120000 -16.837223 4.592591 304.583954
3.120000 0.920000 7.160000 7.986189 -4.515944 84.172958
3.120000 0.920000 7.200000 23.959122 7.514668 630.509705
3.120000 0.960000 6.800000 44.418304 2.894210 1981.362183
3.120000 0.960000 6.840000 63.217941 6.188676 4034.807861
3.120000 0.960000 6.880000 83.817772 32.559570 8085.544434
3.120000 0.960000 6.920000 80.534912 78.224846 12604.998047
3.120000 0.960000 6.960000 41.140877 115.529922 15039.734375
3.120000 0.960000 7.000000 -16.612316 115.877174 13703.488281
3.120000 0.960000 7.040000 -57.064484 77.059921 9194.586914
3.120000 0.960000 7.080000 -57.350994 27.148521 4026.178711
3.120000 0.960000 7.120000 -26.889446 -0.027424 723.043030
3.120000 0.960000 7.160000 3.322747 6.020148 47.282833
3.120000 0.960000 7.200000 10.300596 26.884363 828.871277
3.120000 1.000000 6.800000 34.100910 33.384911 2277.424316
3.120000 1.000000 6.840000 49.758709 45.932777 4585.749023
3.120000 1.000000 6.880000 53.859253 81.523392 9546.882812
3.120000 1.000000 6.920000 24.654228 121.509079 15372.287109
3.120000 1.000000 6.960000 -33.151859 133.241592 18852.367188
3.120000 1.000000 7.000000 -86.904480 100.688690 17690.601562
3.120000 1.000000 7.040000 -102.964783 42.120392 12375.873047
3.120000 1.000000 7.080000 -76.602875 -4.289013 5886.395996
3.120000 1.000000 7.120000 -35.195007 -13.732796 1427.278320
3.120000 1.000000 7.160000 -11.815311 5.653499 171.563629
3.120000 1.000000 7.200000 -15.953638 25.085602 883.805969
3.120000 1.040000 6.800000 5.331553 45.605370 2108.275391
3.120000 1.040000 6.840000 12.082020 63.554317 4185.126465
3.120000 1.040000 6.880000 -2.806454 94.202805 8882.043945
3.120000 1.040000 6.920000 -46.719322 111.324417 14575.821289
3.120000 1.040000 6.960000 -99.297211 91.629890 18255.972656
3.120000 1.040000 7.000000 -127.072380 38.804958 17653.214844
3.120000 1.040000 7.040000 -112.809189 -16.712234 13005.211914
3.120000 1.040000 7.080000 -70.866463 -43.386242 6904.421875
3.120000 1.040000 7.120000 -33.394463 -34.956776 2337.166504
3.120000 1.040000 7.160000 -21.394712 -12.264498 608.151611
3.120000 1.040000 7.200000 -29.214939 -0.378375 853.655884
3.120000 1.080000 6.800000 -20.234108 33.634289 1540.684570
3.120000 1.080000 6.840000 -23.882416 49.735550 3043.994873
3.120000 1.080000 6.880000 -48.527344 64.039154 6455.916016
3.120000 1.080000 6.920000 -86.703621 55.983894 10651.714844
3.120000 1.080000 6.960000 -114.916733 19.398731 13582.166016
3.120000 1.080000 7.000000 -113.060417 -29.441963 13649.487305
3.120000 1.080000 7.040000 -81.952209 -64.277344 10847.742188
3.120000 1.080000 7.080000 -42.193352 -70.313644 6724.287598
3.120000 1.080000 7.120000 -15.970656 -54.429749 3217.659180
3.120000 1.080000 7.160000 -9.729339 -35.707516 1369.686768
3.120000 1.080000 7.200000 -13.354515 -27.220516 919.299561
3.120000 1.120000 6.800000 -26.728470 11.499877 846.658264
3.120000 1.120000 6.840000 -36.754017 19.423931 1728.146851
3.120000 1.120000 6.880000 -57.006683 16.856091 3533.889648
3.120000 1.120000 6.920000 -75.471672 -2.754498 5703.560547
3.120000 1.120000 6.960000 -78.909271 -33.819683 7370.443848
3.120000 1.120000 7.000000 -62.950790 -62.565132 7877.197754
3.120000 1.120000 7.040000 -34.593277 -77.012100 7127.558594
3.120000 1.120000 7.080000 -6.123344 -74.268318 5553.278320
3.120000 1.120000 7.120000 13.204254 -60.022823 3777.091553
3.120000 1.120000 7.160000 21.043350 -42.798183 2274.507080
3.120000 1.120000 7.200000 20.276901 -28.783941 1239.667969
3.120000 1.160000 6.800000 -17.635750 -1.759552 314.115692
3.120000 1.160000 6.840000 -26.951418 -3.862324 741.296448
3.120000 1.160000 6.880000 -33.920578 -13.872023 1343.038574
3.120000 1.160000 6.920000 -34.397675 -27.560223 1942.765869
3.120000 1.160000 6.960000 -28.665852 -40.884426 2493.267334
3.120000 1.160000 7.000000 -17.717770 -52.348270 3054.260742
3.120000 1.160000 7.040000 -0.926243 -60.140404 3617.726074
3.120000 1.160000 7.080000 20.892691 -59.494228 3976.067871
3.120000 1.160000 7.120000 41.235043 -46.000198 3816.347168
3.120000 1.160000 7.160000 49.937866 -22.500513 3000.063721
3.120000 1.160000 7.200000 42.091393 -0.650707 1772.108765
3.120000 1.200000 6.800000 -9.527000 -0.872979 91.525833
3.120000 1.200000 6.840000 -11.895808 -9.863689 238.802612
3.120000 1.200000 6.880000 -6.601954 -16.094776 302.627594
3.120000 1.200000 6.920000 -1.827209 -15.913753 256.586212
3.120000 1.200000 6.960000 -2.922333 -16.350698 275.885376
3.120000 1.200000 7.000000 -3.495834 -25.126568 643.565308
3.120000 1.200000 7.040000 8.050594 -37.783310 1492.390625
3.120000 1.200000 7.080000 32.685287 -38.874969 2579.591309
3.120000 1.200000 7.120000 54.700066 -18.533062 3335.571533
3.120000 1.200000 7.160000 55.216225 13.532065 3231.948242
3.120000 1.200000 7.200000 32.539886 34.145126 2224.733887
3.160000 0.800000 6.800000 -25.345184 -12.847029 807.424500
3.160000 0.800000 6.840000 -15.857441 -17.829405 569.346069
3.160000 0.800000 6.880000 -7.958694 -15.936056 317.298706
3.160000 0.800000 6.920000 -5.466649 -12.267996 180.387970
3.160000 0.800000 6.960000 -5.633150 -12.090416 177.910538
3.160000 0.800000 7.000000 -2.785891 -14.795137 226.657272
3.160000 0.800000 7.040000 4.474254 -14.649968 234.640518
3.160000 0.800000 7.080000 10.886810 -7.891574 180.799591
3.160000 0.800000 7.120000 10.201415 1.970710 107.952568
3.160000 0.800000 7.160000 2.686379 7.174790 58.694248
3.160000 0.800000 7.200000 -4.343580 4.115299 35.802376
3.160000 0.840000 6.800000 -3.730365 -29.679482 894.787292
3.160000 0.840000 6.840000 6.662622 -24.893036 664.053711
3.160000 0.840000 6.880000 10.685893 -17.205811 410.228210
3.160000 0.840000 6.920000 9.932750 -12.109411 245.297363
3.160000 0.840000 6.960000 9.247684 -10.771393 201.542557
3.160000 0.840000 7.000000 11.251891 -9.737321 221.420471
3.160000 0.840000 7.040000 13.671769 -5.673231 219.102814
3.160000 0.840000 7.080000 12.475084 0.233789 155.682388
3.160000 0.840000 7.120000 7.253786 3.369354 63.969959
3.160000 0.840000 7.160000 2.450042 1.175575 7.384680
3.160000 0.840000 7.200000 2.668918 -3.308176 18.067150
3.160000 0.880000 6.800000 26.723749 -22.303551 1211.607178
3.160000 0.880000 6.840000 30.100080 -9.955712 1005.131042
3.160000 0.880000 6.880000 27.213373 -0.666946 741.012512
3.160000 0.880000 6.920000 22.806374 4.008003 536.194763
3.160000 0.880000 6.960000 19.678537 6.445427 428.788361
3.160000 0.880000 7.000000 16.980597 8.985310 369.076447
3.160000 0.880000 7.040000 12.834641 11.006016 285.860382
3.160000 0.880000 7.080000 7.847610 10.172108 165.056747
3.160000 0.880000 7.120000 5.188975 6.170402 64.999329
3.160000 0.880000 7.160000 6.997458 2.233111 53.951202
3.160000 0.880000 7.200000 11.331549 2.260559 133.514114
3.160000 0.920000 6.800000 41.753506 9.037313 1825.028320
3.160000 0.920000 6.840000 34.625790 21.255959 1650.761108
3.160000 0.920000 6.880000 25.643675 27.037882 1388.645142
3.160000 0.920000 6.920000 18.110989 29.248535 1183.484741
3.160000 0.920000 6.960000 11.214399 30.282948 1042.819580
3.160000 0.920000 7.000000 3.618141 29.225700 867.232483
3.160000 0.920000 7.040000 -2.969790 24.149984 592.041382
3.160000 0.920000 7.080000 -4.853417 16.235584 287.149872
3.160000 0.920000 7.120000 -0.870084 10.223208 105.271034
3.160000 0.920000 7.160000 5.210889 10.098808 129.139297
3.160000 0.920000 7.200000 7.789854 14.744441 278.080353
3.160000 0.960000 6.800000 26.386219 42.813000 2529.185547
3.160000 0.960000 6.840000 12.483731 47.360497 2398.860107
3.160000 0.960000 6.880000 1.524160 46.756142 2188.459717
3.160000 0.960000 6.920000 -7.305150 44.905293 2069.850586
3.160000 0.960000 6.960000 -16.385777 41.330223 1976.681030
3.160000 0.960000 7.000000 -24.448626 33.324589 1708.263428
3.160000 0.960000 7.040000 -26.941015 21.526608 1189.213135
3.160000 0.960000 7.080000 -21.669575 11.517766 602.229370
3.160000 0.960000 7.120000 -12.689516 8.865987 239.629547
3.160000 0.960000 7.160000 -7.225055 13.089951 223.548218
3.160000 0.960000 7.200000 -8.485409 17.793299 388.603638
3.160000 1.000000 6.800000 -9.990808 53.133865 2923.023926
3.160000 1.000000 6.840000 -22.774679 48.354023 2856.797607
3.160000 1.000000 6.880000 -31.155434 42.365395 2765.487793
3.160000 1.000000 6.920000 -38.630180 36.355591 2814.020020
3.160000 1.000000 6.960000 -45.908447 27.326197 2854.306396
3.160000 1.000000 7.000000 -48.952263 13.980947 2591.790771
3.160000 1.000000 7.040000 -43.919571 0.644170 1929.343628
3.160000 1.000000 7.080000 -32.893932 -6.071662 1118.875854
3.160000 1.000000 7.120000 -23.115208 -4.233713 552.237122
3.160000 1.000000 7.160000 -19.985189 1.012068 400.432098
3.160000 1.000000 7.200000 -21.677309 2.863929 478.107819
3.160000 1.040000 6.800000 -40.230415 32.780216 2693.028809
3.160000 1.040000 6.840000 -46.397102 23.600647 2709.681641
3.160000 1.040000 6.880000 -50.265293 15.787739 2775.852295
3.160000 1.040000 6.920000 -54.301273 7.303319 3001.966553
3.160000 1.040000 6.960000 -56.424004 -4.511819 3204.024658
3.160000 1.040000 7.000000 -52.467663 -18.019970 3077.574951
3.160000 1.040000 7.040000 -41.763847 -27.701447 2511.589111
3.160000 1.040000 7.080000 -29.064400 -29.613417 1721.693848
3.160000 1.040000 7.120000 -20.295246 -25.542782 1064.330688
3.160000 1.040000 7.160000 -16.907595 -20.957600 725.087769
3.160000 1.040000 7.200000 -15.290869 -19.061275 597.142883
3.160000 1.080000 6.800000 -43.305088 0.063409 1875.334717
3.160000 1.080000 6.840000 -43.868908 -7.160902 1975.759644
3.160000 1.080000 6.880000 -44.520535 -13.900243 2175.294678
3.160000 1.080000 6.920000 -44.671631 -22.409853 2497.756104
3.160000 1.080000 6.960000 -41.510113 -32.811131 2799.659668
3.160000 1.080000 7.000000 -33.215401 -42.186707 2882.980957
3.160000 1.080000 7.040000 -21.191875 -46.987411 2656.912598
3.160000 1.080000 7.080000 -9.035590 -45.995453 2197.223633
3.160000 1.080000 7.120000 0.330297 -40.812927 1665.804199
3.160000 1.080000 7.160000 6.185344 -33.829445 1182.689819
3.160000 1.080000 7.200000 9.059167 -26.391266 778.567383
3.160000 1.120000 6.800000 -23.064997 -18.281990 866.225220
3.160000 1.120000 6.840000 -23.235529 -21.893089 1019.197205
3.160000 1.120000 6.880000 -22.772293 -27.406027 1269.667725
3.160000 1.120000 6.920000 -20.011299 -34.066750 1560.995605
3.160000 1.120000 6.960000 -14.424444 -40.427696 1842.463257
3.160000 1.120000 7.000000 -6.136479 -45.355568 2094.783936
3.160000 1.120000 7.040000 4.743493 -47.608337 2289.054443
3.160000 1.120000 7.080000 17.334511 -45.175884 2341.345703
3.160000 1.120000 7.120000 28.569653 -36.391743 2140.583984
3.160000 1.120000 7.160000 33.844990 -22.553688 1654.152100
3.160000 1.120000 7.200000 30.509441 -8.886161 1009.789856
3.160000 1.160000 6.800000 -3.196005 -12.185394 158.698288
3.160000 1.160000 6.840000 -5.877163 -16.177782 296.261688
3.160000 1.160000 6.880000 -4.357740 -21.796562 494.080017
3.160000 1.160000 6.920000 -0.099468 -25.699688 660.483826
3.160000 1.160000 6.960000 4.520935 -28.399382 826.963745
3.160000 1.160000 7.000000 10.614831 -31.739019 1120.040039
3.160000 1.160000 7.040000 21.344944 -33.717285 1592.461914
3.160000 1.160000 7.080000 35.759232 -28.363731 2083.223877
3.160000 1.160000 7.120000 46.053974 -12.554731 2278.589844
3.160000 1.160000 7.160000 43.595028 7.704860 1959.891357
3.160000 1.160000 7.200000 28.569241 20.263174 1226.797729
3.160000 1.200000 6.800000 -3.054543 3.434892 21.128714
3.160000 1.200000 6.840000 -4.916462 -5.137725 50.567818
3.160000 1.200000 6.880000 -0.390026 -10.505186 110.511055
3.160000 1.200000 6.920000 3.921870 -11.278760 142.591492
3.160000 1.200000 6.960000 5.914824 -12.679080 195.744202
3.160000 1.200000 7.000000 11.000978 -17.171417 415.879089
3.160000 1.200000 7.040000 23.788403 -18.332331 901.962463
3.160000 1.200000 7.080000 38.594074 -7.180258 1541.058716
3.160000 1.200000 7.120000 42.048241 15.235306 2000.169067
3.160000 1.200000 7.160000 27.241352 34.637768 1941.866211
3.160000 1.200000 7.200000 3.871569 36.127090 1320.155640
3.200000 0.800000 6.800000 -12.950500 -29.967201 1065.748657
3.200000 0.800000 6.840000 -1.822537 -26.343334 697.292908
3.200000 0.800000 6.880000 1.831082 -19.996105 403.197083
3.200000 0.800000 6.920000 1.227223 -18.264927 335.113617
3.200000 0.800000 6.960000 4.093266 -21.172194 465.016602
3.200000 0.800000 7.000000 13.508011 -21.387779 639.903442
3.200000 0.800000 7.040000 23.609074 -12.576643 715.560303
3.200000 0.800000 7.080000 25.276398 2.794541 646.705750
3.200000 0.800000 7.120000 15.929515 14.970968 477.879333
3.200000 0.800000 7.160000 2.760960 16.538879 281.157440
3.200000 0.800000 7.200000 -4.358092 9.830448 115.630676
3.200000 0.840000 6.800000 17.378542 -28.051430 1088.896484
3.200000 0.840000 6.840000 19.493502 -12.641342 539.800171
3.200000 0.840000 6.880000 10.662893 -4.833205 137.057159
3.200000 0.840000 6.920000 3.096594 -9.259744 95.331741
3.200000 0.840000 6.960000 6.566600 -17.737389 357.735199
3.200000 0.840000 7.000000 18.594009 -17.997459 669.645752
3.200000 0.840000 7.040000 27.369669 -6.411121 790.201233
3.200000 0.840000 7.080000 24.129166 8.571239 655.682739
3.200000 0.840000 7.120000 11.882915 15.521193 382.111084
3.200000 0.840000 7.160000 1.479282 11.674364 138.479050
3.200000 0.840000 7.200000 -0.097626 4.699095 22.091022
3.200000 0.880000 6.800000 36.391586 0.679563 1324.809326
3.200000 0.880000 6.840000 20.840267 16.683229 712.646851
3.200000 0.880000 6.880000 1.008392 13.588706 185.669785
3.200000 0.880000 6.920000 -5.751448 -3.109704 42.749413
3.200000 0.880000 6.960000 5.132072 -16.274675 291.203217
3.200000 0.880000 7.000000 22.043598 -13.499457 668.155579
3.200000 0.880000 7.040000 29.307821 2.016019 863.012695
3.200000 0.880000 7.080000 21.994106 16.316637 749.973389
3.200000 0.880000 7.120000 8.754801 19.179131 444.485596
3.200000 0.880000 7.160000 1.196054 12.909382 168.082687
3.200000 0.880000 7.200000 2.126104 7.340775 58.407288
3.200000 0.920000 6.800000 24.434387 36.985043 1964.932739
3.200000 0.920000 6.840000 -4.891263 38.248184 1486.848022
3.200000 0.920000 6.880000 -23.547876 16.960148 842.149109
3.200000 0.920000 6.920000 -18.191824 -9.043965 412.735748
3.200000 0.920000 6.960000 4.260998 -19.187897 386.331482
3.200000 0.920000 7.000000 23.996161 -7.879732 637.905884
3.200000 0.920000 7.040000 26.533733 12.587574 862.486023
3.200000 0.920000 7.080000 13.958229 25.301090 834.977295
3.200000 0.920000 7.120000 -0.314283 23.909548 571.765259
3.200000 0.920000 7.160000 -5.852911 15.343192 269.670105
3.200000 0.920000 7.200000 -3.467864 9.805504 108.173988
3.200000 0.960000 6.800000 -13.809679 51.688271 2862.384521
3.200000 0.960000 6.840000 -41.336994 31.253082 2685.502197
3.200000 0.960000 6.880000 -44.257992 -2.709086 1966.109009
3.200000 0.960000 6.920000 -21.539455 -25.869268 1133.167236
3.200000 0.960000 6.960000 8.201934 -23.402958 614.970154
3.200000 0.960000 7.000000 23.242573 -1.319884 541.959229
3.200000 0.960000 7.040000 16.420845 20.939125 708.091125
3.200000 0.960000 7.080000 -1.771478 28.184116 797.482544
3.200000 0.960000 7.120000 -15.390675 20.463783 655.639282
3.200000 0.960000 7.160000 -17.103167 8.915110 371.997498
3.200000 0.960000 7.200000 -11.306728 3.369979 139.198868
3.200000 1.000000 6.800000 -50.492416 31.198713 3522.843750
3.200000 1.000000 6.840000 -60.583260 -2.759719 3677.947266
3.200000 1.000000 6.880000 -42.775761 -33.807350 2972.702637
3.200000 1.000000 6.920000 -9.399533 -41.533585 1813.389893
3.200000 1.000000 6.960000 16.196423 -23.484911 813.865112
3.200000 1.000000 7.000000 18.728844 3.990155 366.690918
3.200000 1.000000 7.040000 1.842224 20.513065 424.179657
3.200000 1.000000 7.080000 -17.757690 17.863941 634.455933
3.200000 1.000000 7.120000 -25.698591 3.708054 674.167236
3.200000 1.000000 7.160000 -20.245773 -8.155487 476.403290
3.200000 1.000000 7.200000 -10.033279 -9.989618 200.459167
3.200000 1.040000 6.800000 -57.910637 -9.007964 3434.785156
3.200000 1.040000 6.840000 -47.488518 -39.303444 3799.920166
3.200000 1.040000 6.880000 -18.116837 -53.835594 3226.490967
3.200000 1.040000 6.920000 11.572542 -43.441963 2021.127930
3.200000 1.040000 6.960000 22.973312 -17.243500 825.111328
3.200000 1.040000 7.000000 12.118571 5.107714 172.948517
3.200000 1.040000 7.040000 -8.503687 9.472662 162.044006
3.200000 1.040000 7.080000 -21.622398 -2.680891 474.715271
3.200000 1.040000 7.120000 -19.190012 -17.978901 691.497437
3.200000 1.040000 7.160000 -6.744344 -23.755919 609.829834
3.200000 1.040000 7.200000 3.875366 -17.638618 326.139313
3.200000 1.080000 6.800000 -33.302334 -37.294662 2499.937256
3.200000 1.080000 6.840000 -13.692707 -51.931995 2884.422363
3.200000 1.080000 6.880000 11.629114 -49.041542 2540.309082
3.200000 1.080000 6.920000 27.022741 -29.869223 1622.399048
3.200000 1.080000 6.960000 23.756809 -7.938065 627.398865
3.200000 1.080000 7.000000 7.358150 1.697006 57.022209
3.200000 1.080000 7.040000 -7.202540 -5.304021 80.009216
3.200000 1.080000 7.080000 -8.270216 -19.724108 457.436890
3.200000 1.080000 7.120000 3.263998 -27.619072 773.466797
3.200000 1.080000 7.160000 16.172304 -22.412888 763.880981
3.200000 1.080000 7.200000 19.668592 -9.382420 474.883301
3.200000 1.120000 6.800000 -1.139164 -34.368279 1182.476318
3.200000 1.120000 6.840000 12.907287 -35.734138 1443.526733
3.200000 1.120000 6.880000 25.290071 -26.479576 1340.755615
3.200000 1.120000 6.920000 27.451061 -11.431858 884.248169
3.200000 1.120000 6.960000 18.433228 -1.226756 341.288818
3.200000 1.120000 7.000000 6.968246 -2.984473 57.463528
3.200000 1.120000 7.040000 4.154009 -13.191805 191.279495
3.200000 1.120000 7.080000 13.041240 -20.407013 586.520081
3.200000 1.120000 7.120000 25.463066 -15.905980 901.367920
3.200000 1.120000 7.160000 29.706976 -2.070476 886.791260
3.200000 1.120000 7.200000 21.716999 9.990845 571.445007
3.200000 1.160000 6.800000 10.184967 -10.388611 211.656784
3.200000 1.160000 6.840000 13.857117 -10.733174 307.220703
3.200000 1.160000 6.880000 17.291380 -6.801403 345.250916
3.200000 1.160000 6.920000 16.006477 -1.417318 258.216095
3.200000 1.160000 6.960000 11.146739 -0.467530 124.468376
3.200000 1.160000 7.000000 9.462662 -5.382187 118.509911
3.200000 1.160000 7.040000 15.776735 -9.789398 344.737701
3.200000 1.160000 7.080000 26.072727 -5.433544 709.310486
3.200000 1.160000 7.120000 30.002913 8.174809 967.002258
3.200000 1.160000 7.160000 21.443649 21.405331 918.018311
3.200000 1.160000 7.200000 5.990884 23.395809 583.254578
3.200000 1.200000 6.800000 -4.900544 6.151318 61.854042
3.200000 1.200000 6.840000 -3.700960 -1.829212 17.043119
3.200000 1.200000 6.880000 1.229597 -4.872707 25.255186
3.200000 1.200000 6.920000 4.589838 -4.448674 40.857315
3.200000 1.200000 6.960000 6.672682 -4.783676 67.408241
3.200000 1.200000 7.000000 11.570712 -5.476662 163.875198
3.200000 1.200000 7.040000 19.382034 -1.024513 376.712860
3.200000 1.200000 7.080000 23.012716 11.315721 657.630615
3.200000 1.200000 7.120000 15.219062 24.992325 856.236084
3.200000 1.200000 7.160000 -1.418149 28.593950 819.625183
3.200000 1.200000 7.200000 -14.227797 18.141335 531.538208
