#kx 	ky 	kz 	real 	imag 	intensity
2.800000 6.800000 0.800000 6.051495 -27.619839 799.476074
2.800000 6.800000 0.840000 10.782751 -16.887243 401.446716
2.800000 6.800000 0.880000 5.189506 -9.879408 124.533669
2.800000 6.800000 0.920000 -1.743239 -13.301504 179.968887
2.800000 6.800000 0.960000 0.185899 -22.655420 513.302612
2.800000 6.800000 1.000000 12.156189 -26.845703 868.464722
2.800000 6.800000 1.040000 25.284557 -19.156149 1006.266846
2.800000 6.800000 1.080000 29.367159 -3.424888 874.159851
2.800000 6.800000 1.120000 22.154728 10.313917 597.208862
2.800000 6.800000 1.160000 10.001459 15.443800 338.540131
2.800000 6.800000 1.200000 0.350286 13.439196 180.734680
2.800000 6.840000 0.800000 12.844130 -22.601568 675.802551
2.800000 6.840000 0.840000 12.995488 -14.105103 367.836609
2.800000 6.840000 0.880000 7.464528 -12.921238 222.677567
2.800000 6.840000 0.920000 6.735453 -19.588692 429.083191
2.800000 6.840000 0.960000 15.987646 -24.756451 868.486694
2.800000 6.840000 1.000000 29.095575 -19.223076 1216.079102
2.800000 6.840000 1.040000 34.716537 -3.842465 1220.002441
2.800000 6.840000 1.080000 27.774040 11.171997 896.210876
2.800000 6.840000 1.120000 14.086514 16.542507 472.084412
2.800000 6.840000 1.160000 3.649054 12.461344 168.600693
2.800000 6.840000 1.200000 0.467978 6.565167 43.320431
2.800000 6.880000 0.800000 16.779877 -18.515028 624.370544
2.800000 6.880000 0.840000 16.553703 -13.527874 457.028442
2.800000 6.880000 0.880000 15.519825 -14.761472 458.766022
2.800000 6.880000 0.920000 20.768440 -18.062696 757.589111
2.800000 6.880000 0.960000 31.083811 -14.981092 1190.636475
2.800000 6.880000 1.000000 37.743572 -2.853297 1432.718628
2.800000 6.880000 1.040000 33.949852 11.527105 1285.466553
2.800000 6.880000 1.080000 22.275822 18.762650 848.249268
2.800000 6.880000 1.120000 11.831686 16.505417 412.417572
2.800000 6.880000 1.160000 8.499124 11.128164 196.071136
2.800000 6.880000 1.200000 9.324219 9.800834 182.997406
2.800000 6.920000 0.800000 22.081417 -14.393478 694.761230
2.800000 6.920000 0.840000 23.647583 -9.802143 655.290222
2.800000 6.920000 0.880000 25.789982 -8.244890 733.101379
2.800000 6.920000 0.920000 31.077320 -5.351922 994.442871
2.800000 6.920000 0.960000 35.903530 2.687209 1296.284546
2.800000 6.920000 1.000000 34.929756 13.731370 1408.638428
2.800000 6.920000 1.040000 27.725367 21.678032 1238.633057
2.800000 6.920000 1.080000 19.529661 23.345024 926.397827
2.800000 6.920000 1.120000 15.226578 21.910387 711.913696
2.800000 6.920000 1.160000 13.734240 22.725119 705.060364
2.800000 6.920000 1.200000 9.673827 26.377474 789.354065
2.800000 6.960000 0.800000 28.052313 -5.250244 814.497314
2.800000 6.960000 0.840000 28.718182 1.740013 827.761597
2.800000 6.960000 0.880000 28.576757 6.688918 861.372681
2.800000 6.960000 0.920000 28.764467 11.620886 962.439575
2.800000 6.960000 0.960000 27.922701 17.482073 1085.300049
2.800000 6.960000 1.000000 25.120583 23.091190 1164.246704
2.800000 6.960000 1.040000 21.339258 27.411201 1206.737915
2.800000 6.960000 1.080000 17.600035 31.389814 1295.081665
2.800000 6.960000 1.120000 12.563808 36.366611 1480.379639
2.800000 6.960000 1.160000 3.551008 40.872429 1683.165039
2.800000 6.960000 1.200000 -9.409184 40.374687 1718.648071
2.800000 7.000000 0.800000 27.864532 10.247752 881.448608
2.800000 7.000000 0.840000 23.312952 17.406662 846.485596
2.800000 7.000000 0.880000 18.022125 20.335306 738.321655
2.800000 7.000000 0.920000 14.808734 20.582214 642.926147
2.800000 7.000000 0.960000 14.638024 20.991779 654.926514
2.800000 7.000000 1.000000 16.164873 24.495289 861.322266
2.800000 7.000000 1.040000 15.772473 32.388489 1297.785034
2.800000 7.000000 1.080000 9.225773 42.501076 1891.456299
2.800000 7.000000 1.120000 -5.044766 49.178429 2443.967529
2.800000 7.000000 1.160000 -23.328842 46.463211 2703.064941
2.800000 7.000000 1.200000 -37.731438 32.906296 2506.485840
2.800000 7.040000 0.800000 15.591474 25.113194 873.766541
2.800000 7.040000 0.840000 5.916688 26.169260 719.837402
2.800000 7.040000 0.880000 -0.285417 21.276428 452.767853
2.800000 7.040000 0.920000 0.543646 15.262797 233.248535
2.800000 7.040000 0.960000 7.021572 14.740149 266.574463
2.800000 7.040000 1.000000 12.325346 23.388683 698.944702
2.800000 7.040000 1.040000 8.179922 37.851593 1499.654175
2.800000 7.040000 1.080000 -8.470148 48.444218 2418.585693
2.800000 7.040000 1.120000 -31.579510 45.664291 3082.492920
2.800000 7.040000 1.160000 -49.159775 27.854183 3192.538818
2.800000 7.040000 1.200000 -51.842926 3.306521 2698.622070
2.800000 7.080000 0.800000 -5.734658 28.699169 856.528625
2.800000 7.080000 0.840000 -14.035004 19.592674 580.854248
2.800000 7.080000 0.880000 -12.847946 7.683683 224.108704
2.800000 7.080000 0.920000 -2.372010 1.808855 8.898389
2.800000 7.080000 0.960000 9.467449 8.457175 161.156403
2.800000 7.080000 1.000000 11.147184 25.363239 767.553589
2.800000 7.080000 1.040000 -3.531746 40.826103 1679.244019
2.800000 7.080000 1.080000 -28.851830 41.452820 2550.764404
2.800000 7.080000 1.120000 -49.840660 22.969053 3011.668701
2.800000 7.080000 1.160000 -53.299767 -5.412455 2870.159912
2.800000 7.080000 1.200000 -38.045792 -27.689739 2214.204102
2.800000 7.120000 0.800000 -24.430073 16.793447 878.848267
2.800000 7.120000 0.840000 -23.289766 0.752594 542.979614
2.800000 7.120000 0.880000 -10.272907 -9.978932 205.111725
2.800000 7.120000 0.920000 7.211561 -6.720059 97.165802
2.800000 7.120000 0.960000 16.060242 10.547550 369.182190
2.800000 7.120000 1.000000 6.862203 30.486452 976.513611
2.800000 7.120000 1.040000 -17.221531 37.203259 1680.663574
2.800000 7.120000 1.080000 -40.784367 22.701033 2178.701416
2.800000 7.120000 1.120000 -47.322517 -5.672331 2271.595947
2.800000 7.120000 1.160000 -32.284882 -30.236523 1956.560913
2.800000 7.120000 1.200000 -6.491666 -36.801773 1396.512207
2.800000 7.160000 0.800000 -29.675449 -3.280697 891.395325
2.800000 7.160000 0.840000 -16.584566 -17.446709 579.435425
2.800000 7.160000 0.880000 4.007923 -18.109913 344.032379
2.800000 7.160000 0.920000 19.061569 -2.565457 369.924988
2.800000 7.160000 0.960000 16.819147 20.025438 683.901855
2.800000 7.160000 1.000000 -3.130192 33.349358 1121.977783
2.800000 7.160000 1.040000 -27.491632 26.138371 1439.004272
2.800000 7.160000 1.080000 -38.432381 1.976662 1480.955078
2.800000 7.160000 1.120000 -27.644917 -22.609959 1275.451660
2.800000 7.160000 1.160000 -3.020655 -31.076550 974.876282
2.800000 7.160000 1.200000 18.169788 -19.726576 719.278992
2.800000 7.200000 0.800000 -21.138184 -18.547766 790.842407
2.800000 7.200000 0.840000 -1.359176 -23.579514 557.840820
2.800000 7.200000 0.880000 17.181452 -12.238095 444.973267
2.800000 7.200000 0.920000 21.565300 9.789165 560.889893
2.800000 7.200000 0.960000 7.669374 27.775631 830.304932
2.800000 7.200000 1.000000 -15.059282 28.553274 1042.071533
2.800000 7.200000 1.040000 -29.831528 11.396708 1019.804993
2.800000 7.200000 1.080000 -25.654446 -10.648687 771.545105
2.800000 7.200000 1.120000 -6.221249 -21.032501 481.070068
2.800000 7.200000 1.160000 13.468384 -12.897924 347.753845
2.800000 7.200000 1.200000 19.613255 6.311189 424.510864
2.840000 6.800000 0.800000 24.746284 -8.282495 680.978333
2.840000 6.800000 0.840000 17.318888 0.166599 299.971619
2.840000 6.800000 0.880000 7.966532 -1.792827 66.679855
2.840000 6.800000 0.920000 6.467683 -10.539232 152.906342
2.840000 6.800000 0.960000 14.728291 -15.975620 472.143005
2.840000 6.800000 1.000000 25.352518 -11.414571 773.042603
2.840000 6.800000 1.040000 29.253580 0.536381 856.059692
2.840000 6.800000 1.080000 24.028324 11.611926 712.197144
2.840000 6.800000 1.120000 14.596029 16.299677 478.723541
2.840000 6.800000 1.160000 6.653471 15.771864 293.020386
2.840000 6.800000 1.200000 1.021880 13.971139 196.236954
2.840000 6.840000 0.800000 20.105909 1.461458 406.383453
2.840000 6.840000 0.840000 16.272837 2.248017 269.858795
2.840000 6.840000 0.880000 16.495987 0.031794 272.118591
2.840000 6.840000 0.920000 21.037441 0.963333 443.501953
2.840000 6.840000 0.960000 24.133904 7.923450 645.226379
2.840000 6.840000 1.000000 20.406534 16.774643 697.815308
2.840000 6.840000 1.040000 11.096136 20.558842 545.790222
2.840000 6.840000 1.080000 2.986945 17.093128 301.096863
2.840000 6.840000 1.120000 1.003906 11.312088 128.971161
2.840000 6.840000 1.160000 2.823916 9.502515 98.272293
2.840000 6.840000 1.200000 1.874383 11.848352 143.896759
2.840000 6.880000 0.800000 13.972116 2.892649 203.587433
2.840000 6.880000 0.840000 18.913246 4.148809 374.923492
2.840000 6.880000 0.880000 23.816938 11.675674 703.567993
2.840000 6.880000 0.920000 21.521000 23.924887 1035.553711
2.840000 6.880000 0.960000 9.233065 32.410187 1135.669678
2.840000 6.880000 1.000000 -6.448958 29.173244 892.667236
2.840000 6.880000 1.040000 -14.156969 15.562100 442.598755
2.840000 6.880000 1.080000 -8.544106 2.544119 79.474281
2.840000 6.880000 1.120000 3.750443 0.857075 14.800396
2.840000 6.880000 1.160000 9.904595 10.427594 206.835724
2.840000 6.880000 1.200000 3.430732 20.102533 415.881775
2.840000 6.920000 0.800000 13.758747 1.326908 191.063797
2.840000 6.920000 0.840000 22.086906 11.989840 631.587646
2.840000 6.920000 0.880000 19.231983 29.696407 1251.745728
2.840000 6.920000 0.920000 1.306794 41.581657 1730.741943
2.840000 6.920000 0.960000 -21.717567 35.563705 1736.429810
2.840000 6.920000 1.000000 -32.388618 13.297102 1225.835449
2.840000 6.920000 1.040000 -21.558468 -8.626362 539.181641
2.840000 6.920000 1.080000 1.750855 -12.492297 159.122986
2.840000 6.920000 1.120000 17.352140 4.120564 318.075806
2.840000 6.920000 1.160000 12.075422 25.665192 804.517944
2.840000 6.920000 1.200000 -8.267891 32.931213 1152.822876
2.840000 6.960000 0.800000 17.108896 5.311224 320.923431
2.840000 6.960000 0.840000 17.334934 24.747301 912.928833
2.840000 6.960000 0.880000 -0.671890 40.842598 1668.569214
2.840000 6.960000 0.920000 -28.272545 37.189236 2182.375977
2.840000 6.960000 0.960000 -44.322182 11.562542 2098.148193
2.840000 6.960000 1.000000 -33.639694 -18.052740 1457.530518
2.840000 6.960000 1.040000 -2.999801 -27.292040 753.854248
2.840000 6.960000 1.080000 22.545757 -7.648365 566.808655
2.840000 6.960000 1.120000 21.454605 24.603331 1065.623901
2.840000 6.960000 1.160000 -4.828049 42.574997 1835.940430
2.840000 6.960000 1.200000 -33.702324 32.883335 2217.160400
2.840000 7.000000 0.800000 14.632381 15.623636 458.204590
2.840000 7.000000 0.840000 0.992884 32.521091 1058.607178
2.840000 7.000000 0.880000 -25.489895 33.204292 1752.259766
2.840000 7.000000 0.920000 -45.368752 10.354301 2165.535400
2.840000 7.000000 0.960000 -39.228462 -22.079935 2026.395752
2.840000 7.000000 1.000000 -7.857692 -37.517742 1469.324219
2.840000 7.000000 1.040000 24.523066 -20.510607 1022.065735
2.840000 7.000000 1.080000 30.121237 17.073002 1198.776245
2.840000 7.000000 1.120000 2.866003 44.843391 2019.143799
2.840000 7.000000 1.160000 -35.565140 40.645485 2916.934570
2.840000 7.000000 1.200000 -55.457485 9.831354 3172.188232
2.840000 7.040000 0.800000 1.276857 22.927668 527.308289
2.840000 7.040000 0.840000 -19.176649 25.478909 1016.918701
2.840000 7.040000 0.880000 -37.879517 8.480956 1506.784424
2.840000 7.040000 0.920000 -36.388466 -20.647593 1750.443604
2.840000 7.040000 0.960000 -9.885721 -39.164074 1631.552246
2.840000 7.040000 1.000000 23.432917 -28.141132 1341.024902
2.840000 7.040000 1.040000 35.209465 7.721522 1299.328369
2.840000 7.040000 1.080000 12.405256 40.760826 1815.335327
2.840000 7.040000 1.120000 -29.179462 43.555641 2748.534912
2.840000 7.040000 1.160000 -57.805466 13.418199 3521.520020
2.840000 7.040000 1.200000 -53.669373 -25.620911 3536.832764
2.840000 7.080000 0.800000 -16.283346 17.273979 563.537720
2.840000 7.080000 0.840000 -29.135532 4.753044 871.470703
2.840000 7.080000 0.880000 -28.525402 -17.478994 1119.213867
2.840000 7.080000 0.920000 -8.290165 -33.916931 1219.085083
2.840000 7.080000 0.960000 20.552740 -27.781584 1194.231567
2.840000 7.080000 1.000000 34.824043 1.670341 1215.504028
2.840000 7.080000 1.040000 18.914391 33.849045 1503.511963
2.840000 7.080000 1.080000 -18.858635 42.142242 2131.616699
2.840000 7.080000 1.120000 -50.793388 17.430492 2883.790283
2.840000 7.080000 1.160000 -53.030716 -22.794521 3331.847168
2.840000 7.080000 1.200000 -26.018656 -49.459515 3123.214111
2.840000 7.120000 0.800000 -24.956333 -0.590599 623.167358
2.840000 7.120000 0.840000 -21.340322 -16.623629 731.754395
2.840000 7.120000 0.880000 -4.859952 -27.597595 785.246399
2.840000 7.120000 0.920000 17.571539 -22.534950 816.582947
2.840000 7.120000 0.960000 30.058731 0.275017 903.602966
2.840000 7.120000 1.000000 19.604158 27.260954 1127.482666
2.840000 7.120000 1.040000 -10.491476 37.439041 1511.752808
2.840000 7.120000 1.080000 -39.808167 19.900150 1980.706055
2.840000 7.120000 1.120000 -46.212547 -15.068236 2362.651367
2.840000 7.120000 1.160000 -24.614885 -43.075802 2461.417236
2.840000 7.120000 1.200000 8.582844 -45.771767 2168.719971
2.840000 7.160000 0.800000 -18.140551 -18.598431 674.981201
2.840000 7.160000 0.840000 -2.338725 -24.727013 616.894775
2.840000 7.160000 0.880000 15.329346 -18.040928 560.463928
2.840000 7.160000 0.920000 24.167664 0.737130 584.619324
2.840000 7.160000 0.960000 16.116993 21.805017 735.216309
2.840000 7.160000 1.000000 -6.534923 30.736374 987.429871
2.840000 7.160000 1.040000 -29.845921 19.041500 1253.357666
2.840000 7.160000 1.080000 -37.113632 -7.487495 1433.484375
2.840000 7.160000 1.120000 -22.041733 -31.383402 1470.755859
2.840000 7.160000 1.160000 5.438532 -36.535892 1364.449097
2.840000 7.160000 1.200000 26.715887 -20.853588 1148.610840
2.840000 7.200000 0.800000 -2.571018 -24.684420 615.930664
2.840000 7.200000 0.840000 12.965717 -17.210684 464.317474
2.840000 7.200000 0.880000 19.425335 -0.555192 377.651855
2.840000 7.200000 0.920000 12.285373 16.279301 415.946014
2.840000 7.200000 0.960000 -5.039581 23.110500 559.492615
2.840000 7.200000 1.000000 -22.232973 15.068082 721.352173
2.840000 7.200000 1.040000 -28.137087 -3.388941 803.180603
2.840000 7.200000 1.080000 -18.426188 -20.549307 761.798401
2.840000 7.200000 1.120000 0.843092 -25.205563 636.031189
2.840000 7.200000 1.160000 17.233818 -14.588946 509.841858
2.840000 7.200000 1.200000 20.762417 3.805851 445.562439
2.880000 6.800000 0.800000 21.563488 22.932516 990.884277
2.880000 6.800000 0.840000 7.040879 19.111187 414.811432
2.880000 6.800000 0.880000 2.440082 7.077768 56.048801
2.880000 6.800000 0.920000 9.390179 -1.403196 90.144417
2.880000 6.800000 0.960000 19.144672 0.787462 367.138580
2.880000 6.800000 1.000000 21.998491 9.957731 583.090027
2.880000 6.800000 1.040000 16.768122 16.920906 567.486938
2.880000 6.800000 1.080000 10.212646 17.323666 404.407532
2.880000 6.800000 1.120000 7.893999 15.258644 295.141449
2.880000 6.800000 1.160000 7.553050 16.534115 330.425507
2.880000 6.800000 1.200000 2.839743 20.132816 413.394440
2.880000 6.840000 0.800000 3.067939 24.549435 612.086975
2.880000 6.840000 0.840000 4.149316 17.438694 321.324890
2.880000 6.840000 0.880000 10.513798 19.290197 482.651672
2.880000 6.840000 0.920000 9.866444 29.985712 996.489624
2.880000 6.840000 0.960000 -3.438736 37.616165 1426.800781
2.880000 6.840000 1.000000 -20.737890 30.836823 1380.969727
2.880000 6.840000 1.040000 -26.826511 11.990864 863.442566
2.880000 6.840000 1.080000 -15.898991 -3.701118 266.476196
2.880000 6.840000 1.120000 1.368885 -3.107689 11.531576
2.880000 6.840000 1.160000 7.908072 10.978973 183.075455
2.880000 6.840000 1.200000 -2.290394 22.139784 495.415955
2.880000 6.880000 0.800000 -7.381981 12.923296 221.505219
2.880000 6.880000 0.840000 5.166110 19.322121 400.033051
2.880000 6.880000 0.880000 3.291058 40.280266 1633.330811
2.880000 6.880000 0.920000 -22.230993 54.471687 3461.381836
2.880000 6.880000 0.960000 -55.855865 41.003578 4801.170898
2.880000 6.880000 1.000000 -69.074188 2.427601 4777.136719
2.880000 6.880000 1.040000 -47.724178 -34.057636 3437.519775
2.880000 6.880000 1.080000 -7.447948 -40.653713 1708.196289
2.880000 6.880000 1.120000 19.592813 -15.214832 615.369446
2.880000 6.880000 1.160000 14.480712 16.781425 491.307251
2.880000 6.880000 1.200000 -11.642237 26.846659 856.284790
2.880000 6.920000 0.800000 -4.086035 1.530543 19.038244
2.880000 6.920000 0.840000 1.926512 26.858200 725.074341
2.880000 6.920000 0.880000 -24.265331 51.585575 3249.877930
2.880000 6.920000 0.920000 -69.994781 43.291862 6773.455078
2.880000 6.920000 0.960000 -96.881264 -4.939819 9410.380859
2.880000 6.920000 1.000000 -75.861328 -61.980198 9596.486328
2.880000 6.920000 1.040000 -17.357718 -83.876472 7336.553223
2.880000 6.920000 1.080000 35.154625 -54.241364 4177.973145
2.880000 6.920000 1.120000 43.876354 0.090755 1925.142578
2.880000 6.920000 1.160000 10.218178 34.172241 1272.153198
2.880000 6.920000 1.200000 -29.348679 26.083363 1541.686768
2.880000 6.960000 0.800000 4.250076 1.028960 19.121908
2.880000 6.960000 0.840000 -11.386856 31.904873 1147.581421
2.880000 6.960000 0.880000 -57.323288 36.488232 4617.350098
2.880000 6.960000 0.920000 -96.586639 -6.000671 9364.986328
2.880000 6.960000 0.960000 -87.344864 -72.941391 12949.572266
2.880000 6.960000 1.000000 -25.129501 -112.672478 13326.579102
2.880000 6.960000 1.040000 47.403671 -90.696213 10472.911133
2.880000 6.960000 1.080000 76.363205 -23.180531 6368.675781
2.880000 6.960000 1.120000 44.834187 36.530228 3344.561768
2.880000 6.960000 1.160000 -13.543338 46.140545 2312.372070
2.880000 6.960000 1.200000 -48.188179 10.346409 2429.148682
2.880000 7.000000 0.800000 4.973193 8.397737 95.254631
2.880000 7.000000 0.840000 -29.124411 23.826931 1415.953979
2.880000 7.000000 0.880000 -71.012604 -2.033417 5046.924805
2.880000 7.000000 0.920000 -77.185944 -62.719658 9891.425781
2.880000 7.000000 0.960000 -27.296402 -113.023811 13519.475586
2.880000 7.000000 1.000000 49.823753 -106.989601 13929.180664
2.880000 7.000000 1.040000 96.657036 -42.445984 11144.244141
2.880000 7.000000 1.080000 77.814606 33.163807 7154.951172
2.880000 7.000000 1.120000 12.273043 63.974117 4243.315430
2.880000 7.000000 1.160000 -44.951576 34.815311 3232.750000
2.880000 7.000000 1.200000 -53.423523 -19.068262 3217.671387
2.880000 7.040000 0.800000 -4.357353 11.252632 145.608246
2.880000 7.040000 0.840000 -37.236641 2.017476 1390.637573
2.880000 7.040000 0.880000 -52.344177 -40.402008 4372.235352
2.880000 7.040000 0.920000 -22.563923 -87.617081 8185.883789
2.880000 7.040000 0.960000 41.864452 -96.028320 10974.070312
2.880000 7.040000 1.000000 94.676765 -48.107574 11278.028320
2.880000 7.040000 1.040000 92.357224 26.014759 9206.624023
2.880000 7.040000 1.080000 34.794434 71.498611 6322.704102
2.880000 7.040000 1.120000 -32.889923 56.823093 4310.611328
2.880000 7.040000 1.160000 -60.508446 0.789513 3661.895264
2.880000 7.040000 1.200000 -36.362720 -47.357933 3565.021484
2.880000 7.080000 0.800000 -13.497909 2.199070 187.029449
2.880000 7.080000 0.840000 -26.657574 -20.693047 1138.828369
2.880000 7.080000 0.880000 -13.095068 -53.453201 3028.725342
2.880000 7.080000 0.920000 29.358036 -66.496880 5283.729492
2.880000 7.080000 0.960000 73.393661 -38.523357 6870.678711
2.880000 7.080000 1.000000 81.823952 18.749844 7046.715820
2.880000 7.080000 1.040000 41.845413 64.914886 5964.980957
2.880000 7.080000 1.080000 -19.669998 64.441223 4539.580078
2.880000 7.080000 1.120000 -57.440338 18.709946 3649.454346
2.880000 7.080000 1.160000 -46.949928 -35.002880 3429.497314
2.880000 7.080000 1.200000 -4.196535 -57.261322 3296.469727
2.880000 7.120000 0.800000 -11.110249 -12.652248 283.517029
2.880000 7.120000 0.840000 -3.372696 -28.656403 832.564453
2.880000 7.120000 0.880000 19.656933 -35.952950 1679.009644
2.880000 7.120000 0.920000 46.290123 -21.003309 2583.914307
2.880000 7.120000 0.960000 54.689919 14.296692 3195.382812
2.880000 7.120000 1.000000 31.591259 48.053726 3307.168213
2.880000 7.120000 1.040000 -12.096600 53.746346 3034.997314
2.880000 7.120000 1.080000 -46.394478 23.805216 2719.135742
2.880000 7.120000 1.120000 -46.443657 -21.375713 2613.934326
2.880000 7.120000 1.160000 -14.005840 -49.546021 2650.971680
2.880000 7.120000 1.200000 24.515167 -43.789421 2518.506836
2.880000 7.160000 0.800000 2.537925 -20.215281 415.098633
2.880000 7.160000 0.840000 15.951239 -18.013124 578.914673
2.880000 7.160000 0.880000 26.775846 -6.111063 754.291077
2.880000 7.160000 0.920000 27.451042 12.820801 917.932617
2.880000 7.160000 0.960000 13.279583 29.539560 1048.932983
2.880000 7.160000 1.000000 -11.352064 31.990623 1152.269287
2.880000 7.160000 1.040000 -32.355362 14.676549 1262.270630
2.880000 7.160000 1.080000 -34.710091 -14.281926 1408.763794
2.880000 7.160000 1.120000 -14.860434 -36.721645 1569.311768
2.880000 7.160000 1.160000 14.799747 -37.867622 1652.989258
2.880000 7.160000 1.200000 34.906452 -18.285557 1552.822021
2.880000 7.200000 0.800000 15.770278 -14.591025 461.599670
2.880000 7.200000 0.840000 19.124907 -0.351543 365.885651
2.880000 7.200000 0.880000 12.114874 11.888170 288.098755
2.880000 7.200000 0.920000 -0.726093 16.253525 264.704285
2.880000 7.200000 0.960000 -13.129539 11.452860 303.552795
2.880000 7.200000 1.000000 -19.878864 -0.244372 395.228973
2.880000 7.200000 1.040000 -17.780693 -14.300687 520.662720
2.880000 7.200000 1.080000 -6.567609 -24.658609 651.180481
2.880000 7.200000 1.120000 9.796112 -25.585833 750.598633
2.880000 7.200000 1.160000 23.547567 -15.170210 784.623169
2.880000 7.200000 1.200000 27.047171 2.020491 735.631836
2.920000 6.800000 0.800000 -6.904671 44.168449 1998.526367
2.920000 6.800000 0.840000 -17.381920 25.438618 949.254395
2.920000 6.800000 0.880000 -10.918329 8.951689 199.342651
2.920000 6.800000 0.920000 2.248081 6.107801 42.359108
2.920000 6.800000 0.960000 8.240467 13.986038 263.514557
2.920000 6.800000 1.000000 3.671579 20.216690 422.195068
2.920000 6.800000 1.040000 -2.441051 17.483147 311.619171
2.920000 6.800000 1.080000 -0.690952 11.303743 128.252029
2.920000 6.800000 1.120000 6.764038 12.396578 199.427353
2.920000 6.800000 1.160000 8.404005 22.531052 578.275574
2.920000 6.800000 1.200000 -2.495778 30.706270 949.103943
2.920000 6.840000 0.800000 -29.496502 26.814943 1589.084839
2.920000 6.840000 0.840000 -18.943901 18.827284 713.338013
2.920000 6.840000 0.880000 -13.077644 28.126568 962.128601
2.920000 6.840000 0.920000 -26.223663 39.212200 2225.277344
2.920000 6.840000 0.960000 -50.214378 31.084808 3487.749268
2.920000 6.840000 1.000000 -60.726196 1.117249 3688.919189
2.920000 6.840000 1.040000 -42.449108 -29.061537 2646.499756
2.920000 6.840000 1.080000 -6.962479 -33.707600 1184.678345
2.920000 6.840000 1.120000 16.570091 -9.250380 360.137451
2.920000 6.840000 1.160000 9.631563 20.902760 529.692383
2.920000 6.840000 1.200000 -17.312037 28.925861 1136.412109
2.920000 6.880000 0.800000 -31.162613 0.455116 971.315613
2.920000 6.880000 0.840000 -18.940733 18.547569 702.763672
2.920000 6.880000 0.880000 -39.636337 42.188004 3350.866699
2.920000 6.880000 0.920000 -83.888351 34.227161 8208.753906
2.920000 6.880000 0.960000 -110.771606 -16.497639 12542.520508
2.920000 6.880000 1.000000 -86.725494 -77.991806 13604.033203
2.920000 6.880000 1.040000 -21.398018 -101.716576 10804.136719
2.920000 6.880000 1.080000 37.606461 -68.543358 6112.437500
2.920000 6.880000 1.120000 47.916573 -7.897335 2358.365967
2.920000 6.880000 1.160000 11.078135 29.860573 1014.378906
2.920000 6.880000 1.200000 -31.571785 20.351917 1410.978149
2.920000 6.920000 0.800000 -14.952832 -15.210249 454.938843
2.920000 6.920000 0.840000 -26.025242 20.060909 1079.753296
2.920000 6.920000 0.880000 -77.784164 27.043554 6781.730469
2.920000 6.920000 0.920000 -124.856628 -24.567932 16192.760742
2.920000 6.920000 0.960000 -112.439423 -108.888702 24499.373047
2.920000 6.920000 1.000000 -32.327805 -160.552109 26822.066406
2.920000 6.920000 1.040000 62.649208 -134.277649 21955.410156
2.920000 6.920000 1.080000 103.851166 -49.021393 13188.161133
2.920000 6.920000 1.120000 68.835693 28.321346 5540.451172
2.920000 6.920000 1.160000 -0.778770 44.264221 1959.927734
2.920000 6.920000 1.200000 -41.920261 4.533118 1777.857544
2.920000 6.960000 0.800000 2.220718 -12.950221 172.639816
2.920000 6.960000 0.840000 -38.564022 12.336964 1639.384521
2.920000 6.960000 0.880000 -96.154373 -19.868462 9640.418945
2.920000 6.960000 0.920000 -106.346527 -104.873184 22307.968750
2.920000 6.960000 0.960000 -35.899185 -179.208771 33404.535156
2.920000 6.960000 1.000000 77.244629 -175.088425 36622.691406
2.920000 6.960000 1.040000 151.653046 -85.752243 30352.093750
2.920000 6.960000 1.080000 134.817200 24.260860 18764.267578
2.920000 6.960000 1.120000 50.040924 76.385918 8338.902344
2.920000 6.960000 1.160000 -28.076454 47.291851 3024.806641
2.920000 6.960000 1.200000 -43.792503 -16.834728 2201.191406
2.920000 7.000000 0.800000 7.179251 -2.606586 58.335934
2.920000 7.000000 0.840000 -43.748146 -8.242043 1981.831543
2.920000 7.000000 0.880000 -72.756256 -71.348625 10384.099609
2.920000 7.000000 0.920000 -30.395363 -149.469940 23265.142578
2.920000 7.000000 0.960000 72.917404 -170.556458 34406.453125
2.920000 7.000000 1.000000 165.746155 -100.744278 37621.195312
2.920000 7.000000 1.040000 176.241257 18.030632 31386.083984
2.920000 7.000000 1.080000 97.844185 101.338516 19842.980469
2.920000 7.000000 1.120000 -4.760721 96.603439 9354.888672
2.920000 7.000000 1.160000 -55.543865 26.631248 3794.344238
2.920000 7.000000 1.200000 -33.531479 -38.348457 2594.964355
2.920000 7.040000 0.800000 2.262559 1.574755 7.599028
2.920000 7.040000 0.840000 -30.608940 -30.535496 1869.323730
2.920000 7.040000 0.880000 -17.764336 -91.412506 8671.817383
2.920000 7.040000 0.920000 53.842323 -125.775978 18718.591797
2.920000 7.040000 0.960000 139.962021 -87.448792 27236.658203
2.920000 7.040000 1.000000 171.707245 11.734646 29621.080078
2.920000 7.040000 1.040000 117.843109 104.763794 24862.449219
2.920000 7.040000 1.080000 16.074244 126.117081 16163.898438
2.920000 7.040000 1.120000 -59.174850 69.122894 8279.637695
2.920000 7.040000 1.160000 -62.264767 -11.344083 4005.589355
2.920000 7.040000 1.200000 -11.882814 -51.970589 2842.143311
2.920000 7.080000 0.800000 -0.221744 -3.713807 13.841534
2.920000 7.080000 0.840000 -3.369587 -37.407303 1410.660400
2.920000 7.080000 0.880000 32.682835 -67.014801 5559.151367
2.920000 7.080000 0.920000 91.601562 -54.526871 11364.026367
2.920000 7.080000 0.960000 126.738487 8.551682 16135.775391
2.920000 7.080000 1.000000 100.953926 84.996292 17416.064453
2.920000 7.080000 1.040000 23.801071 119.268204 14791.395508
2.920000 7.080000 1.080000 -52.261665 85.913681 10112.442383
2.920000 7.080000 1.120000 -76.006378 12.680185 5937.756836
2.920000 7.080000 1.160000 -40.711723 -44.632431 3649.498535
2.920000 7.080000 1.200000 14.398783 -51.335182 2842.625977
2.920000 7.120000 0.800000 6.728511 -9.172462 129.406906
2.920000 7.120000 0.840000 20.006044 -22.630878 912.398499
2.920000 7.120000 0.880000 47.320477 -19.725050 2628.305176
2.920000 7.120000 0.920000 68.640358 10.059818 4812.698242
2.920000 7.120000 0.960000 59.811028 54.268692 6522.450195
2.920000 7.120000 1.000000 16.128456 81.966713 6978.668945
2.920000 7.120000 1.040000 -37.981697 68.580139 6145.844727
2.920000 7.120000 1.080000 -65.965134 19.240940 4721.612793
2.920000 7.120000 1.120000 -49.539894 -32.907001 3537.071777
2.920000 7.120000 1.160000 -4.173813 -53.835606 2915.693115
2.920000 7.120000 1.200000 35.320282 -36.335560 2567.795410
2.920000 7.160000 0.800000 17.260931 -5.328195 326.329376
2.920000 7.160000 0.840000 23.983242 1.847448 578.609009
2.920000 7.160000 0.880000 25.922831 14.235214 874.634521
2.920000 7.160000 0.920000 18.643520 28.606709 1165.924561
2.920000 7.160000 0.960000 0.315941 37.140457 1379.513428
2.920000 7.160000 1.000000 -23.184410 30.701195 1480.080200
2.920000 7.160000 1.040000 -38.397926 7.140488 1525.387329
2.920000 7.160000 1.080000 -33.027512 -23.185484 1628.383179
2.920000 7.160000 1.120000 -7.041208 -42.294334 1838.389282
2.920000 7.160000 1.160000 24.829817 -37.932411 2055.387695
2.920000 7.160000 1.200000 43.462921 -13.844841 2080.705078
2.920000 7.200000 0.800000 20.511759 5.991626 456.631805
2.920000 7.200000 0.840000 10.179432 16.651966 380.908813
2.920000 7.200000 0.880000 -3.842199 16.028103 271.662567
2.920000 7.200000 0.920000 -12.341896 6.780607 198.299042
2.920000 7.200000 0.960000 -13.012604 -3.813142 183.867905
2.920000 7.200000 1.000000 -9.261906 -11.778526 224.516586
2.920000 7.200000 1.040000 -3.564220 -18.002731 336.802002
2.920000 7.200000 1.080000 5.589675 -23.027199 561.496338
2.920000 7.200000 1.120000 19.433830 -22.947147 904.245361
2.920000 7.200000 1.160000 33.371147 -12.715485 1275.317017
2.920000 7.200000 1.200000 38.283146 6.538811 1508.355347
2.960000 6.800000 0.800000 -44.863304 38.362469 3484.395020
2.960000 6.800000 0.840000 -41.984066 11.059149 1884.966553
2.960000 6.800000 0.880000 -24.118668 -1.954189 585.528992
2.960000 6.800000 0.920000 -9.235409 2.477661 91.431580
2.960000 6.800000 0.960000 -7.791431 11.501129 192.982376
2.960000 6.800000 1.000000 -13.362759 11.699287 315.436646
2.960000 6.800000 1.040000 -12.222366 4.113701 166.308777
2.960000 6.800000 1.080000 -0.859932 2.017373 4.809277
2.960000 6.800000 1.120000 8.722431 13.900223 269.296997
2.960000 6.800000 1.160000 2.599825 31.349617 989.557556
2.960000 6.800000 1.200000 -17.715460 36.452812 1642.645020
2.960000 6.840000 0.800000 -55.994331 2.746704 3142.909668
2.960000 6.840000 0.840000 -39.047157 0.717878 1525.195923
2.960000 6.840000 0.880000 -39.433739 12.825026 1719.501099
2.960000 6.840000 0.920000 -59.842903 12.394722 3734.802246
2.960000 6.840000 0.960000 -75.760445 -15.380791 5976.213867
2.960000 6.840000 1.000000 -60.584217 -54.006779 6587.179688
2.960000 6.840000 1.040000 -15.910873 -69.315201 5057.752930
2.960000 6.840000 1.080000 25.884762 -44.004578 2606.423828
2.960000 6.840000 1.120000 31.621733 2.661114 1007.015503
2.960000 6.840000 1.160000 0.009577 31.715946 1005.901367
2.960000 6.840000 1.200000 -36.810722 21.738564 1827.594482
2.960000 6.880000 0.800000 -38.732483 -28.495600 2312.204346
2.960000 6.880000 0.840000 -37.310692 -3.071754 1401.523438
2.960000 6.880000 0.880000 -73.477951 5.073772 5424.752441
2.960000 6.880000 0.920000 -110.774719 -35.646477 13541.708984
2.960000 6.880000 0.960000 -99.111786 -106.877167 21245.875000
2.960000 6.880000 1.000000 -27.630249 -151.259552 23642.882812
2.960000 6.880000 1.040000 58.018787 -126.198471 19292.234375
2.960000 6.880000 1.080000 94.912231 -47.191170 11235.338867
2.960000 6.880000 1.120000 61.193607 24.395958 4339.820312
2.960000 6.880000 1.160000 -4.727089 38.004791 1466.709473
2.960000 6.880000 1.200000 -42.837547 -1.320841 1836.800049
2.960000 6.920000 0.800000 -8.198261 -36.785847 1420.409912
2.960000 6.920000 0.840000 -41.083130 -9.164341 1771.808716
2.960000 6.920000 0.880000 -96.265488 -38.166744 10723.744141
2.960000 6.920000 0.920000 -105.889122 -123.356400 26429.308594
2.960000 6.920000 0.960000 -32.009338 -199.763519 40930.062500
2.960000 6.920000 1.000000 87.680435 -194.895630 45672.164062
2.960000 6.920000 1.040000 167.403320 -99.871864 37998.261719
2.960000 6.920000 1.080000 150.681030 17.663700 23016.779297
2.960000 6.920000 1.120000 61.702591 74.094849 9297.255859
2.960000 6.920000 1.160000 -20.127552 44.475197 2383.161377
2.960000 6.920000 1.200000 -35.487411 -21.563477 1724.339844
2.960000 6.960000 0.800000 13.870051 -23.889856 763.103516
2.960000 6.960000 0.840000 -42.007404 -24.754700 2377.417236
2.960000 6.960000 0.880000 -76.652885 -95.549194 15005.313477
2.960000 6.960000 0.920000 -27.315948 -187.773636 36005.097656
2.960000 6.960000 0.960000 96.655663 -213.992950 55135.300781
2.960000 6.960000 1.000000 210.458893 -131.153030 61494.062500
2.960000 6.960000 1.040000 226.954956 12.208555 51657.601562
2.960000 6.960000 1.080000 136.799835 115.390961 32029.269531
2.960000 6.960000 1.120000 16.216646 115.132454 13518.461914
2.960000 6.960000 1.160000 -44.818050 37.983627 3451.413574
2.960000 6.960000 1.200000 -21.955006 -33.403080 1597.788086
2.960000 7.000000 0.800000 18.472769 -6.383728 381.995178
2.960000 7.000000 0.840000 -28.193871 -43.445465 2682.402832
2.960000 7.000000 0.880000 -15.004549 -124.935585 15834.037109
2.960000 7.000000 0.920000 80.582161 -174.590042 36975.167969
2.960000 7.000000 0.960000 200.309448 -126.010452 56002.507812
2.960000 7.000000 1.000000 249.573944 8.018254 62351.445312
2.960000 7.000000 1.040000 183.417419 138.252930 52755.820312
2.960000 7.000000 1.080000 49.975880 175.835297 33415.640625
2.960000 7.000000 1.120000 -52.704147 109.911621 14858.291016
2.960000 7.000000 1.160000 -64.174713 11.137615 4242.440430
2.960000 7.000000 1.200000 -8.176728 -39.030514 1590.239868
2.960000 7.040000 0.800000 13.565031 2.427729 189.903931
2.960000 7.040000 0.840000 0.069958 -48.820946 2383.489746
2.960000 7.040000 0.880000 51.395775 -100.752373 12792.566406
2.960000 7.040000 0.920000 145.507721 -88.552307 29014.007812
2.960000 7.040000 0.960000 208.270432 6.386066 43417.355469
2.960000 7.040000 1.000000 177.901428 128.775421 48232.027344
2.960000 7.040000 1.040000 64.885529 192.239868 41166.300781
2.960000 7.040000 1.080000 -53.204025 154.875214 26817.000000
2.960000 7.040000 1.120000 -99.163963 54.945168 12852.462891
2.960000 7.040000 1.160000 -61.108727 -27.214403 4474.899902
2.960000 7.040000 1.200000 6.239489 -41.935974 1797.557251
2.960000 7.080000 0.800000 11.338050 3.538517 141.072479
2.960000 7.080000 0.840000 26.270794 -31.356737 1673.399536
2.960000 7.080000 0.880000 78.778824 -39.076847 7733.103027
2.960000 7.080000 0.920000 129.372070 9.072575 16819.445312
2.960000 7.080000 0.960000 126.316895 93.803970 24755.142578
2.960000 7.080000 1.000000 54.626522 156.427887 27453.740234
2.960000 7.080000 1.040000 -44.328960 147.807999 23812.261719
2.960000 7.080000 1.080000 -105.012360 72.594864 16297.609375
2.960000 7.080000 1.120000 -93.091393 -14.308010 8870.726562
2.960000 7.080000 1.160000 -31.820675 -56.043839 4153.467285
2.960000 7.080000 1.200000 24.080313 -40.291382 2203.256836
2.960000 7.120000 0.800000 14.302101 6.246471 243.568497
2.960000 7.120000 0.840000 31.783430 -0.680136 1010.648987
2.960000 7.120000 0.880000 55.092285 15.432360 3273.317627
2.960000 7.120000 0.920000 59.025776 54.442413 6448.018555
2.960000 7.120000 0.960000 26.699646 91.946724 9167.071289
2.960000 7.120000 1.000000 -30.807976 96.067535 10178.103516
2.960000 7.120000 1.040000 -78.312561 55.480255 9210.916016
2.960000 7.120000 1.080000 -83.750771 -7.685455 7073.257812
2.960000 7.120000 1.120000 -44.970879 -54.013130 4939.797852
2.960000 7.120000 1.160000 8.940786 -58.425274 3493.450439
2.960000 7.120000 1.200000 42.944012 -28.401955 2650.859131
2.960000 7.160000 0.800000 15.215307 14.529724 442.618469
2.960000 7.160000 0.840000 14.372149 21.381054 663.708130
2.960000 7.160000 0.880000 8.948383 28.978676 919.837219
2.960000 7.160000 0.920000 -2.662556 34.506519 1197.789062
2.960000 7.160000 0.960000 -19.932831 32.418159 1448.254761
2.960000 7.160000 1.000000 -36.484913 17.263710 1629.184570
2.960000 7.160000 1.040000 -41.029072 -9.661629 1776.731812
2.960000 7.160000 1.080000 -25.390406 -36.796371 1998.645630
2.960000 7.160000 1.120000 6.608860 -48.070488 2354.448730
2.960000 7.160000 1.160000 38.851429 -35.061981 2738.776123
2.960000 7.160000 1.200000 53.726616 -4.816313 2909.746094
2.960000 7.200000 0.800000 8.661795 22.319969 573.207703
2.960000 7.200000 0.840000 -8.707853 21.090826 520.649658
2.960000 7.200000 0.880000 -18.859789 6.399840 396.649597
2.960000 7.200000 0.920000 -14.872463 -9.918520 319.567200
2.960000 7.200000 0.960000 -2.931782 -17.178253 303.687714
2.960000 7.200000 1.000000 6.477123 -15.997971 297.888184
2.960000 7.200000 1.040000 10.811645 -14.665016 331.954346
2.960000 7.200000 1.080000 16.903000 -16.903025 571.423645
2.960000 7.200000 1.120000 30.211817 -15.970423 1167.808228
2.960000 7.200000 1.160000 45.043934 -2.566525 2035.542969
2.960000 7.200000 1.200000 47.977997 22.410805 2804.132324
3.000000 6.800000 0.800000 -68.705322 7.184263 4772.035156
3.000000 6.800000 0.840000 -50.573730 -18.271833 2891.562012
3.000000 6.800000 0.880000 -25.814054 -22.409742 1168.562012
3.000000 6.800000 0.920000 -12.302727 -11.913017 293.277069
3.000000 6.800000 0.960000 -12.531025 -3.504410 169.307465
3.000000 6.800000 1.000000 -13.988106 -5.138618 222.072495
3.000000 6.800000 1.040000 -6.003273 -8.251382 104.124588
3.000000 6.800000 1.080000 6.282799 0.269234 39.546047
3.000000 6.800000 1.120000 7.131323 20.211887 459.376160
3.000000 6.800000 1.160000 -10.805143 35.271057 1360.798584
3.000000 6.800000 1.200000 -35.384895 29.731071 2136.027344
3.000000 6.840000 0.800000 -58.611534 -34.271339 4609.836914
3.000000 6.840000 0.840000 -41.396084 -29.449671 2580.918945
3.000000 6.840000 0.880000 -46.099133 -21.604034 2591.864502
3.000000 6.840000 0.920000 -59.933235 -34.966103 4814.621094
3.000000 6.840000 0.960000 -53.610687 -67.669403 7453.253906
3.000000 6.840000 1.000000 -14.619202 -89.734680 8266.034180
3.000000 6.840000 1.040000 34.640053 -72.944328 6520.808105
3.000000 6.840000 1.080000 55.354206 -22.409882 3566.291016
3.000000 6.840000 1.120000 30.321926 24.358513 1512.756348
3.000000 6.840000 1.160000 -17.630001 31.959473 1332.224854
3.000000 6.840000 1.200000 -46.762844 0.743422 2187.316406
3.000000 6.880000 0.800000 -23.402178 -56.017532 3685.625732
3.000000 6.880000 0.840000 -34.313164 -35.230366 2418.571777
3.000000 6.880000 0.880000 -67.305405 -50.350777 7065.218262
3.000000 6.880000 0.920000 -72.404449 -107.416489 16780.707031
3.000000 6.880000 0.960000 -17.259262 -160.843109 26168.388672
3.000000 6.880000 1.000000 73.071960 -154.443588 29192.333984
3.000000 6.880000 1.040000 133.116745 -78.789215 23927.808594
3.000000 6.880000 1.080000 117.276772 14.425575 13961.938477
3.000000 6.880000 1.120000 43.569168 58.115753 5275.712891
3.000000 6.880000 1.160000 -23.689507 31.031391 1524.140015
3.000000 6.880000 1.200000 -34.726414 -26.308586 1898.065552
3.000000 6.920000 0.800000 13.133536 -48.230927 2498.711914
3.000000 6.920000 0.840000 -28.472782 -43.614723 2712.943359
3.000000 6.920000 0.880000 -56.733795 -100.624146 13343.942383
3.000000 6.920000 0.920000 -12.618515 -179.239349 32285.970703
3.000000 6.920000 0.960000 98.667206 -200.455139 49917.480469
3.000000 6.920000 1.000000 201.297729 -123.363983 55739.449219
3.000000 6.920000 1.040000 215.106018 8.854462 46349.000000
3.000000 6.920000 1.080000 130.900543 103.589752 27865.789062
3.000000 6.920000 1.120000 19.334356 102.150749 10808.592773
3.000000 6.920000 1.160000 -35.627190 29.733574 2153.382080
3.000000 6.920000 1.200000 -11.764310 -35.550529 1402.239014
3.000000 6.960000 0.800000 31.167582 -22.928341 1497.126953
3.000000 6.960000 0.840000 -14.795967 -54.628441 3203.187256
3.000000 6.960000 0.880000 -2.144787 -134.995148 18228.289062
3.000000 6.960000 0.920000 96.061531 -185.047440 43470.371094
3.000000 6.960000 0.960000 220.693207 -133.724411 66587.710938
3.000000 6.960000 1.000000 272.544220 7.118822 74331.031250
3.000000 6.960000 1.040000 203.853561 144.361923 62396.640625
3.000000 6.960000 1.080000 64.964706 184.883209 38402.214844
3.000000 6.960000 1.120000 -41.381001 117.861267 15603.666016
3.000000 6.960000 1.160000 -52.793777 18.044056 3112.770752
3.000000 6.960000 1.200000 4.105634 -29.721840 900.244019
3.000000 7.000000 0.800000 29.219561 0.301022 853.873352
3.000000 7.000000 0.840000 10.332603 -56.703308 3322.027832
3.000000 7.000000 0.880000 69.061394 -118.547104 18822.892578
3.000000 7.000000 0.920000 181.433853 -105.260338 43997.980469
3.000000 7.000000 0.960000 258.348328 7.791853 66804.570312
3.000000 7.000000 1.000000 224.633789 155.248627 74562.476562
3.000000 7.000000 1.040000 92.101547 233.904755 63194.128906
3.000000 7.000000 1.080000 -47.262760 194.084686 39902.636719
3.000000 7.000000 1.120000 -102.960594 81.517242 17245.945312
3.000000 7.000000 1.160000 -62.730690 -9.778992 4030.768066
3.000000 7.000000 1.200000 8.270100 -24.119127 650.126831
3.000000 7.040000 0.800000 19.469452 11.924296 521.248413
3.000000 7.040000 0.840000 35.604065 -38.841728 2776.329102
3.000000 7.040000 0.880000 108.914383 -54.009609 14779.380859
3.000000 7.040000 0.920000 183.427292 10.811108 33762.449219
3.000000 7.040000 0.960000 184.112732 130.064636 50814.312500
3.000000 7.040000 1.000000 88.382057 221.294708 56782.734375
3.000000 7.040000 1.040000 -46.851807 215.850647 48786.593750
3.000000 7.040000 1.080000 -132.159546 120.276459 31932.574219
3.000000 7.040000 1.120000 -122.494293 8.792740 15082.164062
3.000000 7.040000 1.160000 -50.522221 -44.625114 4543.895508
3.000000 7.040000 1.200000 12.309586 -27.368008 900.533752
3.000000 7.080000 0.800000 12.238067 16.129051 409.916565
3.000000 7.080000 0.840000 42.554504 -5.772379 1844.206177
3.000000 7.080000 0.880000 90.912796 16.309135 8531.125000
3.000000 7.080000 0.920000 107.226181 85.518822 18810.921875
3.000000 7.080000 0.960000 57.592480 157.070786 27988.126953
3.000000 7.080000 1.000000 -39.141361 172.879929 31419.515625
3.000000 7.080000 1.040000 -121.906311 113.238907 27684.199219
3.000000 7.080000 1.080000 -137.961914 16.050594 19291.111328
3.000000 7.080000 1.120000 -86.384659 -55.484051 10540.789062
3.000000 7.080000 1.160000 -14.278349 -65.787552 4531.873047
3.000000 7.080000 1.200000 27.991394 -30.775194 1730.630615
3.000000 7.120000 0.800000 7.438530 20.211914 463.853210
3.000000 7.120000 0.840000 24.195206 22.176247 1077.193848
3.000000 7.120000 0.880000 34.338406 46.415939 3333.565430
3.000000 7.120000 0.920000 16.930187 79.696503 6638.164062
3.000000 7.120000 0.960000 -29.437164 93.438950 9597.383789
3.000000 7.120000 1.000000 -79.981735 67.259964 10920.980469
3.000000 7.120000 1.040000 -100.815247 8.852493 10242.080078
3.000000 7.120000 1.080000 -76.206421 -49.150566 8223.196289
3.000000 7.120000 1.120000 -21.645515 -73.965096 5939.363770
3.000000 7.120000 1.160000 29.098032 -57.288151 4128.627441
3.000000 7.120000 1.200000 50.698513 -18.415087 2909.454590
3.000000 7.160000 0.800000 0.125505 24.435038 597.086792
3.000000 7.160000 0.840000 -5.581428 26.831022 751.056091
3.000000 7.160000 0.880000 -13.787346 26.487720 891.690308
3.000000 7.160000 0.920000 -23.497276 21.984200 1035.427002
3.000000 7.160000 0.960000 -32.868393 11.176815 1205.252441
3.000000 7.160000 1.000000 -36.999634 -7.373199 1423.336914
3.000000 7.160000 1.040000 -28.795128 -30.172325 1739.528564
3.000000 7.160000 1.080000 -4.861534 -46.915695 2224.717041
3.000000 7.160000 1.120000 28.293427 -45.619728 2881.677734
3.000000 7.160000 1.160000 55.229134 -22.390453 3551.589355
3.000000 7.160000 1.200000 61.363655 13.125760 3937.783691
3.000000 7.200000 0.800000 -9.517319 23.807220 657.363098
3.000000 7.200000 0.840000 -23.619484 9.979520 657.470825
3.000000 7.200000 0.880000 -21.668591 -11.831598 609.514526
3.000000 7.200000 0.920000 -4.106457 -24.952557 639.493042
3.000000 7.200000 0.960000 14.940693 -21.794548 698.226624
3.000000 7.200000 1.000000 23.226151 -10.568237 651.141663
3.000000 7.200000 1.040000 23.007927 -4.332966 548.139282
3.000000 7.200000 1.080000 26.460865 -5.051828 725.698364
3.000000 7.200000 1.120000 39.202904 -1.204561 1538.318604
3.000000 7.200000 1.160000 51.097511 17.923954 2932.223633
3.000000 7.200000 1.200000 45.567543 47.269382 4310.795410
3.040000 6.800000 0.800000 -65.079926 -30.272352 5151.811523
3.040000 6.800000 0.840000 -36.877808 -45.889091 3465.781494
3.040000 6.800000 0.880000 -11.030876 -39.848969 1709.620483
3.040000 6.800000 0.920000 -0.201763 -24.507202 600.643677
3.040000 6.800000 0.960000 -0.617668 -14.515751 211.088547
3.040000 6.800000 1.000000 0.076447 -11.889559 141.367447
3.040000 6.800000 1.040000 6.528130 -6.653252 86.882233
3.040000 6.800000 1.080000 9.723473 8.238228 162.414322
3.040000 6.800000 1.120000 -1.600964 25.443600 649.939880
3.040000 6.800000 1.160000 -25.325111 29.208212 1494.480957
3.040000 6.800000 1.200000 -44.702644 12.922841 2165.326172
3.040000 6.840000 0.800000 -36.474152 -62.649227 5255.289551
3.040000 6.840000 0.840000 -21.794086 -54.551235 3450.819336
3.040000 6.840000 0.880000 -23.467945 -51.940384 3248.547852
3.040000 6.840000 0.920000 -22.174606 -66.521088 4916.768555
3.040000 6.840000 0.960000 1.560669 -83.662781 7001.896484
3.040000 6.840000 1.000000 41.951004 -76.366119 7591.670898
3.040000 6.840000 1.040000 68.823395 -35.774788 6016.495117
3.040000 6.840000 1.080000 56.463203 14.501984 3398.400879
3.040000 6.840000 1.120000 11.341261 37.679596 1548.376221
3.040000 6.840000 1.160000 -31.170958 18.641592 1319.137573
3.040000 6.840000 1.200000 -39.324776 -21.267952 1998.763794
3.040000 6.880000 0.800000 5.644726 -66.492714 4453.143555
3.040000 6.880000 0.840000 -7.845726 -57.893913 3413.260498
3.040000 6.880000 0.880000 -20.090273 -84.609528 7562.391113
3.040000 6.880000 0.920000 8.185715 -126.899109 16170.389648
3.040000 6.880000 0.960000 77.927429 -135.424622 24412.511719
3.040000 6.880000 1.000000 142.210938 -81.533623 26871.683594
3.040000 6.880000 1.040000 147.534119 8.239479 21834.205078
3.040000 6.880000 1.080000 86.304428 71.654251 12582.785156
3.040000 6.880000 1.120000 6.661663 67.298431 4573.457031
3.040000 6.880000 1.160000 -31.625561 12.067144 1145.791992
3.040000 6.880000 1.200000 -11.371548 -37.698383 1550.480225
3.040000 6.920000 0.800000 36.553391 -43.271049 3208.534180
3.040000 6.920000 0.840000 7.313227 -59.675606 3614.661377
3.040000 6.920000 0.880000 17.997841 -114.340950 13397.774414
3.040000 6.920000 0.920000 92.762482 -148.156662 30555.273438
3.040000 6.920000 0.960000 187.960037 -104.716751 46294.574219
3.040000 6.920000 1.000000 225.926056 8.186573 51109.601562
3.040000 6.920000 1.040000 168.248276 117.155914 42032.992188
3.040000 6.920000 1.080000 55.213562 147.487122 24800.988281
3.040000 6.920000 1.120000 -29.759583 90.749817 9121.162109
3.040000 6.920000 1.160000 -35.911610 8.769432 1366.546631
3.040000 6.920000 1.200000 13.806206 -28.074255 978.775146
3.040000 6.960000 0.800000 43.723724 -11.211048 2037.451660
3.040000 6.960000 0.840000 27.451756 -55.664509 3852.136475
3.040000 6.960000 0.880000 78.888618 -107.170471 17708.923828
3.040000 6.960000 0.920000 178.945038 -92.676811 40610.316406
3.040000 6.960000 0.960000 247.228149 11.718515 61259.082031
3.040000 6.960000 1.000000 214.736694 146.954865 67707.578125
3.040000 6.960000 1.040000 92.367569 218.463196 56257.937500
3.040000 6.960000 1.080000 -34.864662 181.188812 34044.929688
3.040000 6.960000 1.120000 -83.966240 78.606667 13229.337891
3.040000 6.960000 1.160000 -45.504021 -1.780993 2073.787842
3.040000 6.960000 1.200000 18.074652 -9.872362 424.156555
3.040000 7.000000 0.800000 32.784977 12.096958 1221.191162
3.040000 7.000000 0.840000 47.398983 -37.774525 3673.578125
3.040000 7.000000 0.880000 122.703323 -52.741177 17837.736328
3.040000 7.000000 0.920000 200.576874 15.906597 40484.101562
3.040000 7.000000 0.960000 201.237747 142.164307 60707.320312
3.040000 7.000000 1.000000 100.597511 238.948639 67216.312500
3.040000 7.000000 1.040000 -40.873825 234.262970 56549.808594
3.040000 7.000000 1.080000 -129.278717 136.421021 35323.679688
3.040000 7.000000 1.120000 -119.400551 24.334663 14848.666992
3.040000 7.000000 1.160000 -48.237549 -26.054382 3005.691895
3.040000 7.000000 1.200000 9.020750 -5.573133 112.433746
3.040000 7.040000 0.800000 17.101835 21.976513 775.439941
3.040000 7.040000 0.840000 53.358994 -6.680241 2891.807861
3.040000 7.040000 0.880000 115.055511 19.685909 13625.305664
3.040000 7.040000 0.920000 137.707153 106.810669 30371.777344
3.040000 7.040000 0.960000 77.528404 198.075989 45244.750000
3.040000 7.040000 1.000000 -41.523895 220.414505 50306.789062
3.040000 7.040000 1.040000 -143.122787 150.520569 43140.574219
3.040000 7.040000 1.080000 -163.945892 36.813271 28233.472656
3.040000 7.040000 1.120000 -106.393753 -44.248890 13277.594727
3.040000 7.040000 1.160000 -29.393414 -54.053093 3785.709473
3.040000 7.040000 1.200000 9.675144 -16.877378 378.454346
3.040000 7.080000 0.800000 4.504269 23.986450 595.638245
3.040000 7.080000 0.840000 36.302437 22.658869 1831.291260
3.040000 7.080000 0.880000 60.028603 62.884743 7557.923828
3.040000 7.080000 0.920000 36.757908 122.134033 16267.865234
3.040000 7.080000 0.960000 -36.424728 150.589661 24004.007812
3.040000 7.080000 1.000000 -117.302048 114.857513 26952.019531
3.040000 7.080000 1.040000 -151.865662 29.943668 23959.802734
3.040000 7.080000 1.080000 -119.731445 -51.836998 17022.693359
3.040000 7.080000 1.120000 -49.212002 -84.610596 9580.774414
3.040000 7.080000 1.160000 10.417440 -63.957512 4199.086426
3.040000 7.080000 1.200000 30.695143 -22.472382 1447.199707
3.040000 7.120000 0.800000 -5.473145 23.359755 575.633484
3.040000 7.120000 0.840000 4.394634 31.815166 1031.517700
3.040000 7.120000 0.880000 -1.168915 52.707390 2779.435303
3.040000 7.120000 0.920000 -30.189396 66.310425 5308.471680
3.040000 7.120000 0.960000 -69.663567 52.324100 7590.824219
3.040000 7.120000 1.000000 -93.079399 8.649025 8738.580078
3.040000 7.120000 1.040000 -80.985039 -44.066586 8500.440430
3.040000 7.120000 1.080000 -36.832069 -76.906105 7271.150391
3.040000 7.120000 1.120000 15.583618 -73.851341 5696.869629
3.040000 7.120000 1.160000 50.130928 -41.782639 4258.898926
3.040000 7.120000 1.200000 55.818939 -2.304363 3121.063965
3.040000 7.160000 0.800000 -14.581136 19.976864 611.684631
3.040000 7.160000 0.840000 -21.051453 16.681316 721.429993
3.040000 7.160000 0.880000 -26.523952 8.772394 780.474976
3.040000 7.160000 0.920000 -28.258591 -2.351055 804.075439
3.040000 7.160000 0.960000 -25.347755 -14.822487 862.214844
3.040000 7.160000 1.000000 -16.884335 -27.534012 1043.202637
3.040000 7.160000 1.040000 -0.802094 -37.934864 1439.697266
3.040000 7.160000 1.080000 23.138691 -39.864506 2124.577881
3.040000 7.160000 1.120000 48.743404 -26.360174 3070.778320
3.040000 7.160000 1.160000 63.661213 3.084815 4062.266113
3.040000 7.160000 1.200000 57.236927 37.984558 4718.892578
3.040000 7.200000 0.800000 -20.564924 12.901814 589.372925
3.040000 7.200000 0.840000 -24.436054 -6.951889 645.449463
3.040000 7.200000 0.880000 -9.723902 -25.775150 758.912659
3.040000 7.200000 0.920000 15.329435 -28.037579 1021.097412
3.040000 7.200000 0.960000 33.140766 -12.987934 1266.996826
3.040000 7.200000 1.000000 34.905540 5.068359 1244.084961
3.040000 7.200000 1.040000 28.902138 12.995769 1004.223572
3.040000 7.200000 1.080000 29.413303 13.398500 1044.662231
3.040000 7.200000 1.120000 38.622723 20.771635 1923.175537
3.040000 7.200000 1.160000 42.294662 43.069580 3643.827148
3.040000 7.200000 1.200000 25.014877 69.382797 5439.716797
3.080000 6.800000 0.800000 -40.117943 -52.708138 4387.597168
3.080000 6.800000 0.840000 -9.742176 -56.170712 3250.058838
3.080000 6.800000 0.880000 12.417435 -41.563107 1881.684570
3.080000 6.800000 0.920000 18.960918 -22.003126 843.653992
3.080000 6.800000 0.960000 15.599388 -8.577847 316.920349
3.080000 6.800000 1.000000 11.828247 -1.305084 141.610672
3.080000 6.800000 1.040000 9.487509 6.618217 133.813629
3.080000 6.800000 1.080000 2.230023 17.267208 303.129456
3.080000 6.800000 1.120000 -14.148186 23.247864 740.634338
3.080000 6.800000 1.160000 -33.210747 15.739744 1350.693237
3.080000 6.800000 1.200000 -42.054741 -3.923479 1783.994873
3.080000 6.840000 0.800000 -4.706934 -68.851715 4762.713867
3.080000 6.840000 0.840000 8.978685 -59.871506 3665.213867
3.080000 6.840000 0.880000 14.230507 -55.889385 3326.130615
3.080000 6.840000 0.920000 24.842541 -58.165813 4000.413818
3.080000 6.840000 0.960000 46.313065 -52.713417 4923.604492
3.080000 6.840000 1.000000 65.416733 -27.225327 5020.567383
3.080000 6.840000 1.040000 61.605793 11.030792 3916.952148
3.080000 6.840000 1.080000 29.629345 37.392735 2276.114746
3.080000 6.840000 1.120000 -11.035984 32.096779 1151.996216
3.080000 6.840000 1.160000 -31.822523 0.456612 1012.881470
3.080000 6.840000 1.200000 -21.179937 -30.768332 1395.280029
3.080000 6.880000 0.800000 32.010353 -57.256805 4303.004395
3.080000 6.880000 0.840000 27.238031 -56.233040 3904.065186
3.080000 6.880000 0.880000 35.802418 -73.446388 6676.185059
3.080000 6.880000 0.920000 73.027275 -82.306953 12107.417969
3.080000 6.880000 0.960000 119.380798 -53.298813 17092.539062
3.080000 6.880000 1.000000 134.471191 11.064575 18204.927734
3.080000 6.880000 1.040000 96.725571 71.465218 14463.113281
3.080000 6.880000 1.080000 28.274837 85.569557 8121.615234
3.080000 6.880000 1.120000 -22.336197 47.838509 2787.428711
3.080000 6.880000 1.160000 -23.945261 -5.106439 599.451294
3.080000 6.880000 1.200000 10.411044 -29.393532 972.369568
3.080000 6.920000 0.800000 50.888908 -26.942036 3315.554199
3.080000 6.920000 0.840000 44.426285 -45.868851 4077.646240
3.080000 6.920000 0.880000 76.810547 -70.793068 10911.519531
3.080000 6.920000 0.920000 138.641922 -55.517883 22303.816406
3.080000 6.920000 0.960000 179.062668 16.550785 32337.367188
3.080000 6.920000 1.000000 152.624268 107.268738 34800.750000
3.080000 6.920000 1.040000 66.582077 153.467819 27985.542969
3.080000 6.920000 1.080000 -20.994383 124.728531 15997.969727
3.080000 6.920000 1.120000 -52.752525 51.661102 5451.698242
3.080000 6.920000 1.160000 -22.614431 -3.887943 526.528625
3.080000 6.920000 1.200000 24.157831 -6.345009 623.859985
3.080000 6.960000 0.800000 47.227768 3.917303 2245.807373
3.080000 6.960000 0.840000 57.891247 -26.511600 4054.261475
3.080000 6.960000 0.880000 112.737457 -32.786430 13784.684570
3.080000 6.960000 0.920000 169.154633 23.102549 29147.017578
3.080000 6.960000 0.960000 166.029846 122.071297 42467.312500
3.080000 6.960000 1.000000 84.682968 196.816467 45907.929688
3.080000 6.960000 1.040000 -27.202633 191.370636 37362.703125
3.080000 6.960000 1.080000 -95.564758 113.305466 21970.751953
3.080000 6.960000 1.120000 -85.653969 26.224792 8024.342285
3.080000 6.960000 1.160000 -28.952816 -9.631775 931.036621
3.080000 6.960000 1.200000 13.074507 10.933062 290.474579
3.080000 7.000000 0.800000 29.972317 22.605459 1409.346558
3.080000 7.000000 0.840000 59.929466 1.084522 3592.717285
3.080000 7.000000 0.880000 112.762360 26.982838 13443.422852
3.080000 7.000000 0.920000 130.886307 106.699684 28516.046875
3.080000 7.000000 0.960000 74.542625 189.506821 41469.437500
3.080000 7.000000 1.000000 -34.264168 209.367554 45008.804688
3.080000 7.000000 1.040000 -125.922523 146.111053 37204.921875
3.080000 7.000000 1.080000 -143.893356 45.176239 22746.191406
3.080000 7.000000 1.120000 -92.881073 -23.905567 9198.370117
3.080000 7.000000 1.160000 -28.449575 -28.687664 1632.360352
3.080000 7.000000 1.200000 -1.624117 4.823058 25.899647
3.080000 7.040000 0.800000 10.873822 27.863680 894.624634
3.080000 7.040000 0.840000 43.872459 27.297974 2669.972168
3.080000 7.040000 0.880000 69.254440 71.817169 9953.882812
3.080000 7.040000 0.920000 43.658615 137.506790 20814.191406
3.080000 7.040000 0.960000 -36.269779 169.667633 30102.601562
3.080000 7.040000 1.000000 -123.917465 132.385162 32881.371094
3.080000 7.040000 1.040000 -161.122025 43.613754 27862.466797
3.080000 7.040000 1.080000 -128.571365 -39.364014 18080.121094
3.080000 7.040000 1.120000 -59.744049 -69.818970 8444.040039
3.080000 7.040000 1.160000 -6.935232 -48.186520 2370.038086
3.080000 7.040000 1.200000 4.876831 -12.521632 180.574753
3.080000 7.080000 0.800000 -4.075389 24.896683 636.453613
3.080000 7.080000 0.840000 13.881586 37.699459 1613.947754
3.080000 7.080000 0.880000 9.048540 72.296982 5308.729492
3.080000 7.080000 0.920000 -32.823940 97.791145 10640.519531
3.080000 7.080000 0.960000 -91.753761 82.358322 15201.646484
3.080000 7.080000 1.000000 -127.499161 23.967758 16830.490234
3.080000 7.080000 1.040000 -113.723206 -45.184872 14974.640625
3.080000 7.080000 1.080000 -59.993355 -85.075493 10837.041992
3.080000 7.080000 1.120000 -1.757359 -79.777725 6367.573730
3.080000 7.080000 1.160000 30.287933 -45.807178 3015.656494
3.080000 7.080000 1.200000 31.734671 -12.365782 1160.001831
3.080000 7.120000 0.800000 -14.262855 18.009989 527.788696
3.080000 7.120000 0.840000 -13.907227 25.776806 857.854675
3.080000 7.120000 0.880000 -27.608286 33.178463 1863.027832
3.080000 7.120000 0.920000 -50.472931 25.519468 3198.760254
3.080000 7.120000 0.960000 -66.043045 -2.045990 4365.869629
3.080000 7.120000 1.000000 -59.321411 -38.674953 5014.781738
3.080000 7.120000 1.040000 -28.912853 -65.195557 5086.413574
3.080000 7.120000 1.080000 11.912048 -67.786392 4736.892090
3.080000 7.120000 1.120000 44.875160 -46.487614 4174.877930
3.080000 7.120000 1.160000 58.118622 -13.040278 3547.822998
3.080000 7.120000 1.200000 50.976742 17.986275 2922.134277
3.080000 7.160000 0.800000 -19.731842 9.099333 472.143433
3.080000 7.160000 0.840000 -23.465956 1.255346 552.226929
3.080000 7.160000 0.880000 -22.025860 -10.539566 596.220947
3.080000 7.160000 0.920000 -13.279623 -21.123886 622.566956
3.080000 7.160000 0.960000 -0.142084 -26.167072 684.735901
3.080000 7.160000 1.000000 13.408257 -25.688671 839.689209
3.080000 7.160000 1.040000 26.615810 -21.479826 1169.784302
3.080000 7.160000 1.080000 40.478355 -12.327288 1790.459351
3.080000 7.160000 1.120000 52.162918 5.646336 2752.851074
3.080000 7.160000 1.160000 53.247200 32.382252 3883.874512
3.080000 7.160000 1.200000 36.351246 58.573158 4752.228027
3.080000 7.200000 0.800000 -19.912903 0.684252 396.991913
3.080000 7.200000 0.840000 -13.556042 -16.764009 464.798279
3.080000 7.200000 0.880000 7.920242 -25.761330 726.376343
3.080000 7.200000 0.920000 31.643099 -15.838558 1252.145630
3.080000 7.200000 0.960000 41.476738 7.174805 1771.797607
3.080000 7.200000 1.000000 34.362213 26.748238 1896.229980
3.080000 7.200000 1.040000 22.673054 33.086021 1608.752197
3.080000 7.200000 1.080000 19.375683 33.021446 1465.833008
3.080000 7.200000 1.120000 22.497429 40.776131 2168.827148
3.080000 7.200000 1.160000 16.861219 59.530128 3828.136963
3.080000 7.200000 1.200000 -7.957448 74.795494 5657.686523
3.120000 6.800000 0.800000 -12.602152 -52.233524 2887.155273
3.120000 6.800000 0.840000 13.427216 -46.094215 2304.966797
3.120000 6.800000 0.880000 28.625574 -26.267273 1509.393066
3.120000 6.800000 0.920000 28.423218 -4.645133 829.456604
3.120000 6.800000 0.960000 18.373695 9.368359 425.358826
3.120000 6.800000 1.000000 6.892786 14.901035 269.551331
3.120000 6.800000 1.040000 -2.591345 16.495884 278.829254
3.120000 6.800000 1.080000 -12.154648 16.639912 424.622131
3.120000 6.800000 1.120000 -23.319210 12.825966 708.291016
3.120000 6.800000 1.160000 -32.468227 2.006201 1058.210693
3.120000 6.800000 1.200000 -33.515343 -13.468782 1304.686279
3.120000 6.840000 0.800000 18.439148 -55.627934 3434.469238
3.120000 6.840000 0.840000 32.546291 -44.444439 3034.569336
3.120000 6.840000 0.880000 40.077652 -32.509529 2663.087646
3.120000 6.840000 0.920000 45.616886 -20.695326 2509.196777
3.120000 6.840000 0.960000 49.077145 -4.924114 2432.812988
3.120000 6.840000 1.000000 43.922180 15.197884 2160.133545
3.120000 6.840000 1.040000 25.195126 31.177443 1606.827271
3.120000 6.840000 1.080000 -1.483341 31.486147 993.577759
3.120000 6.840000 1.120000 -21.261406 13.513642 634.665894
3.120000 6.840000 1.160000 -22.242321 -11.416482 625.056885
3.120000 6.840000 1.200000 -6.641109 -26.652990 754.486206
3.120000 6.880000 0.800000 44.548187 -37.871613 3418.800049
3.120000 6.880000 0.840000 49.904400 -32.726898 3561.499023
3.120000 6.880000 0.880000 62.346359 -29.330923 4747.371582
3.120000 6.880000 0.920000 80.981125 -13.770906 6747.580078
3.120000 6.880000 0.960000 89.202492 19.922939 8354.007812
3.120000 6.880000 1.000000 70.493881 57.583191 8285.210938
3.120000 6.880000 1.040000 28.196436 74.054710 6279.139160
3.120000 6.880000 1.080000 -12.790628 56.601139 3367.289062
3.120000 6.880000 1.120000 -26.595024 18.874495 1063.541870
3.120000 6.880000 1.160000 -9.681380 -10.135760 196.462769
3.120000 6.880000 1.200000 16.735781 -12.135643 427.360199
3.120000 6.920000 0.800000 53.370968 -9.032096 2930.039062
3.120000 6.920000 0.840000 60.472252 -12.231384 3806.500000
3.120000 6.920000 0.880000 83.928741 -5.669365 7076.175293
3.120000 6.920000 0.920000 105.626892 28.146099 11949.243164
3.120000 6.920000 0.960000 96.918915 80.304207 15842.041992
3.120000 6.920000 1.000000 49.006363 117.417572 16188.509766
3.120000 6.920000 1.040000 -13.050056 110.994507 12490.083984
3.120000 6.920000 1.080000 -49.733032 65.618408 6779.149902
3.120000 6.920000 1.120000 -42.257149 16.478407 2057.204590
3.120000 6.920000 1.160000 -8.592024 -2.478045 79.963585
3.120000 6.920000 1.200000 15.632893 11.745535 382.344910
3.120000 6.960000 0.800000 44.034866 16.708580 2218.246094
3.120000 6.960000 0.840000 59.079330 13.165191 3663.689453
3.120000 6.960000 0.880000 84.940872 34.460251 8402.460938
3.120000 6.960000 0.920000 89.531143 84.809219 15208.429688
3.120000 6.960000 0.960000 49.821007 134.685913 20622.427734
3.120000 6.960000 1.000000 -20.528969 144.599121 21330.345703
3.120000 6.960000 1.040000 -78.442001 102.789810 16718.892578
3.120000 6.960000 1.080000 -88.903755 38.465916 9383.504883
3.120000 6.960000 1.120000 -55.913040 -3.957161 3141.927246
3.120000 6.960000 1.160000 -16.241756 -4.396167 283.120941
3.120000 6.960000 1.200000 -3.145035 18.612480 356.315643
3.120000 7.000000 0.800000 24.565712 30.440678 1530.109009
3.120000 7.000000 0.840000 42.809875 35.323044 3080.402832
3.120000 7.000000 0.880000 55.275600 69.048050 7823.025391
3.120000 7.000000 0.920000 32.264240 115.800957 14450.842773
3.120000 7.000000 0.960000 -28.417568 137.383728 19681.847656
3.120000 7.000000 1.000000 -93.196999 108.658150 20492.273438
3.120000 7.000000 1.040000 -120.278687 43.513969 16360.428711
3.120000 7.000000 1.080000 -96.824028 -15.761360 9623.313477
3.120000 7.000000 1.120000 -48.980698 -35.789787 3680.017578
3.120000 7.000000 1.160000 -15.618532 -19.290607 616.066101
3.120000 7.000000 1.200000 -13.103285 3.385488 183.157608
3.120000 7.040000 0.800000 4.478434 31.338512 1002.158752
3.120000 7.040000 0.840000 15.671621 43.981049 2179.932373
3.120000 7.040000 0.880000 8.038942 74.096664 5554.940430
3.120000 7.040000 0.920000 -30.953936 95.687607 10114.264648
3.120000 7.040000 0.960000 -83.936790 81.376984 13667.597656
3.120000 7.040000 1.000000 -115.792343 30.124235 14315.336914
3.120000 7.040000 1.040000 -104.532219 -29.013306 11768.755859
3.120000 7.040000 1.080000 -60.588402 -61.541065 7458.256836
3.120000 7.040000 1.120000 -16.034136 -56.310822 3428.002197
3.120000 7.040000 1.160000 4.409473 -31.047855 983.412781
3.120000 7.040000 1.200000 1.702093 -11.655727 138.753113
3.120000 7.080000 0.800000 -10.216488 23.455383 654.531677
3.120000 7.080000 0.840000 -10.341920 34.001041 1263.026123
3.120000 7.080000 0.880000 -27.669327 45.467960 2832.927246
3.120000 7.080000 0.920000 -57.527618 38.964790 4827.681641
3.120000 7.080000 0.960000 -79.348419 7.654102 6354.756836
3.120000 7.080000 1.000000 -74.461090 -34.582436 6740.398926
3.120000 7.080000 1.040000 -42.813534 -63.897736 5915.919434
3.120000 7.080000 1.080000 -2.673521 -65.990417 4361.883301
3.120000 7.080000 1.120000 25.228031 -45.812050 2735.197510
3.120000 7.080000 1.160000 33.068138 -19.949697 1491.492188
3.120000 7.080000 1.200000 27.352573 -1.473768 750.335266
3.120000 7.120000 0.800000 -17.378922 11.858872 442.659790
3.120000 7.120000 0.840000 -22.145515 11.539415 623.581970
3.120000 7.120000 0.880000 -30.751392 4.769167 968.393066
3.120000 7.120000 0.920000 -34.868904 -11.181656 1340.869873
3.120000 7.120000 0.960000 -26.969839 -30.286556 1644.647705
3.120000 7.120000 1.000000 -7.247112 -42.490532 1857.965942
3.120000 7.120000 1.040000 16.788429 -41.484497 2002.814819
3.120000 7.120000 1.080000 36.321747 -28.078060 2107.646729
3.120000 7.120000 1.120000 46.155754 -7.522022 2186.934326
3.120000 7.120000 1.160000 44.959717 14.447681 2230.111572
3.120000 7.120000 1.200000 33.426357 32.740822 2189.282715
3.120000 7.160000 0.800000 -17.504604 1.181340 307.806732
3.120000 7.160000 0.840000 -16.099506 -8.717136 335.182556
3.120000 7.160000 0.880000 -6.581333 -18.653893 391.281647
3.120000 7.160000 0.920000 9.342573 -21.154865 534.812012
3.120000 7.160000 0.960000 23.965790 -13.534037 757.529236
3.120000 7.160000 1.000000 31.195652 -0.694701 973.651306
3.120000 7.160000 1.040000 32.219627 10.787620 1154.477051
3.120000 7.160000 1.080000 32.208519 20.194538 1445.208008
3.120000 7.160000 1.120000 31.928497 32.253830 2059.738525
3.120000 7.160000 1.160000 25.025223 48.710247 2998.949951
3.120000 7.160000 1.200000 5.524517 62.069115 3883.095215
3.120000 7.200000 0.800000 -13.490777 -5.038766 207.390228
3.120000 7.200000 0.840000 -1.825325 -15.110935 231.672180
3.120000 7.200000 0.880000 18.661976 -13.465001 529.575623
3.120000 7.200000 0.920000 34.366676 4.473747 1201.082886
3.120000 7.200000 0.960000 33.510231 28.834763 1954.379150
3.120000 7.200000 1.000000 18.409119 44.326080 2303.697021
3.120000 7.200000 1.040000 2.839991 45.684677 2095.155273
3.120000 7.200000 1.080000 -3.251249 42.222515 1793.311401
3.120000 7.200000 1.120000 -4.650191 45.882950 2126.869385
3.120000 7.200000 1.160000 -14.611962 55.981037 3347.385986
3.120000 7.200000 1.200000 -37.886559 58.295891 4833.802246
3.160000 6.800000 0.800000 1.579183 -37.595211 1415.893677
3.160000 6.800000 0.840000 19.876991 -26.947258 1121.249512
3.160000 6.800000 0.880000 26.835781 -6.749759 765.718384
3.160000 6.800000 0.920000 19.389214 12.094986 522.230286
3.160000 6.800000 0.960000 3.613012 20.719698 442.359741
3.160000 6.800000 1.000000 -10.935138 18.366192 456.894257
3.160000 6.800000 1.040000 -18.969410 10.967260 480.119293
3.160000 6.800000 1.080000 -22.064049 4.371954 505.936218
3.160000 6.800000 1.120000 -24.443661 -0.731730 598.027954
3.160000 6.800000 1.160000 -27.150009 -7.514695 793.593628
3.160000 6.800000 1.200000 -26.780569 -17.613317 1027.427734
3.160000 6.840000 0.800000 24.611443 -36.946007 1970.730469
3.160000 6.840000 0.840000 36.989769 -21.904329 1848.042725
3.160000 6.840000 0.880000 38.502625 -3.490686 1494.637085
3.160000 6.840000 0.920000 30.721523 11.230780 1069.942383
3.160000 6.840000 0.960000 18.423008 19.061905 702.763428
3.160000 6.840000 1.000000 5.611150 20.371078 446.465851
3.160000 6.840000 1.040000 -5.649517 16.384390 300.365295
3.160000 6.840000 1.080000 -13.694869 7.887370 249.760040
3.160000 6.840000 1.120000 -16.267445 -3.534454 277.122131
3.160000 6.840000 1.160000 -12.032842 -14.261667 348.184448
3.160000 6.840000 1.200000 -2.726418 -20.043968 409.194000
3.160000 6.880000 0.800000 43.281708 -20.861343 2308.501953
3.160000 6.880000 0.840000 49.573757 -5.235089 2484.963623
3.160000 6.880000 0.880000 48.924866 10.836237 2511.066650
3.160000 6.880000 0.920000 42.271072 25.550692 2439.681396
3.160000 6.880000 0.960000 29.423038 36.934746 2229.890625
3.160000 6.880000 1.000000 11.463331 40.964909 1809.531738
3.160000 6.880000 1.040000 -6.259491 34.119503 1203.321777
3.160000 6.880000 1.080000 -15.733183 18.314190 582.942627
3.160000 6.880000 1.120000 -12.600807 1.954055 162.598663
3.160000 6.880000 1.160000 -0.867981 -5.758044 33.908459
3.160000 6.880000 1.200000 9.766719 -2.466326 101.471558
3.160000 6.920000 0.800000 48.276093 3.828176 2345.236084
3.160000 6.920000 0.840000 49.979794 18.215956 2829.800781
3.160000 6.920000 0.880000 47.622917 34.086197 3429.811035
3.160000 6.920000 0.920000 37.856075 51.035751 4037.730469
3.160000 6.920000 0.960000 17.890503 63.027081 4292.482910
3.160000 6.920000 1.000000 -7.742682 61.564877 3850.183350
3.160000 6.920000 1.040000 -27.207985 44.556267 2725.535156
3.160000 6.920000 1.080000 -30.408777 21.125647 1370.986694
3.160000 6.920000 1.120000 -18.610630 5.574663 377.432434
3.160000 6.920000 1.160000 -4.135769 5.169962 43.833096
3.160000 6.920000 1.200000 0.739390 13.982025 196.043716
3.160000 6.960000 0.800000 37.659813 26.153193 2102.250977
3.160000 6.960000 0.840000 35.352753 38.800629 2755.305908
3.160000 6.960000 0.880000 28.398001 54.369102 3762.445801
3.160000 6.960000 0.920000 10.994903 68.978607 4878.936035
3.160000 6.960000 0.960000 -16.273809 72.407913 5507.742676
3.160000 6.960000 1.000000 -42.325211 57.731934 5124.399414
3.160000 6.960000 1.040000 -53.090633 30.469412 3747.000244
3.160000 6.960000 1.080000 -44.303024 6.244748 2001.754761
3.160000 6.960000 1.120000 -26.208755 -2.229521 691.869629
3.160000 6.960000 1.160000 -14.411625 3.796640 222.109406
3.160000 6.960000 1.200000 -15.576473 11.483959 374.507843
3.160000 7.000000 0.800000 17.110998 37.228951 1678.781006
3.160000 7.000000 0.840000 10.558413 46.560608 2279.370117
3.160000 7.000000 0.880000 -2.410787 57.127880 3269.406738
3.160000 7.000000 0.920000 -24.785685 61.210938 4361.108887
3.160000 7.000000 0.960000 -49.719589 50.045876 4976.626953
3.160000 7.000000 1.000000 -63.782318 24.342709 4660.751465
3.160000 7.000000 1.040000 -58.750641 -3.437587 3463.454590
3.160000 7.000000 1.080000 -39.907486 -18.777258 1945.192871
3.160000 7.000000 1.120000 -21.708935 -17.585833 780.539368
3.160000 7.000000 1.160000 -14.764290 -8.803236 295.481201
3.160000 7.000000 1.200000 -17.199932 -4.595447 316.955811
3.160000 7.040000 0.800000 -3.898662 34.422146 1200.083740
3.160000 7.040000 0.840000 -13.152139 37.455807 1575.916260
3.160000 7.040000 0.880000 -27.551159 37.723228 2182.108398
3.160000 7.040000 0.920000 -44.534153 28.516710 2796.493652
3.160000 7.040000 0.960000 -54.926971 8.179977 3083.884277
3.160000 7.040000 1.000000 -50.912277 -15.641264 2836.709229
3.160000 7.040000 1.040000 -33.985783 -31.265675 2132.575928
3.160000 7.040000 1.080000 -14.314535 -32.782639 1279.607300
3.160000 7.040000 1.120000 -1.977248 -24.469593 602.670471
3.160000 7.040000 1.160000 1.018008 -15.615165 244.869720
3.160000 7.040000 1.200000 0.211831 -11.603445 134.684814
3.160000 7.080000 0.800000 -17.211332 21.749329 769.263245
3.160000 7.080000 0.840000 -24.556013 17.025047 892.850037
3.160000 7.080000 0.880000 -31.677586 7.681616 1062.476685
3.160000 7.080000 0.920000 -33.711742 -6.896637 1184.045166
3.160000 7.080000 0.960000 -26.572815 -21.887188 1185.163574
3.160000 7.080000 1.000000 -11.850480 -30.303902 1058.760376
3.160000 7.080000 1.040000 3.884693 -28.971132 854.417297
3.160000 7.080000 1.080000 14.551335 -20.732151 641.563477
3.160000 7.080000 1.120000 18.827017 -10.916245 473.620972
3.160000 7.080000 1.160000 19.075129 -2.505709 370.139099
3.160000 7.080000 1.200000 17.170080 4.714596 317.039062
3.160000 7.120000 0.800000 -19.834869 6.993008 442.324219
3.160000 7.120000 0.840000 -20.211493 -2.554235 415.028534
3.160000 7.120000 0.880000 -14.697149 -13.216569 390.683899
3.160000 7.120000 0.920000 -2.564007 -19.758863 396.986816
3.160000 7.120000 0.960000 11.608775 -17.850298 453.396790
3.160000 7.120000 1.000000 21.321754 -8.720134 530.657959
3.160000 7.120000 1.040000 24.060865 1.966716 582.793213
3.160000 7.120000 1.080000 22.803150 10.013018 620.244141
3.160000 7.120000 1.120000 21.257227 16.406858 721.054688
3.160000 7.120000 1.160000 18.656387 24.268751 937.033081
3.160000 7.120000 1.200000 10.857202 32.775692 1192.124756
3.160000 7.160000 0.800000 -14.791298 -2.901031 227.198486
3.160000 7.160000 0.840000 -7.105719 -11.078388 173.221924
3.160000 7.160000 0.880000 7.529029 -13.374496 235.563431
3.160000 7.160000 0.920000 22.324707 -4.432472 518.039368
3.160000 7.160000 0.960000 27.977957 12.649464 942.774963
3.160000 7.160000 1.000000 21.857409 28.005943 1262.079224
3.160000 7.160000 1.040000 10.738419 34.474098 1303.777100
3.160000 7.160000 1.080000 3.257923 34.441284 1196.816040
3.160000 7.160000 1.120000 0.314251 35.919991 1290.344482
3.160000 7.160000 1.160000 -5.403059 41.927917 1787.143311
3.160000 7.160000 1.200000 -19.552938 45.569069 2458.857422
3.160000 7.200000 0.800000 -8.527926 -5.733831 105.602356
3.160000 7.200000 0.840000 3.061540 -7.986233 73.152939
3.160000 7.200000 0.880000 17.160063 0.874189 295.231934
3.160000 7.200000 0.920000 22.302736 20.405098 913.780029
3.160000 7.200000 0.960000 12.204182 39.508442 1709.859009
3.160000 7.200000 1.000000 -6.863651 46.509686 2210.260498
3.160000 7.200000 1.040000 -21.958614 40.763306 2143.827881
3.160000 7.200000 1.080000 -26.831625 32.591618 1782.149658
3.160000 7.200000 1.120000 -27.824692 31.113350 1742.254028
3.160000 7.200000 1.160000 -35.352615 33.516533 2373.165527
3.160000 7.200000 1.200000 -50.270061 28.296196 3327.753906
3.200000 6.800000 0.800000 -0.082537 -24.285259 589.780640
3.200000 6.800000 0.840000 10.615843 -14.923708 335.413177
3.200000 6.800000 0.880000 11.579670 0.352963 134.213348
3.200000 6.800000 0.920000 1.181438 11.934280 143.822845
3.200000 6.800000 0.960000 -13.658392 12.613895 345.662018
3.200000 6.800000 1.000000 -23.300806 3.799256 557.361877
3.200000 6.800000 1.040000 -23.865845 -6.324102 609.572815
3.200000 6.800000 1.080000 -19.911852 -11.043175 518.433533
3.200000 6.800000 1.120000 -18.574507 -11.417338 475.367920
3.200000 6.800000 1.160000 -21.329849 -14.086613 653.395142
3.200000 6.800000 1.200000 -22.136070 -22.954914 1016.933716
3.200000 6.840000 0.800000 18.552753 -25.953045 1017.765198
3.200000 6.840000 0.840000 25.928593 -9.422457 761.074646
3.200000 6.840000 0.880000 19.168266 7.049771 417.121704
3.200000 6.840000 0.920000 3.869246 12.968119 183.143173
3.200000 6.840000 0.960000 -8.800625 6.863845 124.563362
3.200000 6.840000 1.000000 -12.023157 -3.662672 157.971466
3.200000 6.840000 1.040000 -8.204241 -10.061801 168.549408
3.200000 6.840000 1.080000 -4.636094 -10.639481 134.691910
3.200000 6.840000 1.120000 -5.121924 -10.470875 135.873337
3.200000 6.840000 1.160000 -6.424126 -14.394554 248.472580
3.200000 6.840000 1.200000 -2.671158 -20.931698 445.271057
3.200000 6.880000 0.800000 36.032616 -12.967505 1466.505493
3.200000 6.880000 0.840000 34.094845 7.987365 1226.256470
3.200000 6.880000 0.880000 19.122047 19.963284 764.185425
3.200000 6.880000 0.920000 3.220906 17.719559 324.356995
3.200000 6.880000 0.960000 -3.528694 7.563527 69.658623
3.200000 6.880000 1.000000 -0.932867 -0.190226 0.906426
3.200000 6.880000 1.040000 3.651871 -0.992013 14.320253
3.200000 6.880000 1.080000 4.123796 1.498729 19.251877
3.200000 6.880000 1.120000 1.292614 1.378198 3.570281
3.200000 6.880000 1.160000 0.366606 -2.506778 6.418336
3.200000 6.880000 1.200000 4.226696 -5.824733 51.792477
3.200000 6.920000 0.800000 41.135864 10.572430 1803.935547
3.200000 6.920000 0.840000 27.250542 28.519598 1555.959473
3.200000 6.920000 0.880000 7.840072 30.862801 1013.979187
3.200000 6.920000 0.920000 -3.797025 21.166798 462.450714
3.200000 6.920000 0.960000 -3.725415 10.925056 133.235580
3.200000 6.920000 1.000000 1.540157 8.213264 69.829796
3.200000 6.920000 1.040000 3.437907 11.682613 148.302658
3.200000 6.920000 1.080000 -0.307498 14.510187 210.640091
3.200000 6.920000 1.120000 -5.319149 12.530145 185.297882
3.200000 6.920000 1.160000 -6.800955 7.714648 105.768784
3.200000 6.920000 1.200000 -4.605371 4.605445 42.419563
3.200000 6.960000 0.800000 28.999491 32.771248 1914.925171
3.200000 6.960000 0.840000 7.035131 39.641457 1620.938110
3.200000 6.960000 0.880000 -10.060155 30.719707 1044.907104
3.200000 6.960000 0.920000 -13.874180 16.867920 477.019592
3.200000 6.960000 0.960000 -8.173520 9.622347 159.395996
3.200000 6.960000 1.000000 -3.086028 11.604586 144.189987
3.200000 6.960000 1.040000 -4.938413 16.563480 298.736816
3.200000 6.960000 1.080000 -11.762012 17.240189 435.569031
3.200000 6.960000 1.120000 -17.373234 12.110662 448.497375
3.200000 6.960000 1.160000 -18.126469 5.067708 354.250549
3.200000 6.960000 1.200000 -15.276225 0.236158 233.418823
3.200000 7.000000 0.800000 5.413661 41.588924 1758.946411
3.200000 7.000000 0.840000 -15.526576 34.149143 1407.238525
3.200000 7.000000 0.880000 -23.662479 17.238071 857.063965
3.200000 7.000000 0.920000 -18.342812 3.985320 352.341522
3.200000 7.000000 0.960000 -8.864865 1.753154 81.659386
3.200000 7.000000 1.000000 -5.250475 7.414408 82.540932
3.200000 7.000000 1.040000 -9.990721 12.134009 247.048676
3.200000 7.000000 1.080000 -17.758135 9.950048 414.354797
3.200000 7.000000 1.120000 -21.694273 1.985340 474.583069
3.200000 7.000000 1.160000 -19.365227 -6.319334 414.945984
3.200000 7.000000 1.200000 -13.328260 -10.718136 292.520966
3.200000 7.040000 0.800000 -16.749542 33.327003 1391.236328
3.200000 7.040000 0.840000 -27.681599 15.835670 1017.039429
3.200000 7.040000 0.880000 -23.757355 -2.005067 568.432251
3.200000 7.040000 0.920000 -10.776668 -9.604528 208.383530
3.200000 7.040000 0.960000 0.026557 -5.200821 27.049244
3.200000 7.040000 1.000000 1.163848 3.852936 16.199656
3.200000 7.040000 1.040000 -5.873654 8.097270 100.065590
3.200000 7.040000 1.080000 -13.254333 3.780148 189.966873
3.200000 7.040000 1.120000 -14.213625 -5.125731 228.300247
3.200000 7.040000 1.160000 -8.308606 -11.578847 203.102631
3.200000 7.040000 1.200000 -0.496592 -11.727552 137.782089
3.200000 7.080000 0.800000 -26.618261 15.016685 934.032715
3.200000 7.080000 0.840000 -24.335426 -3.305463 603.139038
3.200000 7.080000 0.880000 -10.642868 -14.590369 326.149506
3.200000 7.080000 0.920000 5.525198 -12.859612 195.897430
3.200000 7.080000 0.960000 13.812037 -1.203640 192.221100
3.200000 7.080000 1.000000 10.329145 10.528492 217.540390
3.200000 7.080000 1.040000 0.415795 13.720455 188.423767
3.200000 7.080000 1.080000 -6.408163 7.832472 102.412170
3.200000 7.080000 1.120000 -4.851086 -0.014027 23.533228
3.200000 7.080000 1.160000 2.083675 -2.180381 9.095766
3.200000 7.080000 1.200000 6.891618 2.562686 54.061760
3.200000 7.120000 0.800000 -22.694019 -1.385887 516.939148
3.200000 7.120000 0.840000 -11.368357 -12.407659 283.189514
3.200000 7.120000 0.880000 5.483894 -13.176451 203.691956
3.200000 7.120000 0.920000 18.507437 -1.930572 346.252319
3.200000 7.120000 0.960000 19.749773 14.698818 606.108765
3.200000 7.120000 1.000000 9.543301 25.977169 765.887878
3.200000 7.120000 1.040000 -3.301669 25.858868 679.582031
3.200000 7.120000 1.080000 -9.234507 18.077534 412.073334
3.200000 7.120000 1.120000 -6.531466 12.100506 189.082275
3.200000 7.120000 1.160000 -2.126173 13.598331 189.435226
3.200000 7.120000 1.200000 -3.743453 19.131838 380.040649
3.200000 7.160000 0.800000 -12.512794 -8.166895 223.268188
3.200000 7.160000 0.840000 -0.023284 -9.769716 95.447899
3.200000 7.160000 0.880000 12.839472 -1.623131 167.486588
3.200000 7.160000 0.920000 17.557028 14.847618 528.700989
3.200000 7.160000 0.960000 9.545936 30.781818 1038.645264
3.200000 7.160000 1.000000 -6.409179 36.592613 1380.096924
3.200000 7.160000 1.040000 -19.577290 30.709019 1326.314087
3.200000 7.160000 1.080000 -23.101929 21.024170 975.714844
3.200000 7.160000 1.120000 -20.214256 16.724171 688.314026
3.200000 7.160000 1.160000 -19.900297 18.856668 751.595764
3.200000 7.160000 1.200000 -26.457825 19.865953 1094.672607
3.200000 7.200000 0.800000 -5.312240 -6.602012 71.806450
3.200000 7.200000 0.840000 2.661222 -2.792281 14.878934
3.200000 7.200000 0.880000 8.027273 8.563125 137.764221
3.200000 7.200000 0.920000 3.744626 23.496851 566.124207
3.200000 7.200000 0.960000 -10.731255 32.599575 1177.892090
3.200000 7.200000 1.000000 -27.228916 29.778946 1628.199463
3.200000 7.200000 1.040000 -36.097988 18.646074 1650.740723
3.200000 7.200000 1.080000 -35.572781 8.904444 1344.711792
3.200000 7.200000 1.120000 -32.866096 6.140776 1117.889404
3.200000 7.200000 1.160000 -35.400864 6.228658 1292.017334
3.200000 7.200000 1.200000 -41.914711 0.888150 1757.631836
