#kx 	ky 	kz 	real 	imag 	intensity
2.800000 6.800000 0.983333 -87.329926 -66.720551 12078.148438
2.800000 6.800000 0.991667 47.946236 -75.216171 7956.314453
2.800000 6.800000 1.000000 -8.349922 40.453140 1706.177734
2.800000 6.800000 1.008333 -91.584084 -98.453590 18080.753906
2.800000 6.800000 1.016667 92.073769 -127.608727 24761.566406
2.800000 6.900000 0.983333 -22.689056 -51.884968 3206.843018
2.800000 6.900000 0.991667 44.975357 -22.876383 2546.111572
2.800000 6.900000 1.000000 -9.381171 -11.839279 228.174896
2.800000 6.900000 1.008333 29.015892 -81.418953 7470.967773
2.800000 6.900000 1.016667 116.574440 -31.607826 14588.654297
2.800000 7.000000 0.983333 -36.305820 -64.564812 5486.727539
2.800000 7.000000 0.991667 143.505219 -81.748520 27276.568359
2.800000 7.000000 1.000000 63.846573 132.111542 21529.843750
2.800000 7.000000 1.008333 5.546597 -36.245575 1344.506470
2.800000 7.000000 1.016667 118.890472 125.686729 29932.097656
2.800000 7.100000 0.983333 0.975090 -67.950333 4618.198242
2.800000 7.100000 0.991667 197.303741 154.523697 62806.335938
2.800000 7.100000 1.000000 -211.673218 137.541870 63723.316406
2.800000 7.100000 1.008333 31.816910 -28.791727 1841.279297
2.800000 7.100000 1.016667 -200.211243 89.347588 48067.535156
2.800000 7.200000 0.983333 5.637466 -54.479065 2999.749512
2.800000 7.200000 0.991667 -45.849663 181.197815 34934.839844
2.800000 7.200000 1.000000 -141.287781 -123.473969 35208.058594
2.800000 7.200000 1.008333 -8.585854 8.617714 147.981873
2.800000 7.200000 1.016667 -26.222420 -227.801453 52581.117188
2.900000 6.800000 0.983333 -32.135712 -26.816784 1751.843872
2.900000 6.800000 0.991667 54.727482 -104.857086 13990.105469
2.900000 6.800000 1.000000 4.986552 101.463860 10319.780273
2.900000 6.800000 1.008333 -59.304443 -156.694672 28070.238281
2.900000 6.800000 1.016667 187.002411 22.904102 35494.500000
2.900000 6.900000 0.983333 258.056366 -759.022949 642708.875000
2.900000 6.900000 0.991667 139.467255 353.544098 144444.546875
2.900000 6.900000 1.000000 -390.939148 -258.301697 219553.187500
2.900000 6.900000 1.008333 -86.326828 -356.511932 134553.078125
2.900000 6.900000 1.016667 190.910736 -637.821838 443263.593750
2.900000 7.000000 0.983333 1167.522339 146.798004 1384658.000000
2.900000 7.000000 0.991667 -397.175964 223.847076 207856.265625
2.900000 7.000000 1.000000 283.971344 -482.316223 313268.656250
2.900000 7.000000 1.008333 388.192261 -348.084747 271856.218750
2.900000 7.000000 1.016667 1154.014893 113.793869 1344699.375000
2.900000 7.100000 0.983333 126.235023 685.401550 485710.562500
2.900000 7.100000 0.991667 -177.326218 -61.443970 35219.949219
2.900000 7.100000 1.000000 181.691437 93.108208 41680.914062
2.900000 7.100000 1.008333 262.340485 147.519043 90584.398438
2.900000 7.100000 1.016667 34.717869 685.344849 470902.906250
2.900000 7.200000 0.983333 87.171516 141.112732 27511.675781
2.900000 7.200000 0.991667 -236.556335 23.835499 56527.031250
2.900000 7.200000 1.000000 17.280304 -157.749847 25183.623047
2.900000 7.200000 1.008333 2.537977 -35.394920 1259.241699
2.900000 7.200000 1.016667 106.652237 -53.843224 14273.791992
3.000000 6.800000 0.983333 -80.599922 -90.499893 14686.578125
3.000000 6.800000 0.991667 144.028168 -71.673920 25881.263672
3.000000 6.800000 1.000000 -58.241405 52.500000 6148.311523
3.000000 6.800000 1.008333 63.638382 -163.855896 30898.597656
3.000000 6.800000 1.016667 141.735062 80.330177 26541.765625
3.000000 6.900000 0.983333 1290.105591 171.895340 1693920.375000
3.000000 6.900000 0.991667 -443.306641 281.150299 275566.281250
3.000000 6.900000 1.000000 331.908112 -623.432556 498831.156250
3.000000 6.900000 1.008333 535.197021 -296.665161 374446.062500
3.000000 6.900000 1.016667 1171.730957 143.174377 1393452.250000
3.000000 7.000000 0.983333 -17.441040 1891.745728 3579006.250000
3.000000 7.000000 0.991667 -409.900330 -659.833313 603398.250000
3.000000 7.000000 1.000000 906.757446 421.440918 999821.500000
3.000000 7.000000 1.008333 586.393188 502.051727 595912.875000
3.000000 7.000000 1.016667 227.634705 1853.135742 3485929.500000
3.000000 7.100000 0.983333 -1089.361694 249.463364 1248940.875000
3.000000 7.100000 0.991667 289.055908 -268.922211 155872.468750
3.000000 7.100000 1.000000 -217.580200 488.001160 285486.281250
3.000000 7.100000 1.008333 -146.887009 377.808014 164314.687500
3.000000 7.100000 1.016667 -1139.921875 342.979156 1417056.625000
3.000000 7.200000 0.983333 -153.864563 124.642670 39210.101562
3.000000 7.200000 0.991667 -67.541069 -135.011688 22789.953125
3.000000 7.200000 1.000000 101.019806 -64.930588 14420.982422
3.000000 7.200000 1.008333 54.407837 40.850307 4628.960449
3.000000 7.200000 1.016667 44.532837 -30.535885 2915.613770
3.100000 6.800000 0.983333 43.776981 -122.300690 16873.882812
3.100000 6.800000 0.991667 131.490433 7.940102 17352.779297
3.100000 6.800000 1.000000 -18.759758 92.333328 8877.372070
3.100000 6.800000 1.008333 43.061085 -80.883636 8396.419922
3.100000 6.800000 1.016667 109.307274 154.905304 35943.734375
3.100000 6.900000 0.983333 21.876007 948.826294 900749.875000
3.100000 6.900000 0.991667 -226.391357 -231.254150 104731.531250
3.100000 6.900000 1.000000 358.348083 194.375977 166195.375000
3.100000 6.900000 1.008333 275.921112 262.974884 145288.250000
3.100000 6.900000 1.016667 -5.380306 857.371704 735115.187500
3.100000 7.000000 0.983333 -1357.507812 122.219147 1857765.000000
3.100000 7.000000 0.991667 385.560730 -423.756256 328226.437500
3.100000 7.000000 1.000000 -191.110687 599.535583 395966.187500
3.100000 7.000000 1.008333 -245.627747 368.389771 196044.000000
3.100000 7.000000 1.016667 -1124.977661 318.190094 1366819.750000
3.100000 7.100000 0.983333 -191.131271 -761.577515 616531.500000
3.100000 7.100000 0.991667 289.766266 175.829407 114880.468750
3.100000 7.100000 1.000000 -313.105774 -78.484245 104195.000000
3.100000 7.100000 1.008333 -195.060028 -42.903290 39889.105469
3.100000 7.100000 1.016667 -309.365662 -629.825989 492387.875000
3.100000 7.200000 0.983333 -71.855270 -26.572420 5869.273438
3.100000 7.200000 0.991667 33.442074 -32.690704 2187.054443
3.100000 7.200000 1.000000 51.457504 95.082260 11688.510742
3.100000 7.200000 1.008333 -80.991882 47.382694 8804.804688
3.100000 7.200000 1.016667 36.977894 31.987804 2390.584229
3.200000 6.800000 0.983333 78.665741 -17.191339 6483.840820
3.200000 6.800000 0.991667 105.470154 45.154835 13162.912109
3.200000 6.800000 1.000000 -130.334335 39.731487 18565.630859
3.200000 6.800000 1.008333 106.883987 -124.798965 26998.968750
3.200000 6.800000 1.016667 -0.250038 151.749313 23027.916016
3.200000 6.900000 0.983333 -174.146118 -2.266983 30332.009766
3.200000 6.900000 0.991667 23.200787 -22.934065 1064.247803
3.200000 6.900000 1.000000 -55.072891 -72.620781 8306.800781
3.200000 6.900000 1.008333 105.893532 35.470848 12471.621094
3.200000 6.900000 1.016667 -107.975441 5.318790 11686.985352
3.200000 7.000000 0.983333 56.006088 -259.281433 70363.539062
3.200000 7.000000 0.991667 172.863220 -13.587982 30066.326172
3.200000 7.000000 1.000000 72.234856 -2.180050 5222.626953
3.200000 7.000000 1.008333 71.946587 47.853657 7466.284180
3.200000 7.000000 1.016667 49.233009 40.850739 4092.671875
3.200000 7.100000 0.983333 158.951706 75.068298 30900.894531
3.200000 7.100000 0.991667 70.766640 136.185516 23554.412109
3.200000 7.100000 1.000000 -15.818081 125.528008 16007.492188
3.200000 7.100000 1.008333 -24.980289 81.438148 7256.186523
3.200000 7.100000 1.016667 -84.487251 104.574890 18074.003906
3.200000 7.200000 0.983333 -70.640747 35.856628 6275.812988
3.200000 7.200000 0.991667 -6.469952 25.223467 678.083557
3.200000 7.200000 1.000000 -130.853546 17.222101 17419.251953
3.200000 7.200000 1.008333 -17.524231 -77.918388 6378.374023
3.200000 7.200000 1.016667 -56.183624 -14.096939 3355.323242
