#kx 	ky 	kz 	real 	imag 	intensity
6.800000 4.800000 0.800000 -16.762527 -11.641218 416.500305
6.800000 4.800000 0.840000 -11.699039 -14.749310 354.409637
6.800000 4.800000 0.880000 -9.190947 -14.999413 309.455872
6.800000 4.800000 0.920000 -8.723432 -17.522991 383.153473
6.800000 4.800000 0.960000 -4.788417 -23.146368 558.683289
6.800000 4.800000 1.000000 5.744980 -25.983524 708.148376
6.800000 4.800000 1.040000 18.208607 -19.551113 713.799377
6.800000 4.800000 1.080000 23.529161 -4.684842 575.569214
6.800000 4.800000 1.120000 17.207296 10.004388 396.178802
6.800000 4.800000 1.160000 3.883114 16.061016 273.034821
6.800000 4.800000 1.200000 -7.616128 12.823954 222.459183
6.800000 4.840000 0.800000 -7.503956 -26.422398 754.452393
6.800000 4.840000 0.840000 0.054303 -26.990744 728.503174
6.800000 4.840000 0.880000 5.432876 -26.283274 720.326599
6.800000 4.840000 0.920000 11.180431 -25.590279 779.864380
6.800000 4.840000 0.960000 18.397064 -22.171928 830.046387
6.800000 4.840000 1.000000 23.667957 -13.789816 750.331177
6.800000 4.840000 1.040000 22.521538 -3.262416 517.863037
6.800000 4.840000 1.080000 15.322484 3.293293 245.624298
6.800000 4.840000 1.120000 7.942865 3.097742 72.685120
6.800000 4.840000 1.160000 5.465170 0.178246 29.899853
6.800000 4.840000 1.200000 6.091387 0.708462 37.606918
6.800000 4.880000 0.800000 9.990288 -31.605999 1098.744995
6.800000 4.880000 0.840000 19.021513 -28.400352 1168.397949
6.800000 4.880000 0.880000 26.533991 -23.323954 1248.059570
6.800000 4.880000 0.920000 32.510986 -14.953993 1280.586182
6.800000 4.880000 0.960000 33.291523 -3.332889 1119.433716
6.800000 4.880000 1.000000 26.190155 6.261419 725.129578
6.800000 4.880000 1.040000 15.383700 7.206136 288.586639
6.800000 4.880000 1.080000 10.244856 -0.234501 105.012062
6.800000 4.880000 1.120000 15.803934 -6.635265 293.791077
6.800000 4.880000 1.160000 25.572254 -1.972736 657.831848
6.800000 4.880000 1.200000 26.283398 12.821938 855.219116
6.800000 4.920000 0.800000 27.251038 -23.747986 1306.585938
6.800000 4.920000 0.840000 35.064205 -15.409360 1466.946899
6.800000 4.920000 0.880000 39.806545 -4.494148 1604.758423
6.800000 4.920000 0.920000 38.566803 8.826898 1565.312500
6.800000 4.920000 0.960000 28.625736 19.065603 1182.930054
6.800000 4.920000 1.000000 14.674946 18.502731 557.705078
6.800000 4.920000 1.040000 8.317492 6.929109 117.193222
6.800000 4.920000 1.080000 17.113066 -3.939898 308.379822
6.800000 4.920000 1.120000 34.080322 0.427958 1161.651489
6.800000 4.920000 1.160000 41.099396 21.951740 2171.039062
6.800000 4.920000 1.200000 25.668472 44.753204 2661.719727
6.800000 4.960000 0.800000 35.473625 -5.799308 1292.010010
6.800000 4.960000 0.840000 37.502182 6.320439 1446.361694
6.800000 4.960000 0.880000 34.362823 18.625574 1527.715576
6.800000 4.960000 0.920000 24.332724 27.900623 1370.526123
6.800000 4.960000 0.960000 10.381557 27.712261 875.746155
6.800000 4.960000 1.000000 2.678801 16.395620 275.992340
6.800000 4.960000 1.040000 10.220376 3.794615 118.855186
6.800000 4.960000 1.080000 28.836525 5.612437 863.044617
6.800000 4.960000 1.120000 40.400555 27.768211 2403.278320
6.800000 4.960000 1.160000 27.905159 56.749325 3999.183594
6.800000 4.960000 1.200000 -6.845583 68.593216 4751.891113
6.800000 5.000000 0.800000 29.646309 14.010290 1075.191895
6.800000 5.000000 0.840000 23.077959 23.974073 1107.348389
6.800000 5.000000 0.880000 13.103990 29.333138 1032.147461
6.800000 5.000000 0.920000 2.041386 27.744579 773.928894
6.800000 5.000000 0.960000 -3.918222 18.496300 357.465576
6.800000 5.000000 1.000000 1.862049 8.144633 69.802277
6.800000 5.000000 1.040000 17.436203 9.027965 385.525330
6.800000 5.000000 1.080000 28.711689 28.023014 1609.650391
6.800000 5.000000 1.120000 19.202402 56.047905 3510.099854
6.800000 5.000000 1.160000 -13.672916 71.565353 5308.548340
6.800000 5.000000 1.200000 -52.385727 58.149590 6125.639160
6.800000 5.040000 0.800000 11.406550 25.638947 787.464966
6.800000 5.040000 0.840000 -0.346757 25.893749 670.606506
6.800000 5.040000 0.880000 -8.419688 19.633404 456.361694
6.800000 5.040000 0.920000 -9.479820 10.321637 196.403183
6.800000 5.040000 0.960000 -2.023357 3.733131 18.030245
6.800000 5.040000 1.000000 10.444426 7.192185 160.813568
6.800000 5.040000 1.040000 17.673906 23.982555 887.529907
6.800000 5.040000 1.080000 8.050898 46.987125 2272.606934
6.800000 5.040000 1.120000 -20.779255 59.921173 4022.324219
6.800000 5.040000 1.160000 -56.070526 48.760658 5521.505859
6.800000 5.040000 1.200000 -76.979614 14.507679 6136.333496
6.800000 5.080000 0.800000 -10.856693 22.315376 615.843811
6.800000 5.080000 0.840000 -18.390800 10.194958 442.158691
6.800000 5.080000 0.880000 -14.451250 -2.903000 217.266037
6.800000 5.080000 0.920000 -1.569483 -8.149122 68.871475
6.800000 5.080000 0.960000 12.041385 -0.531485 145.277420
6.800000 5.080000 1.000000 16.053797 17.900719 578.160156
6.800000 5.080000 1.040000 3.631109 37.505497 1419.847290
6.800000 5.080000 1.080000 -23.138973 45.154411 2574.333008
6.800000 5.080000 1.120000 -52.300785 32.229153 3774.090332
6.800000 5.080000 1.160000 -68.184311 1.505882 4651.367676
6.800000 5.080000 1.200000 -61.587746 -33.195858 4895.015625
6.800000 5.120000 0.800000 -25.859514 4.908592 692.808777
6.800000 5.120000 0.840000 -20.170162 -13.536114 590.061829
6.800000 5.120000 0.880000 -1.630033 -21.690460 473.133087
6.800000 5.120000 0.920000 17.601681 -12.276603 460.534119
6.800000 5.120000 0.960000 23.353991 10.158085 648.595581
6.800000 5.120000 1.000000 9.282118 31.437901 1074.499268
6.800000 5.120000 1.040000 -18.234673 36.896839 1693.880005
6.800000 5.120000 1.080000 -43.940887 21.159973 2378.546143
6.800000 5.120000 1.120000 -53.612499 -8.464727 2945.951660
6.800000 5.120000 1.160000 -42.868561 -37.248917 3225.195312
6.800000 5.120000 1.200000 -18.687067 -52.732853 3129.960205
6.800000 5.160000 0.800000 -26.031452 -17.779922 993.762085
6.800000 5.160000 0.840000 -5.807302 -31.289888 1012.781860
6.800000 5.160000 0.880000 19.551804 -24.890797 1001.824768
6.800000 5.160000 0.920000 32.054115 -0.455403 1027.673706
6.800000 5.160000 0.960000 21.290058 25.950819 1126.711548
6.800000 5.160000 1.000000 -6.663185 35.488869 1303.857910
6.800000 5.160000 1.040000 -33.222412 20.843464 1538.178589
6.800000 5.160000 1.080000 -41.241936 -8.520349 1773.493530
6.800000 5.160000 1.120000 -27.222164 -34.332214 1919.747070
6.800000 5.160000 1.160000 -1.951579 -43.410133 1888.248413
6.800000 5.160000 1.200000 19.631039 -35.619091 1654.097290
6.800000 5.200000 0.800000 -12.530943 -34.276398 1331.895996
6.800000 5.200000 0.840000 14.696650 -34.701290 1420.171021
6.800000 5.200000 0.880000 34.923691 -13.686768 1406.991821
6.800000 5.200000 0.920000 32.732475 16.180153 1333.212280
6.800000 5.200000 0.960000 8.661793 33.914074 1225.191040
6.800000 5.200000 1.000000 -19.888424 26.782677 1112.861206
6.800000 5.200000 1.040000 -32.219444 0.803575 1038.738281
6.800000 5.200000 1.080000 -20.730080 -24.477665 1028.892334
6.800000 5.200000 1.120000 4.225930 -32.144020 1051.096558
6.800000 5.200000 1.160000 24.561752 -20.443710 1021.224976
6.800000 5.200000 1.200000 29.473427 -1.300558 870.374329
6.840000 4.800000 0.800000 -6.195051 -0.314815 38.477768
6.840000 4.800000 0.840000 -10.210814 -4.763877 126.955261
6.840000 4.800000 0.880000 -10.581869 -13.606739 297.119293
6.840000 4.800000 0.920000 -3.315017 -22.640057 523.561462
6.840000 4.800000 0.960000 10.341496 -24.817698 722.864624
6.840000 4.800000 1.000000 23.027426 -16.393314 799.003052
6.840000 4.800000 1.040000 26.668711 -1.250149 712.783020
6.840000 4.800000 1.080000 19.448772 11.649512 513.965881
6.840000 4.800000 1.120000 7.219486 15.820662 302.414307
6.840000 4.800000 1.160000 -2.334738 12.227901 154.972580
6.840000 4.800000 1.200000 -6.642417 6.587555 87.517593
6.840000 4.840000 0.800000 -1.361421 -9.880850 99.484665
6.840000 4.840000 0.840000 3.770179 -15.247284 246.693909
6.840000 4.840000 0.880000 13.887188 -16.253296 457.023621
6.840000 4.840000 0.920000 23.738384 -8.799835 640.947998
6.840000 4.840000 0.960000 25.708294 4.708000 683.081665
6.840000 4.840000 1.000000 17.138802 15.608628 537.367798
6.840000 4.840000 1.040000 4.176809 16.261696 281.888489
6.840000 4.840000 1.080000 -3.011906 7.718826 68.651855
6.840000 4.840000 1.120000 0.003689 -0.646572 0.418069
6.840000 4.840000 1.160000 7.142176 -0.351345 51.134117
6.840000 4.840000 1.200000 7.871395 7.059925 111.801407
6.840000 4.880000 0.800000 9.811421 -12.905521 262.816467
6.840000 4.880000 0.840000 22.731073 -9.946898 615.642517
6.840000 4.880000 0.880000 32.382805 4.702317 1070.757812
6.840000 4.880000 0.920000 27.819117 25.285507 1413.260132
6.840000 4.880000 0.960000 7.380125 36.960987 1420.580811
6.840000 4.880000 1.000000 -15.932253 28.469152 1064.329346
6.840000 4.880000 1.040000 -23.687458 4.647686 582.696655
6.840000 4.880000 1.080000 -9.100784 -15.194544 313.698425
6.840000 4.880000 1.120000 14.865419 -13.941174 415.337036
6.840000 4.880000 1.160000 26.144199 6.764181 729.273315
6.840000 4.880000 1.200000 14.114386 27.032383 929.965637
6.840000 4.920000 0.800000 20.352299 -5.872998 448.708160
6.840000 4.920000 0.840000 30.943857 10.281590 1063.233398
6.840000 4.920000 0.880000 25.677660 34.974300 1882.543945
6.840000 4.920000 0.920000 -0.434753 50.564854 2556.993408
6.840000 4.920000 0.960000 -33.184544 40.023819 2703.120117
6.840000 4.920000 1.000000 -47.049698 5.605377 2245.094238
6.840000 4.920000 1.040000 -27.852360 -27.966022 1557.852295
6.840000 4.920000 1.080000 11.231935 -32.918896 1209.810059
6.840000 4.920000 1.120000 38.341743 -4.103100 1486.924683
6.840000 4.920000 1.160000 30.701534 34.424416 2127.624512
6.840000 4.920000 1.200000 -4.390522 50.167057 2536.010254
6.840000 4.960000 0.800000 22.086056 8.133917 553.954468
6.840000 4.960000 0.840000 19.107876 31.090607 1331.736816
6.840000 4.960000 0.880000 -4.958793 48.964027 2422.065674
6.840000 4.960000 0.920000 -40.454865 42.038906 3403.865723
6.840000 4.960000 0.960000 -61.037430 6.276452 3764.961670
6.840000 4.960000 1.000000 -45.317204 -36.021778 3351.217285
6.840000 4.960000 1.040000 0.168709 -50.975319 2598.511719
6.840000 4.960000 1.080000 41.403343 -23.182882 2251.682861
6.840000 4.960000 1.120000 44.536217 27.463654 2737.726807
6.840000 4.960000 1.160000 6.314157 60.882404 3746.535889
6.840000 4.960000 1.200000 -42.260494 51.532921 4441.591309
6.840000 5.000000 0.800000 11.507120 20.044830 534.209045
6.840000 5.000000 0.840000 -6.443218 35.480564 1300.385498
6.840000 5.000000 0.880000 -36.745224 32.648823 2416.157227
6.840000 5.000000 0.920000 -58.911934 3.257036 3481.224365
6.840000 5.000000 0.960000 -50.129486 -38.189274 3971.385986
6.840000 5.000000 1.000000 -8.627232 -60.154449 3692.987061
6.840000 5.000000 1.040000 37.972710 -40.277252 3064.183594
6.840000 5.000000 1.080000 52.333099 11.329971 2867.121338
6.840000 5.000000 1.120000 19.992142 56.462574 3587.708008
6.840000 5.000000 1.160000 -35.987076 60.139832 4911.869141
6.840000 5.000000 1.200000 -73.898529 20.670761 5888.272949
6.840000 5.040000 0.800000 -6.470497 20.362783 456.510284
6.840000 5.040000 0.840000 -27.727539 18.054796 1094.792114
6.840000 5.040000 0.880000 -44.746986 -3.206676 2012.575562
6.840000 5.040000 0.920000 -40.078323 -35.898304 2894.960205
6.840000 5.040000 0.960000 -8.136837 -57.131702 3330.239502
6.840000 5.040000 1.000000 33.342648 -45.393856 3172.334229
6.840000 5.040000 1.040000 52.680305 -2.192285 2780.020752
6.840000 5.040000 1.080000 30.334087 43.609680 2821.960938
6.840000 5.040000 1.120000 -21.635607 56.967773 3713.426758
6.840000 5.040000 1.160000 -66.915291 26.129889 5160.427246
6.840000 5.040000 1.200000 -74.441864 -26.988789 6269.985840
6.840000 5.080000 0.800000 -20.608082 6.343845 464.937408
6.840000 5.080000 0.840000 -29.397459 -10.145164 967.134888
6.840000 5.080000 0.880000 -23.383530 -32.433083 1598.694336
6.840000 5.080000 0.920000 0.483656 -46.313625 2145.185791
6.840000 5.080000 0.960000 31.206810 -37.407837 2373.211426
6.840000 5.080000 1.000000 47.178467 -4.966636 2250.475098
6.840000 5.080000 1.040000 32.124744 32.241901 2071.539307
6.840000 5.080000 1.080000 -9.028414 47.120369 2301.841309
6.840000 5.080000 1.120000 -50.357018 25.647938 3193.645752
6.840000 5.080000 1.160000 -63.803677 -20.309620 4483.389648
6.840000 5.080000 1.200000 -41.182159 -61.531250 5482.064941
6.840000 5.120000 0.800000 -20.963629 -14.922091 662.142517
6.840000 5.120000 0.840000 -10.781947 -30.668106 1056.783081
6.840000 5.120000 0.880000 10.138620 -36.225769 1415.098022
6.840000 5.120000 0.920000 31.692207 -24.761955 1617.550415
6.840000 5.120000 0.960000 40.009014 1.000135 1601.721436
6.840000 5.120000 1.000000 26.390665 27.402832 1447.382446
6.840000 5.120000 1.040000 -4.554080 36.925446 1384.228149
6.840000 5.120000 1.080000 -35.316765 20.431366 1664.714600
6.840000 5.120000 1.120000 -46.354717 -14.742628 2366.104736
6.840000 5.120000 1.160000 -29.997856 -48.672066 3268.841309
6.840000 5.120000 1.200000 4.025542 -62.703819 3947.974121
6.840000 5.160000 0.800000 -6.489870 -30.949707 1000.002747
6.840000 5.160000 0.840000 14.774040 -32.341858 1264.267944
6.840000 5.160000 0.880000 32.599930 -17.506592 1369.236084
6.840000 5.160000 0.920000 35.366699 6.734418 1296.155884
6.840000 5.160000 0.960000 19.930813 26.635014 1106.661255
6.840000 5.160000 1.000000 -5.680715 29.998577 932.185120
6.840000 5.160000 1.040000 -26.853447 14.052320 918.575317
6.840000 5.160000 1.080000 -31.368652 -12.694616 1145.145630
6.840000 5.160000 1.120000 -16.735130 -35.870148 1566.732056
6.840000 5.160000 1.160000 8.990606 -44.081039 2023.969116
6.840000 5.160000 1.200000 33.033752 -35.093548 2322.785889
6.840000 5.200000 0.800000 13.950129 -33.024910 1285.250732
6.840000 5.200000 0.840000 31.843199 -18.585432 1359.407593
6.840000 5.200000 0.880000 34.500847 5.402826 1219.499023
6.840000 5.200000 0.920000 19.203924 24.221022 955.448608
6.840000 5.200000 0.960000 -4.430641 26.104713 701.086609
6.840000 5.200000 1.000000 -21.368265 10.670712 570.466858
6.840000 5.200000 1.040000 -21.817015 -11.437319 606.794373
6.840000 5.200000 1.080000 -7.121491 -26.795549 768.717102
6.840000 5.200000 1.120000 12.958952 -28.156178 960.704773
6.840000 5.200000 1.160000 28.049953 -17.406511 1089.786499
6.840000 5.200000 1.200000 33.270348 -1.784824 1110.101562
6.880000 4.800000 0.800000 -10.645836 17.779697 429.451477
6.880000 4.800000 0.840000 -19.781891 3.581066 404.147247
6.880000 4.800000 0.880000 -14.488409 -14.277771 413.768738
6.880000 4.800000 0.920000 3.307411 -22.466518 515.683411
6.880000 4.800000 0.960000 21.206818 -14.526384 660.744995
6.880000 4.800000 1.000000 26.728966 3.154469 724.388306
6.880000 4.800000 1.040000 18.064556 17.150951 620.483276
6.880000 4.800000 1.080000 4.677820 19.164097 389.144592
6.880000 4.800000 1.120000 -2.718472 12.486909 163.312988
6.880000 4.800000 1.160000 -2.253716 6.543730 47.899635
6.880000 4.800000 1.200000 -0.647557 5.893032 35.147156
6.880000 4.840000 0.800000 -12.788591 5.843046 197.689255
6.880000 4.840000 0.840000 -4.516161 -4.120602 37.375069
6.880000 4.840000 0.880000 9.453796 -1.407927 91.356522
6.880000 4.840000 0.920000 14.756447 13.568679 401.861755
6.880000 4.840000 0.960000 3.953613 27.444754 768.845520
6.880000 4.840000 1.000000 -14.926056 26.250027 911.851074
6.880000 4.840000 1.040000 -25.125465 9.597618 723.403259
6.880000 4.840000 1.080000 -17.420006 -7.999020 367.440918
6.880000 4.840000 1.120000 0.318317 -11.013641 121.401619
6.880000 4.840000 1.160000 10.656447 1.513218 115.849693
6.880000 4.840000 1.200000 4.233183 14.808870 237.222473
6.880000 4.880000 0.800000 -6.009280 -2.139501 40.688904
6.880000 4.880000 0.840000 9.300400 6.540455 129.274994
6.880000 4.880000 0.880000 9.121738 30.233284 997.257568
6.880000 4.880000 0.920000 -15.900957 47.393387 2498.973389
6.880000 4.880000 0.960000 -50.542694 36.411270 3880.344727
6.880000 4.880000 1.000000 -65.692711 -1.404629 4317.505371
6.880000 4.880000 1.040000 -45.306942 -39.169685 3586.983398
6.880000 4.880000 1.080000 -3.447472 -47.291595 2248.380127
6.880000 4.880000 1.120000 26.838898 -20.952827 1159.347412
6.880000 4.880000 1.160000 23.463741 14.987183 775.162842
6.880000 4.880000 1.200000 -4.782526 29.228003 877.148682
6.880000 4.920000 0.800000 2.360308 -0.903216 6.386852
6.880000 4.920000 0.840000 5.339544 25.703674 689.189636
6.880000 4.920000 0.880000 -23.104767 49.673004 3001.237549
6.880000 4.920000 0.920000 -69.828384 39.866383 6465.332031
6.880000 4.920000 0.960000 -96.732582 -10.163311 9460.485352
6.880000 4.920000 1.000000 -74.380913 -69.211227 10322.713867
6.880000 4.920000 1.040000 -12.522335 -92.136993 8646.034180
6.880000 4.920000 1.080000 44.326912 -60.401329 5613.195801
6.880000 4.920000 1.120000 55.031357 -0.345585 3028.569580
6.880000 4.920000 1.160000 18.092216 39.908844 1920.044189
6.880000 4.920000 1.200000 -28.811600 33.437851 1948.198120
6.880000 4.960000 0.800000 3.684732 6.210466 52.147148
6.880000 4.960000 0.840000 -16.572254 33.204536 1377.180908
6.880000 4.960000 0.880000 -63.406952 32.481415 5075.483887
6.880000 4.960000 0.920000 -100.667923 -14.318092 10339.038086
6.880000 4.960000 0.960000 -87.835648 -83.981026 14767.914062
6.880000 4.960000 1.000000 -20.764889 -124.614929 15960.061523
6.880000 4.960000 1.040000 57.314938 -100.441208 13373.438477
6.880000 4.960000 1.080000 89.842514 -26.645773 8781.674805
6.880000 4.960000 1.120000 56.280117 41.245762 4868.664551
6.880000 4.960000 1.160000 -10.328100 55.453644 3181.776367
6.880000 4.960000 1.200000 -54.558937 16.214710 3239.594482
6.880000 5.000000 0.800000 -3.848534 9.758281 110.035255
6.880000 5.000000 0.840000 -38.691483 17.502802 1803.378906
6.880000 5.000000 0.880000 -76.684105 -14.332106 6085.861328
6.880000 5.000000 0.920000 -77.147675 -77.614075 11975.708984
6.880000 5.000000 0.960000 -21.566341 -127.865356 16814.656250
6.880000 5.000000 1.000000 61.041542 -119.524261 18012.119141
6.880000 5.000000 1.040000 112.268097 -49.503345 15054.707031
6.880000 5.000000 1.080000 93.712646 34.515720 9973.395508
6.880000 5.000000 1.120000 21.759514 72.720230 5761.708496
6.880000 5.000000 1.160000 -46.512634 44.031425 4102.191406
6.880000 5.000000 1.200000 -63.475471 -18.637167 4376.479492
6.880000 5.040000 0.800000 -12.835303 2.867476 172.967422
6.880000 5.040000 0.840000 -40.930153 -12.718964 1837.049561
6.880000 5.040000 0.880000 -48.884827 -56.989098 5637.483398
6.880000 5.040000 0.920000 -13.135186 -102.321503 10642.222656
6.880000 5.040000 0.960000 55.336502 -107.426819 14602.650391
6.880000 5.040000 1.000000 111.236435 -55.233940 15424.333008
6.880000 5.040000 1.040000 110.350647 25.255234 12815.092773
6.880000 5.040000 1.080000 49.623184 78.364365 8603.433594
6.880000 5.040000 1.120000 -27.152519 67.861053 5342.381836
6.880000 5.040000 1.160000 -65.646561 7.401810 4364.257324
6.880000 5.040000 1.200000 -46.040527 -53.438408 4975.393555
6.880000 5.080000 0.800000 -12.898360 -11.822058 306.128723
6.880000 5.080000 0.840000 -19.013233 -35.756657 1640.041504
6.880000 5.080000 0.880000 0.267486 -65.063004 4233.266113
6.880000 5.080000 0.920000 44.951809 -73.242096 7385.069824
6.880000 5.080000 0.960000 89.211594 -41.531200 9683.548828
6.880000 5.080000 1.000000 97.860474 19.055323 9939.777344
6.880000 5.080000 1.040000 57.096428 69.963516 8154.895508
6.880000 5.080000 1.080000 -9.249447 74.444405 5627.521484
6.880000 5.080000 1.120000 -56.104168 28.962616 3986.510742
6.880000 5.080000 1.160000 -53.436363 -32.946548 3940.919922
6.880000 5.080000 1.200000 -9.541082 -68.846619 4830.889160
6.880000 5.120000 0.800000 -0.238628 -23.703472 561.911560
6.880000 5.120000 0.840000 12.065931 -35.918415 1435.719238
6.880000 5.120000 0.880000 36.062984 -37.535503 2709.452881
6.880000 5.120000 0.920000 60.406990 -18.633959 3996.228760
6.880000 5.120000 0.960000 66.409912 17.791801 4726.824707
6.880000 5.120000 1.000000 42.619606 52.200550 4541.328125
6.880000 5.120000 1.040000 -1.999660 60.254898 3634.651367
6.880000 5.120000 1.080000 -40.526646 32.588299 2704.406250
6.880000 5.120000 1.120000 -47.256321 -15.085706 2460.738525
6.880000 5.120000 1.160000 -17.994841 -52.410172 3070.640381
6.880000 5.120000 1.200000 26.806030 -57.462738 4020.529541
6.880000 5.160000 0.800000 18.444660 -23.285351 882.413086
6.880000 5.160000 0.840000 31.956539 -16.181339 1283.056152
6.880000 5.160000 0.880000 39.691963 -0.316254 1575.551880
6.880000 5.160000 0.920000 36.114071 19.265453 1675.383789
6.880000 5.160000 0.960000 19.701967 34.052330 1547.728638
6.880000 5.160000 1.000000 -4.504559 35.148907 1255.736694
6.880000 5.160000 1.040000 -25.119656 18.761465 982.989624
6.880000 5.160000 1.080000 -29.727919 -9.223686 968.825562
6.880000 5.160000 1.120000 -13.241875 -34.465858 1363.242676
6.880000 5.160000 1.160000 17.102406 -42.419556 2091.910889
6.880000 5.160000 1.200000 45.335327 -28.239807 2852.778809
6.880000 5.200000 0.800000 31.532938 -10.480569 1104.168457
6.880000 5.200000 0.840000 32.226864 6.706451 1083.547241
6.880000 5.200000 0.880000 21.158270 20.015133 848.277954
6.880000 5.200000 0.920000 4.808332 22.612635 534.451294
6.880000 5.200000 0.960000 -8.368509 14.620499 283.790924
6.880000 5.200000 1.000000 -13.312353 1.112909 178.457321
6.880000 5.200000 1.040000 -9.426592 -12.228664 238.400879
6.880000 5.200000 1.080000 1.522878 -21.300152 456.015625
6.880000 5.200000 1.120000 16.791964 -23.069513 814.172485
6.880000 5.200000 1.160000 32.070366 -15.396605 1265.563843
6.880000 5.200000 1.200000 41.244957 1.078869 1702.310425
6.920000 4.800000 0.800000 -30.831316 27.231758 1692.138672
6.920000 4.800000 0.840000 -35.738861 1.217381 1278.748291
6.920000 4.800000 0.880000 -19.168636 -19.379807 743.013550
6.920000 4.800000 0.920000 5.937897 -19.746262 425.173462
6.920000 4.800000 0.960000 20.258942 -2.174858 415.154724
6.920000 4.800000 1.000000 15.421080 16.636669 514.588440
6.920000 4.800000 1.040000 0.494484 21.777527 474.505188
6.920000 4.800000 1.080000 -8.599907 13.538540 257.250458
6.920000 4.800000 1.120000 -5.369202 4.705407 50.969185
6.920000 4.800000 1.160000 2.236656 5.464293 34.861122
6.920000 4.800000 1.200000 2.715464 12.589544 165.870377
6.920000 4.840000 0.800000 -35.100723 6.653048 1276.323853
6.920000 4.840000 0.840000 -21.384701 -3.782688 471.614136
6.920000 4.840000 0.880000 -8.658756 3.627728 88.134468
6.920000 4.840000 0.920000 -12.354076 18.044022 478.209930
6.920000 4.840000 0.960000 -30.223988 20.229729 1322.731323
6.920000 4.840000 1.000000 -43.595715 2.650467 1907.611328
6.920000 4.840000 1.040000 -36.038162 -21.553955 1763.322144
6.920000 4.840000 1.080000 -10.789589 -30.748734 1061.899902
6.920000 4.840000 1.120000 11.363416 -16.479721 400.708435
6.920000 4.840000 1.160000 12.350118 7.577164 209.938812
6.920000 4.840000 1.200000 -5.157814 18.991844 387.293213
6.920000 4.880000 0.800000 -26.037857 -8.881157 756.844910
6.920000 4.880000 0.840000 -15.311457 6.210382 273.009552
6.920000 4.880000 0.880000 -31.240606 26.196592 1662.236938
6.920000 4.880000 0.920000 -66.821777 21.018917 4906.944824
6.920000 4.880000 0.960000 -89.325508 -19.191303 8347.352539
6.920000 4.880000 1.000000 -70.769730 -69.585976 9850.562500
6.920000 4.880000 1.040000 -17.204956 -90.576797 8500.166992
6.920000 4.880000 1.080000 33.593117 -64.548889 5295.056641
6.920000 4.880000 1.120000 45.583153 -13.265488 2253.796875
6.920000 4.880000 1.160000 16.987152 21.978199 771.604553
6.920000 4.880000 1.200000 -19.858177 18.285511 728.707153
6.920000 4.920000 0.800000 -13.242577 -13.110777 347.258301
6.920000 4.920000 0.840000 -26.698334 14.268120 916.380249
6.920000 4.920000 0.880000 -71.796837 15.393501 5391.745605
6.920000 4.920000 0.920000 -109.458473 -32.770576 13055.068359
6.920000 4.920000 0.960000 -94.576080 -106.349899 20254.935547
6.920000 4.920000 1.000000 -21.976952 -149.567230 22853.341797
6.920000 4.920000 1.040000 62.344543 -124.444000 19373.152344
6.920000 4.920000 1.080000 99.229218 -47.597221 12111.932617
6.920000 4.920000 1.120000 68.625008 23.110870 5243.503906
6.920000 4.920000 1.160000 5.726545 40.132912 1643.443970
6.920000 4.920000 1.200000 -33.989700 6.373972 1195.927246
6.920000 4.960000 0.800000 -5.901758 -10.238749 139.662720
6.920000 4.960000 0.840000 -44.231480 3.727331 1970.316772
6.920000 4.960000 0.880000 -91.235306 -32.866840 9404.110352
6.920000 4.960000 0.920000 -92.258652 -111.775047 21005.320312
6.920000 4.960000 0.960000 -21.901300 -175.853638 31404.167969
6.920000 4.960000 1.000000 83.385109 -166.884399 34803.476562
6.920000 4.960000 1.040000 150.720230 -81.262344 29320.156250
6.920000 4.960000 1.080000 133.869812 22.119619 18410.404297
6.920000 4.960000 1.120000 54.017857 72.121368 8119.420410
6.920000 4.960000 1.160000 -21.235048 46.449947 2608.524902
6.920000 4.960000 1.200000 -39.545681 -14.347372 1769.707886
6.920000 5.000000 0.800000 -4.514103 -8.996122 101.307343
6.920000 5.000000 0.840000 -46.629833 -23.403271 2722.054443
6.920000 5.000000 0.880000 -63.706429 -85.643280 11393.280273
6.920000 5.000000 0.920000 -15.160505 -155.169144 24307.304688
6.920000 5.000000 0.960000 85.696938 -168.060699 35588.363281
6.920000 5.000000 1.000000 172.516586 -96.478371 39070.046875
6.920000 5.000000 1.040000 180.287460 19.124550 32869.316406
6.920000 5.000000 1.080000 103.738945 100.284821 20818.812500
6.920000 5.000000 1.120000 2.979317 97.364182 9488.660156
6.920000 5.000000 1.160000 -49.935020 29.855253 3384.842529
6.920000 5.000000 1.200000 -32.049583 -36.997547 2395.994141
6.920000 5.040000 0.800000 -2.040422 -12.818790 168.484711
6.920000 5.040000 0.840000 -24.224205 -46.650162 2763.049805
6.920000 5.040000 0.880000 -2.999134 -101.742096 10360.449219
6.920000 5.040000 0.920000 70.327850 -127.822083 21284.490234
6.920000 5.040000 0.960000 153.291351 -84.451859 30630.355469
6.920000 5.040000 1.000000 182.060699 15.521622 33387.019531
6.920000 5.040000 1.040000 127.775848 108.605484 28121.818359
6.920000 5.040000 1.080000 25.742628 132.008743 18088.992188
6.920000 5.040000 1.120000 -52.798447 77.104286 8732.747070
6.920000 5.040000 1.160000 -60.947998 -5.532815 3745.270508
6.920000 5.040000 1.200000 -11.888642 -53.289207 2981.079590
6.920000 5.080000 0.800000 7.163574 -16.417192 320.841003
6.920000 5.080000 0.840000 10.398729 -46.151276 2238.073730
6.920000 5.080000 0.880000 48.890274 -69.428513 7210.577148
6.920000 5.080000 0.920000 106.655991 -51.902138 14069.332031
6.920000 5.080000 0.960000 139.954834 13.745499 19776.294922
6.920000 5.080000 1.000000 113.309967 92.213287 21342.437500
6.920000 5.080000 1.040000 34.674095 129.702347 18024.992188
6.920000 5.080000 1.080000 -45.912533 99.055809 11920.014648
6.920000 5.080000 1.120000 -76.196289 24.076946 6385.573730
6.920000 5.080000 1.160000 -44.216160 -40.740067 3614.821777
6.920000 5.080000 1.200000 15.637486 -56.120003 3393.985596
6.920000 5.120000 0.800000 20.298771 -11.953691 554.930847
6.920000 5.120000 0.840000 33.574150 -21.447653 1587.225342
6.920000 5.120000 0.880000 59.652008 -15.848089 3809.523926
6.920000 5.120000 0.920000 80.136520 15.463951 6660.995605
6.920000 5.120000 0.960000 71.312370 61.738728 8897.125000
6.920000 5.120000 1.000000 26.643051 93.120956 9381.365234
6.920000 5.120000 1.040000 -31.733997 83.316208 7948.636719
6.920000 5.120000 1.080000 -66.707771 33.635597 5581.280273
6.920000 5.120000 1.120000 -55.455162 -24.840189 3692.309814
6.920000 5.120000 1.160000 -8.168060 -54.987423 3090.333984
6.920000 5.120000 1.200000 41.122017 -42.476898 3495.307129
6.920000 5.160000 0.800000 28.395824 1.875883 809.841736
6.920000 5.160000 0.840000 32.129005 8.680145 1107.617920
6.920000 5.160000 0.880000 33.416512 19.913696 1513.218506
6.920000 5.160000 0.920000 27.225451 34.643822 1941.419434
6.920000 5.160000 0.960000 9.364326 45.967972 2200.745117
6.920000 5.160000 1.000000 -16.648048 43.158897 2139.847900
6.920000 5.160000 1.040000 -37.407372 20.726738 1828.909058
6.920000 5.160000 1.080000 -37.437294 -13.360065 1580.042358
6.920000 5.160000 1.120000 -12.182231 -39.830482 1734.874023
6.920000 5.160000 1.160000 25.722965 -41.380150 2373.987793
6.920000 5.160000 1.200000 54.197174 -16.304955 3203.185303
6.920000 5.200000 0.800000 25.367599 17.674143 955.890381
6.920000 5.200000 0.840000 13.842306 24.324848 783.307678
6.920000 5.200000 0.880000 1.596506 21.866360 480.686523
6.920000 5.200000 0.920000 -5.205780 13.857594 219.133041
6.920000 5.200000 0.960000 -6.527779 5.918737 77.643341
6.920000 5.200000 1.000000 -5.870312 -0.568611 34.783878
6.920000 5.200000 1.040000 -3.789442 -8.170723 81.120583
6.920000 5.200000 1.080000 3.844679 -17.062813 305.921143
6.920000 5.200000 1.120000 19.898846 -20.966345 835.551636
6.920000 5.200000 1.160000 39.117989 -11.666079 1666.314453
6.920000 5.200000 1.200000 49.267593 11.641331 2562.816162
6.960000 4.800000 0.800000 -54.254639 18.046734 3269.250488
6.960000 4.800000 0.840000 -47.430168 -14.032064 2446.519775
6.960000 4.800000 0.880000 -20.442989 -29.601959 1294.191772
6.960000 4.800000 0.920000 5.699749 -20.335098 446.003357
6.960000 4.800000 0.960000 13.037363 1.491058 172.196091
6.960000 4.800000 1.000000 2.231068 15.577057 247.622360
6.960000 4.800000 1.040000 -10.434311 13.030977 278.681213
6.960000 4.800000 1.080000 -10.923107 3.088181 128.851135
6.960000 4.800000 1.120000 -1.313555 0.952135 2.631987
6.960000 4.800000 1.160000 4.546311 10.566897 132.328262
6.960000 4.800000 1.200000 -2.105236 21.019394 446.246918
6.960000 4.840000 0.800000 -52.888840 -11.011604 2918.484619
6.960000 4.840000 0.840000 -35.528793 -18.749989 1613.857178
6.960000 4.840000 0.880000 -26.476570 -11.077671 823.723572
6.960000 4.840000 0.920000 -33.325623 -5.165665 1137.281250
6.960000 4.840000 0.960000 -43.948841 -15.376503 2167.937500
6.960000 4.840000 1.000000 -39.370457 -36.950073 2915.340820
6.960000 4.840000 1.040000 -14.695526 -49.586456 2674.775146
6.960000 4.840000 1.080000 13.777119 -38.051243 1637.706055
6.960000 4.840000 1.120000 23.527243 -8.803310 631.029419
6.960000 4.840000 1.160000 8.098001 15.041726 291.831146
6.960000 4.840000 1.200000 -16.182575 15.909399 514.984741
6.960000 4.880000 0.800000 -35.518761 -30.638712 2200.312988
6.960000 4.880000 0.840000 -33.424522 -16.047878 1374.733154
6.960000 4.880000 0.880000 -56.042965 -12.866337 3306.356689
6.960000 4.880000 0.920000 -78.495308 -42.285263 7949.556641
6.960000 4.880000 0.960000 -66.912598 -91.388451 12829.144531
6.960000 4.880000 1.000000 -14.294037 -120.867424 14813.253906
6.960000 4.880000 1.040000 47.857956 -101.468246 12586.188477
6.960000 4.880000 1.080000 75.882309 -43.519516 7652.073242
6.960000 4.880000 1.120000 53.642281 10.715874 2992.324219
6.960000 4.880000 1.160000 6.551950 25.152763 675.589539
6.960000 4.880000 1.200000 -23.583042 1.277926 557.792969
6.960000 4.920000 0.800000 -14.211285 -35.249546 1444.491089
6.960000 4.920000 0.840000 -39.976582 -21.680941 2068.190186
6.960000 4.920000 0.880000 -76.995911 -51.106434 8540.238281
6.960000 4.920000 0.920000 -75.135651 -118.630287 19718.511719
6.960000 4.920000 0.960000 -10.179932 -173.223175 30109.898438
6.960000 4.920000 1.000000 85.308449 -162.232727 33596.988281
6.960000 4.920000 1.040000 145.670990 -82.895874 28091.763672
6.960000 4.920000 1.080000 130.197144 11.151665 17075.656250
6.960000 4.920000 1.120000 59.403793 56.605385 6732.980469
6.960000 4.920000 1.160000 -5.762180 35.528347 1295.466187
6.960000 4.920000 1.200000 -20.409349 -14.042340 613.728882
6.960000 4.960000 0.800000 1.575411 -29.837847 892.779053
6.960000 4.960000 0.840000 -39.204071 -40.733089 3196.143799
6.960000 4.960000 0.880000 -56.017540 -103.686562 13888.868164
6.960000 4.960000 0.920000 -3.343925 -175.436310 30789.080078
6.960000 4.960000 0.960000 104.740746 -186.812744 45869.625000
6.960000 4.960000 1.000000 196.876022 -108.689682 50573.617188
6.960000 4.960000 1.040000 204.884323 14.582621 42190.238281
6.960000 4.960000 1.080000 125.629395 100.341034 25851.068359
6.960000 4.960000 1.120000 23.562260 99.391846 10433.918945
6.960000 4.960000 1.160000 -28.381876 35.474586 2063.977051
6.960000 4.960000 1.200000 -11.431612 -23.726166 693.612732
6.960000 5.000000 0.800000 11.022466 -21.964863 603.949951
6.960000 5.000000 0.840000 -18.444046 -59.362427 3864.080566
6.960000 5.000000 0.880000 5.582586 -127.030838 16167.999023
6.960000 5.000000 0.920000 96.237030 -160.087952 34889.718750
6.960000 5.000000 0.960000 199.968857 -106.565048 51343.652344
6.960000 5.000000 1.000000 236.923599 17.087345 56424.769531
6.960000 5.000000 1.040000 172.797318 132.050583 47296.265625
6.960000 5.000000 1.080000 52.416351 163.398010 29446.384766
6.960000 5.000000 1.120000 -39.077801 104.226501 12390.238281
6.960000 5.000000 1.160000 -50.314949 16.579651 2806.478760
6.960000 5.000000 1.200000 -2.047814 -29.160393 854.522034
6.960000 5.040000 0.800000 18.074238 -13.876009 519.221680
6.960000 5.040000 0.840000 15.479965 -57.652824 3563.477539
6.960000 5.040000 0.880000 68.544922 -96.951317 14097.963867
6.960000 5.040000 0.920000 154.919037 -76.371078 29832.449219
6.960000 5.040000 0.960000 208.137650 17.257729 43619.109375
6.960000 5.040000 1.000000 174.840759 132.114807 48023.613281
6.960000 5.040000 1.040000 66.795425 190.332367 40688.039062
6.960000 5.040000 1.080000 -44.713570 154.935760 26004.392578
6.960000 5.040000 1.120000 -89.201019 61.188744 11700.883789
6.960000 5.040000 1.160000 -55.018806 -17.357641 3328.356934
6.960000 5.040000 1.200000 8.789983 -33.885567 1225.495483
6.960000 5.080000 0.800000 23.700607 -2.906209 570.164856
6.960000 5.080000 0.840000 40.153038 -30.583361 2547.608398
6.960000 5.080000 0.880000 89.959023 -32.669418 9159.916992
6.960000 5.080000 0.920000 136.560989 17.452747 18953.501953
6.960000 5.080000 0.960000 131.281677 101.714249 27580.667969
6.960000 5.080000 1.000000 59.487595 164.311081 30536.904297
6.960000 5.080000 1.040000 -39.707905 157.400787 26351.724609
6.960000 5.080000 1.080000 -102.660431 83.951599 17587.035156
6.960000 5.080000 1.120000 -93.958488 -3.680599 8841.744141
6.960000 5.080000 1.160000 -33.644905 -48.640648 3497.892090
6.960000 5.080000 1.200000 25.287012 -35.270332 1883.429321
6.960000 5.120000 0.800000 23.854265 11.749736 707.082214
6.960000 5.120000 0.840000 38.360527 5.095814 1497.497314
6.960000 5.120000 0.880000 61.530128 20.470625 4205.003418
6.960000 5.120000 0.920000 67.172775 61.025280 8236.266602
6.960000 5.120000 0.960000 34.939701 103.077263 11845.705078
6.960000 5.120000 1.000000 -26.628494 111.910309 13232.994141
6.960000 5.120000 1.040000 -81.189873 72.182442 11802.099609
6.960000 5.120000 1.080000 -92.366829 4.600765 8552.797852
6.960000 5.120000 1.120000 -54.035896 -48.586109 5280.488281
6.960000 5.120000 1.160000 4.872725 -57.176655 3292.913330
6.960000 5.120000 1.200000 45.277374 -25.246704 2687.436523
6.960000 5.160000 0.800000 15.114697 24.985727 852.740601
6.960000 5.160000 0.840000 14.466690 25.775564 873.664795
6.960000 5.160000 0.880000 14.234976 32.021755 1228.027344
6.960000 5.160000 0.920000 6.258259 42.844921 1874.853027
6.960000 5.160000 0.960000 -14.073975 48.206066 2521.901367
6.960000 5.160000 1.000000 -39.409451 35.913612 2842.892334
6.960000 5.160000 1.040000 -52.339836 4.307014 2758.008789
6.960000 5.160000 1.080000 -38.809139 -31.772736 2515.656006
6.960000 5.160000 1.120000 -1.828075 -49.753963 2478.798584
6.960000 5.160000 1.160000 38.014305 -36.805679 2799.745605
6.960000 5.160000 1.200000 57.253094 -0.662127 3278.355225
6.960000 5.200000 0.800000 0.717637 29.848503 891.448181
6.960000 5.200000 0.840000 -10.378622 22.545599 616.019836
6.960000 5.200000 0.880000 -13.429996 10.441902 289.398132
6.960000 5.200000 0.920000 -8.774380 1.690731 79.848312
6.960000 5.200000 0.960000 -3.421055 -0.649391 12.125325
6.960000 5.200000 1.000000 -2.302364 -1.759468 8.396609
6.960000 5.200000 1.040000 -1.540146 -7.971336 65.914253
6.960000 5.200000 1.080000 7.541889 -17.124352 350.123505
6.960000 5.200000 1.120000 27.082523 -18.037342 1058.808838
6.960000 5.200000 1.160000 46.512642 -1.355644 2165.263672
6.960000 5.200000 1.200000 49.763813 28.851402 3308.840332
7.000000 4.800000 0.800000 -65.366409 -5.690680 4305.151367
7.000000 4.800000 0.840000 -46.090420 -35.017303 3350.538574
7.000000 4.800000 0.880000 -13.939659 -41.384300 1906.974365
7.000000 4.800000 0.920000 9.102031 -24.919052 703.806152
7.000000 4.800000 0.960000 11.302036 -2.746681 135.280273
7.000000 4.800000 1.000000 -0.015488 7.725548 59.684330
7.000000 4.800000 1.040000 -8.239410 4.423913 87.458893
7.000000 4.800000 1.080000 -5.204357 -0.339565 27.200638
7.000000 4.800000 1.120000 1.727325 4.689007 24.970436
7.000000 4.800000 1.160000 -0.149975 16.941393 287.033295
7.000000 4.800000 1.200000 -13.383383 23.569962 734.658020
7.000000 4.840000 0.800000 -53.859512 -37.498066 4306.952148
7.000000 4.840000 0.840000 -35.176125 -42.649193 3056.313477
7.000000 4.840000 0.880000 -26.060587 -38.505829 2161.853027
7.000000 4.840000 0.920000 -25.609768 -39.171478 2190.264893
7.000000 4.840000 0.960000 -20.929703 -48.861786 2825.526611
7.000000 4.840000 1.000000 -2.884399 -56.516289 3202.410645
7.000000 4.840000 1.040000 21.620541 -47.567905 2730.153320
7.000000 4.840000 1.080000 34.442795 -20.813225 1619.496460
7.000000 4.840000 1.120000 23.990120 7.573963 632.890808
7.000000 4.840000 1.160000 -2.139622 18.118490 332.857666
7.000000 4.840000 1.200000 -23.288218 6.445972 583.891602
7.000000 4.880000 0.800000 -26.765017 -54.831413 3722.850098
7.000000 4.880000 0.840000 -28.565823 -48.263809 3145.401367
7.000000 4.880000 0.880000 -40.562859 -61.081158 5376.252930
7.000000 4.880000 0.920000 -34.204079 -94.739349 10145.462891
7.000000 4.880000 0.960000 6.792160 -121.404129 14785.096680
7.000000 4.880000 1.000000 64.820366 -109.426430 16175.823242
7.000000 4.880000 1.040000 100.395905 -56.182899 13235.856445
7.000000 4.880000 1.080000 87.841331 5.538208 7746.771484
7.000000 4.880000 1.120000 39.598648 35.488407 2827.479980
7.000000 4.880000 1.160000 -5.189845 21.437801 486.513794
7.000000 4.880000 1.200000 -16.541763 -12.311370 425.199768
7.000000 4.920000 0.800000 2.308788 -53.461601 2863.473389
7.000000 4.920000 0.840000 -19.972059 -58.731026 3848.216553
7.000000 4.920000 0.880000 -26.992916 -101.727524 11077.106445
7.000000 4.920000 0.920000 16.791691 -150.696045 22991.259766
7.000000 4.920000 0.960000 100.766617 -152.888626 33528.843750
7.000000 4.920000 1.000000 169.687149 -86.784279 36325.238281
7.000000 4.920000 1.040000 171.582581 11.807655 29580.001953
7.000000 4.920000 1.080000 106.104866 78.241592 17379.988281
7.000000 4.920000 1.120000 25.261568 75.773293 6379.738770
7.000000 4.920000 1.160000 -14.312374 25.444603 852.271851
7.000000 4.920000 1.200000 -0.319710 -18.645020 347.738953
7.000000 4.960000 0.800000 23.201157 -38.871216 2049.265137
7.000000 4.960000 0.840000 0.254257 -68.319252 4667.584473
7.000000 4.960000 0.880000 24.573898 -125.602844 16379.951172
7.000000 4.960000 0.920000 108.654480 -150.672943 34508.132812
7.000000 4.960000 0.960000 202.304840 -96.195129 50180.753906
7.000000 4.960000 1.000000 232.157684 20.571545 54320.378906
7.000000 4.960000 1.040000 169.278748 125.680412 44450.859375
7.000000 4.960000 1.080000 58.084686 152.027924 26486.320312
7.000000 4.960000 1.120000 -23.021553 97.515869 10039.336914
7.000000 4.960000 1.160000 -30.882254 21.784843 1428.292969
7.000000 4.960000 1.200000 10.512533 -12.784840 273.965454
7.000000 5.000000 0.800000 33.115074 -18.904055 1453.971436
7.000000 5.000000 0.840000 30.002323 -62.548508 4812.455078
7.000000 5.000000 0.880000 86.892426 -102.394638 18034.955078
7.000000 5.000000 0.920000 179.176880 -77.375557 38091.332031
7.000000 5.000000 0.960000 234.029984 25.642761 55427.582031
7.000000 5.000000 1.000000 195.346848 148.765900 60291.683594
7.000000 5.000000 1.040000 79.249481 208.879944 49911.312500
7.000000 5.000000 1.080000 -36.398712 170.674408 30454.621094
7.000000 5.000000 1.120000 -79.968956 76.096031 12185.639648
7.000000 5.000000 1.160000 -45.748787 2.489801 2099.150635
7.000000 5.000000 1.200000 10.775145 -7.546680 173.056122
7.000000 5.040000 0.800000 33.195816 1.401358 1103.925903
7.000000 5.040000 0.840000 52.312126 -34.765717 3945.213623
7.000000 5.040000 0.880000 116.272171 -38.304497 14986.452148
7.000000 5.040000 0.920000 176.231689 26.143089 31741.068359
7.000000 5.040000 0.960000 169.021317 133.637360 46427.148438
7.000000 5.040000 1.000000 78.405937 211.847519 51026.863281
7.000000 5.040000 1.040000 -43.312477 202.933090 43057.812500
7.000000 5.040000 1.080000 -117.755310 115.710571 27255.250000
7.000000 5.040000 1.120000 -107.479401 17.067543 11843.122070
7.000000 5.040000 1.160000 -43.492416 -28.473955 2702.356445
7.000000 5.040000 1.200000 10.501629 -11.671925 246.518036
7.000000 5.080000 0.800000 24.441948 18.858126 953.037720
7.000000 5.080000 0.840000 49.933388 2.807164 2501.223389
7.000000 5.080000 0.880000 92.122070 25.740536 9149.050781
7.000000 5.080000 0.920000 104.802032 92.001633 19447.765625
7.000000 5.080000 0.960000 55.484283 160.206360 28744.583984
7.000000 5.080000 1.000000 -38.542915 175.145828 32161.617188
7.000000 5.080000 1.040000 -118.999191 117.636620 27999.181641
7.000000 5.080000 1.080000 -134.984055 24.055859 18799.378906
7.000000 5.080000 1.120000 -85.612671 -44.335575 9295.172852
7.000000 5.080000 1.160000 -16.941097 -52.999504 3095.948242
7.000000 5.080000 1.200000 21.688654 -17.918959 791.486816
7.000000 5.120000 0.800000 8.415542 29.299278 929.269043
7.000000 5.120000 0.840000 23.118713 27.170574 1272.715088
7.000000 5.120000 0.880000 36.031696 49.604385 3758.877930
7.000000 5.120000 0.920000 21.285854 86.181625 7880.359863
7.000000 5.120000 0.960000 -27.135323 105.342987 11833.470703
7.000000 5.120000 1.000000 -83.954727 81.380569 13671.193359
7.000000 5.120000 1.040000 -110.483231 19.989719 12606.132812
7.000000 5.120000 1.080000 -87.090302 -43.043083 9437.427734
7.000000 5.120000 1.120000 -30.174789 -70.221016 5841.509277
7.000000 5.120000 1.160000 22.131296 -51.928776 3186.391846
7.000000 5.120000 1.200000 41.492905 -10.574921 1833.490112
7.000000 5.160000 0.800000 -9.652440 28.874340 926.897156
7.000000 5.160000 0.840000 -8.604666 25.052013 701.643677
7.000000 5.160000 0.880000 -8.767021 28.483784 888.186584
7.000000 5.160000 0.920000 -18.407379 33.816952 1482.417725
7.000000 5.160000 0.960000 -36.991646 29.113892 2216.000488
7.000000 5.160000 1.000000 -52.094906 6.959343 2762.311523
7.000000 5.160000 1.040000 -48.005039 -25.921432 2976.404541
7.000000 5.160000 1.080000 -19.778042 -50.694359 2961.088867
7.000000 5.160000 1.120000 20.038605 -50.172810 2918.856445
7.000000 5.160000 1.160000 49.193085 -22.847330 2941.959961
7.000000 5.160000 1.200000 52.018433 15.275513 2939.258545
7.000000 5.200000 0.800000 -21.731201 18.827309 826.712646
7.000000 5.200000 0.840000 -23.798962 4.972796 591.119263
7.000000 5.200000 0.880000 -16.647797 -6.985252 325.942902
7.000000 5.200000 0.920000 -5.343147 -10.824112 145.710617
7.000000 5.200000 0.960000 2.135251 -7.919113 67.271652
7.000000 5.200000 1.000000 3.714399 -5.967438 49.407074
7.000000 5.200000 1.040000 6.093842 -9.773212 132.650589
7.000000 5.200000 1.080000 17.125534 -14.067610 491.181549
7.000000 5.200000 1.120000 35.033073 -7.414161 1282.286011
7.000000 5.200000 1.160000 46.675980 15.325977 2413.532471
7.000000 5.200000 1.200000 38.448746 44.711586 3477.432129
7.040000 4.800000 0.800000 -58.279152 -29.565968 4270.605957
7.040000 4.800000 0.840000 -31.673363 -50.323490 3535.655518
7.040000 4.800000 0.880000 0.424400 -47.724297 2277.788574
7.040000 4.800000 0.920000 19.493565 -26.582958 1086.652710
7.040000 4.800000 0.960000 18.705482 -3.621815 363.012634
7.040000 4.800000 1.000000 6.867889 7.551650 104.195328
7.040000 4.800000 1.040000 -2.129017 7.209961 56.516251
7.040000 4.800000 1.080000 -3.198523 5.779640 43.634789
7.040000 4.800000 1.120000 -3.072054 10.605839 121.921333
7.040000 4.800000 1.160000 -10.342621 17.788696 423.407532
7.040000 4.800000 1.200000 -24.272827 17.489744 895.061279
7.040000 4.840000 0.800000 -37.721489 -57.801277 4763.898438
7.040000 4.840000 0.840000 -17.603580 -61.458321 4087.011230
7.040000 4.840000 0.880000 -2.911215 -58.253696 3401.968262
7.040000 4.840000 0.920000 8.183105 -54.510639 3038.372803
7.040000 4.840000 0.960000 20.659134 -49.585991 2885.570312
7.040000 4.840000 1.000000 34.030464 -37.639500 2574.804443
7.040000 4.840000 1.040000 40.324181 -16.445660 1896.499268
7.040000 4.840000 1.080000 31.614622 6.596642 1043.000000
7.040000 4.840000 1.120000 9.589272 18.693161 441.388397
7.040000 4.840000 1.160000 -13.372435 12.881870 344.764587
7.040000 4.840000 1.200000 -23.846708 -4.918255 592.854675
7.040000 4.880000 0.800000 -3.982382 -67.850922 4619.606934
7.040000 4.880000 0.840000 -0.109936 -68.715973 4721.896973
7.040000 4.880000 0.880000 7.593163 -81.824554 6752.914062
7.040000 4.880000 0.920000 34.758217 -94.874710 10209.344727
7.040000 4.880000 0.960000 76.357529 -84.801369 13021.744141
7.040000 4.880000 1.000000 106.170532 -42.870525 13110.063477
7.040000 4.880000 1.040000 99.693642 11.875511 10079.849609
7.040000 4.880000 1.080000 58.415543 46.293171 5555.433594
7.040000 4.880000 1.120000 10.605453 41.855461 1864.355225
7.040000 4.880000 1.160000 -13.048840 10.485988 280.228149
7.040000 4.880000 1.200000 -5.463353 -17.845291 348.302643
7.040000 4.920000 0.800000 28.233341 -56.476688 3986.737793
7.040000 4.920000 0.840000 22.948780 -69.803894 5399.229980
7.040000 4.920000 0.880000 44.690479 -98.073181 11615.587891
7.040000 4.920000 0.920000 100.819534 -104.011421 20982.953125
7.040000 4.920000 0.960000 158.310257 -58.926613 28534.482422
7.040000 4.920000 1.000000 170.197525 23.338776 29511.896484
7.040000 4.920000 1.040000 120.327759 92.666962 23065.935547
7.040000 4.920000 1.080000 41.367714 105.769966 12898.574219
7.040000 4.920000 1.120000 -13.196650 64.434593 4325.968262
7.040000 4.920000 1.160000 -16.055992 11.399776 387.749817
7.040000 4.920000 1.200000 13.719470 -11.019841 309.660767
7.040000 4.960000 0.800000 47.152237 -30.263010 3139.183350
7.040000 4.960000 0.840000 48.933411 -57.479671 5698.391602
7.040000 4.960000 0.880000 94.861458 -80.850029 15535.423828
7.040000 4.960000 0.920000 165.098236 -53.261101 30094.171875
7.040000 4.960000 0.960000 202.137238 33.520279 41983.070312
7.040000 4.960000 1.000000 163.752655 131.420151 44086.187500
7.040000 4.960000 1.040000 66.620705 174.776260 34985.058594
7.040000 4.960000 1.080000 -24.911598 139.200684 19997.417969
7.040000 4.960000 1.120000 -55.497498 62.565727 6994.442383
7.040000 4.960000 1.160000 -25.484123 7.724936 709.115173
7.040000 4.960000 1.200000 16.963482 5.095245 313.721222
7.040000 5.000000 0.800000 48.248512 -0.065514 2327.923340
7.040000 5.000000 0.840000 66.109116 -28.258125 5168.936523
7.040000 5.000000 0.880000 123.883896 -26.450155 16046.830078
7.040000 5.000000 0.920000 175.566238 37.573524 32235.273438
7.040000 5.000000 0.960000 162.978683 138.492126 45742.117188
7.040000 5.000000 1.000000 74.190926 207.933212 48740.515625
7.040000 5.000000 1.040000 -38.687618 194.732544 39417.492188
7.040000 5.000000 1.080000 -103.140991 112.301979 23249.798828
7.040000 5.000000 1.120000 -89.673447 25.731754 8703.450195
7.040000 5.000000 1.160000 -33.168655 -8.260162 1168.389893
7.040000 5.000000 1.200000 6.445740 11.279477 168.774170
7.040000 5.040000 0.800000 33.589592 23.949474 1701.838135
7.040000 5.040000 0.840000 61.185188 8.497930 3815.842041
7.040000 5.040000 0.880000 106.483093 36.392708 12663.078125
7.040000 5.040000 0.920000 117.328232 111.154884 26121.322266
7.040000 5.040000 0.960000 59.462074 184.869080 37712.316406
7.040000 5.040000 1.000000 -44.214050 197.429443 40933.269531
7.040000 5.040000 1.040000 -128.079803 132.632385 33995.785156
7.040000 5.040000 1.080000 -140.600586 35.107300 21001.046875
7.040000 5.040000 1.120000 -88.413177 -29.511703 8687.831055
7.040000 5.040000 1.160000 -25.327736 -31.917168 1660.199707
7.040000 5.040000 1.200000 0.490107 1.725080 3.216105
7.040000 5.080000 0.800000 9.859856 34.700027 1301.308716
7.040000 5.080000 0.840000 33.052132 33.440643 2210.719971
7.040000 5.080000 0.880000 51.614784 68.156479 7309.391602
7.040000 5.080000 0.920000 28.947895 120.844330 15441.333008
7.040000 5.080000 0.960000 -39.386948 145.760773 22797.535156
7.040000 5.080000 1.000000 -114.412895 111.093040 25431.974609
7.040000 5.080000 1.040000 -145.061905 31.280540 22021.429688
7.040000 5.080000 1.080000 -113.059814 -43.124443 14642.239258
7.040000 5.080000 1.120000 -47.857727 -69.060959 7059.778320
7.040000 5.080000 1.160000 2.075323 -45.795559 2101.540039
7.040000 5.080000 1.200000 12.039456 -8.688425 220.437256
7.040000 5.120000 0.800000 -13.321223 29.933424 1073.464844
7.040000 5.120000 0.840000 -2.230726 32.467823 1059.135742
7.040000 5.120000 0.880000 -3.071949 52.705616 2787.318604
7.040000 5.120000 0.920000 -30.338978 70.545578 5897.132324
7.040000 5.120000 0.960000 -73.229118 60.144676 8979.885742
7.040000 5.120000 1.000000 -101.335503 15.548920 10510.652344
7.040000 5.120000 1.040000 -90.576767 -40.452904 9840.587891
7.040000 5.120000 1.080000 -44.983936 -74.000488 7499.626953
7.040000 5.120000 1.120000 6.501337 -68.085373 4677.885742
7.040000 5.120000 1.160000 34.668983 -34.641403 2401.965332
7.040000 5.120000 1.200000 32.372799 -0.944328 1048.889893
7.040000 5.160000 0.800000 -26.498749 14.093931 900.822632
7.040000 5.160000 0.840000 -22.963362 10.032557 627.968140
7.040000 5.160000 0.880000 -23.708794 10.660442 675.751892
7.040000 5.160000 0.920000 -31.249258 8.020218 1040.839966
7.040000 5.160000 0.960000 -39.172932 -4.915787 1558.683472
7.040000 5.160000 1.000000 -36.561832 -26.439552 2035.817505
7.040000 5.160000 1.040000 -17.474609 -45.351372 2362.108887
7.040000 5.160000 1.080000 12.619373 -48.641655 2525.259033
7.040000 5.160000 1.120000 39.384392 -31.605204 2550.019287
7.040000 5.160000 1.160000 49.343941 -1.901984 2438.441895
7.040000 5.160000 1.200000 38.951500 25.618826 2173.543457
7.040000 5.200000 0.800000 -25.713467 -2.550751 667.688721
7.040000 5.200000 0.840000 -20.224483 -13.918648 602.758484
7.040000 5.200000 0.880000 -8.330363 -21.147179 516.598083
7.040000 5.200000 0.920000 5.296568 -20.255661 438.345428
7.040000 5.200000 0.960000 14.285165 -13.116817 376.116821
7.040000 5.200000 1.000000 17.140862 -6.148952 331.618774
7.040000 5.200000 1.040000 18.991905 -3.169065 370.735443
7.040000 5.200000 1.080000 25.330566 -0.300545 641.727905
7.040000 5.200000 1.120000 33.970337 10.209229 1258.212158
7.040000 5.200000 1.160000 34.869308 30.169548 2126.070312
7.040000 5.200000 1.200000 19.627926 50.132759 2898.548828
7.080000 4.800000 0.800000 -40.435497 -41.121841 3326.035156
7.080000 4.800000 0.840000 -12.806445 -52.780273 2949.762451
7.080000 4.800000 0.880000 16.271873 -43.371021 2145.819336
7.080000 4.800000 0.920000 30.954369 -18.279142 1292.299927
7.080000 4.800000 0.960000 25.623722 6.880862 703.921387
7.080000 4.800000 1.000000 8.675568 19.042259 437.873108
7.080000 4.800000 1.040000 -6.188704 17.533237 345.714478
7.080000 4.800000 1.080000 -12.403529 11.734867 291.554626
7.080000 4.800000 1.120000 -14.354143 9.775518 301.602173
7.080000 4.800000 1.160000 -19.679701 10.418410 495.833893
7.080000 4.800000 1.200000 -29.204039 6.234541 891.745361
7.080000 4.840000 0.800000 -15.091194 -62.836647 4176.188477
7.080000 4.840000 0.840000 7.632469 -63.906128 4142.247559
7.080000 4.840000 0.880000 27.820942 -54.498436 3744.084473
7.080000 4.840000 0.920000 41.027344 -37.507492 3090.054932
7.080000 4.840000 0.960000 44.903187 -17.167244 2311.010498
7.080000 4.840000 1.000000 39.115704 1.941074 1533.806030
7.080000 4.840000 1.040000 25.291897 15.393848 876.650635
7.080000 4.840000 1.080000 7.235500 19.720303 441.242798
7.080000 4.840000 1.120000 -9.437504 13.902914 282.357483
7.080000 4.840000 1.160000 -19.176662 0.649994 368.166870
7.080000 4.840000 1.200000 -19.336315 -14.213883 575.927612
7.080000 4.880000 0.800000 20.605091 -64.099380 4533.300293
7.080000 4.880000 0.840000 34.529213 -63.326710 5202.539062
7.080000 4.880000 0.880000 53.575539 -60.434410 6522.656250
7.080000 4.880000 0.920000 76.802284 -45.691643 7986.317383
7.080000 4.880000 0.960000 91.565048 -13.979050 8579.572266
7.080000 4.880000 1.000000 83.420776 25.054523 7586.754883
7.080000 4.880000 1.040000 51.226715 51.123329 5237.770996
7.080000 4.880000 1.080000 11.650063 49.620674 2597.935059
7.080000 4.880000 1.120000 -12.955921 24.752161 780.525391
7.080000 4.880000 1.160000 -12.572210 -3.753386 172.148376
7.080000 4.880000 1.200000 3.575126 -17.577801 321.760590
7.080000 4.920000 0.800000 50.306576 -42.537987 4340.231934
7.080000 4.920000 0.840000 60.436218 -46.679947 5831.553711
7.080000 4.920000 0.880000 87.545082 -45.351631 9720.912109
7.080000 4.920000 0.920000 120.170662 -17.661520 14752.917969
7.080000 4.920000 0.960000 129.369904 36.692677 18082.925781
7.080000 4.920000 1.000000 96.553909 89.723373 17372.941406
7.080000 4.920000 1.040000 35.299706 106.975670 12689.863281
7.080000 4.920000 1.080000 -16.838745 78.977203 6520.941895
7.080000 4.920000 1.120000 -30.368591 30.647333 1861.510376
7.080000 4.920000 1.160000 -8.725609 -1.347545 77.952126
7.080000 4.920000 1.200000 18.251663 -1.109692 334.354614
7.080000 4.960000 0.800000 60.563457 -7.537868 3724.751709
7.080000 4.960000 0.840000 74.119896 -15.150383 5723.292969
7.080000 4.960000 0.880000 108.356453 -3.802519 11755.580078
7.080000 4.960000 0.920000 134.235016 45.028305 20046.587891
7.080000 4.960000 0.960000 115.923233 112.749596 26150.667969
7.080000 4.960000 1.000000 49.140617 154.030579 26140.220703
7.080000 4.960000 1.040000 -28.364685 137.518707 19715.949219
7.080000 4.960000 1.080000 -67.928406 76.599091 10481.689453
7.080000 4.960000 1.120000 -53.133125 18.150639 3152.574707
7.080000 4.960000 1.160000 -12.178163 -0.304912 148.400620
7.080000 4.960000 1.200000 12.163361 17.640694 459.141418
7.080000 5.000000 0.800000 47.723557 25.249010 2915.050293
7.080000 5.000000 0.840000 65.986664 20.837099 4788.424316
7.080000 5.000000 0.880000 95.223740 47.446178 11318.700195
7.080000 5.000000 0.920000 96.281860 106.976364 20714.138672
7.080000 5.000000 0.960000 44.522900 161.521484 28071.478516
7.080000 5.000000 1.000000 -39.344769 165.218933 28845.306641
7.080000 5.000000 1.040000 -102.442963 108.976318 22370.398438
7.080000 5.000000 1.080000 -106.548622 31.953516 12373.635742
7.080000 5.000000 1.120000 -62.237385 -13.441376 4054.162842
7.080000 5.000000 1.160000 -16.110744 -8.501253 331.827393
7.080000 5.000000 1.200000 -4.871875 19.549671 405.924805
7.080000 5.040000 0.800000 19.217966 42.006886 2133.908691
7.080000 5.040000 0.840000 36.597332 44.490883 3318.803223
7.080000 5.040000 0.880000 48.838326 78.019562 8472.234375
7.080000 5.040000 0.920000 22.895084 125.458054 16263.908203
7.080000 5.040000 0.960000 -43.282360 144.344711 22708.759766
7.080000 5.040000 1.000000 -111.340858 107.515373 23956.343750
7.080000 5.040000 1.040000 -134.653229 32.671951 19198.949219
7.080000 5.040000 1.080000 -101.260956 -30.975458 11213.259766
7.080000 5.040000 1.120000 -44.195740 -46.884048 4151.377441
7.080000 5.040000 1.160000 -8.918453 -22.145100 569.944214
7.080000 5.040000 1.200000 -11.418423 4.875888 154.154648
7.080000 5.080000 0.800000 -10.559961 37.470963 1515.585815
7.080000 5.080000 0.840000 0.106291 43.388702 1882.590820
7.080000 5.080000 0.880000 -4.467073 68.455231 4706.073242
7.080000 5.080000 0.920000 -39.774731 87.837242 9297.410156
7.080000 5.080000 0.960000 -90.158363 72.280228 13352.960938
7.080000 5.080000 1.000000 -119.125885 19.111053 14556.208984
7.080000 5.080000 1.040000 -102.747391 -41.144928 12249.931641
7.080000 5.080000 1.080000 -52.694649 -70.900589 7803.619629
7.080000 5.080000 1.120000 -5.412599 -58.761810 3482.246582
7.080000 5.080000 1.160000 11.502023 -26.954531 858.843262
7.080000 5.080000 1.200000 1.763905 -6.848060 50.007278
7.080000 5.120000 0.800000 -27.761400 17.419325 1074.128174
7.080000 5.120000 0.840000 -23.590401 20.104902 960.714111
7.080000 5.120000 0.880000 -32.372654 28.046101 1834.572510
7.080000 5.120000 0.920000 -54.056046 23.761036 3486.643066
7.080000 5.120000 0.960000 -71.432396 -2.287895 5107.821777
7.080000 5.120000 1.000000 -65.468872 -39.608913 5855.039062
7.080000 5.120000 1.040000 -33.968666 -65.139099 5396.972168
7.080000 5.120000 1.080000 5.269127 -63.392746 4046.403809
7.080000 5.120000 1.120000 29.963934 -39.463066 2455.170898
7.080000 5.120000 1.160000 31.934113 -12.662382 1180.123413
7.080000 5.120000 1.200000 20.908588 1.655365 439.909302
7.080000 5.160000 0.800000 -26.741688 -4.603050 736.305908
7.080000 5.160000 0.840000 -23.637829 -8.094294 624.264526
7.080000 5.160000 0.880000 -23.182373 -12.306667 688.876465
7.080000 5.160000 0.920000 -21.697842 -20.607883 895.481201
7.080000 5.160000 0.960000 -13.977102 -30.933128 1152.217896
7.080000 5.160000 1.000000 1.210655 -37.063332 1375.156250
7.080000 5.160000 1.040000 19.397118 -33.786942 1517.805542
7.080000 5.160000 1.080000 33.603958 -20.914713 1566.651123
7.080000 5.160000 1.120000 38.957729 -2.978786 1526.577881
7.080000 5.160000 1.160000 34.804588 14.077045 1409.522583
7.080000 5.160000 1.200000 23.710604 25.794750 1227.561890
7.080000 5.200000 0.800000 -13.456522 -15.624326 425.197540
7.080000 5.200000 0.840000 -6.938060 -22.528214 555.657104
7.080000 5.200000 0.880000 5.832452 -26.629189 743.131226
7.080000 5.200000 0.920000 21.287397 -21.899258 932.730774
7.080000 5.200000 0.960000 31.265263 -8.304935 1046.488647
7.080000 5.200000 1.000000 31.166496 6.844448 1018.196960
7.080000 5.200000 1.040000 24.840454 16.075329 875.464355
7.080000 5.200000 1.080000 20.013586 19.479671 780.001221
7.080000 5.200000 1.120000 19.077244 23.804541 930.597351
7.080000 5.200000 1.160000 15.981172 33.360287 1368.306519
7.080000 5.200000 1.200000 3.566669 43.072937 1867.999023
7.120000 4.800000 0.800000 -24.815548 -39.063156 2141.741699
7.120000 4.800000 0.840000 -0.050743 -44.480045 1978.477051
7.120000 4.800000 0.880000 24.486969 -30.390944 1523.221069
7.120000 4.800000 0.920000 32.859486 -2.364128 1085.334961
7.120000 4.800000 0.960000 19.709450 22.601002 899.267700
7.120000 4.800000 1.000000 -4.502476 30.103813 926.511841
7.120000 4.800000 1.040000 -22.924976 20.296551 937.504517
7.120000 4.800000 1.080000 -27.283152 5.865034 778.768982
7.120000 4.800000 1.120000 -23.403215 -1.489791 549.929993
7.120000 4.800000 1.160000 -22.419809 -1.956784 506.476868
7.120000 4.800000 1.200000 -27.652681 -4.957299 789.245605
7.120000 4.840000 0.800000 1.606934 -54.841393 3010.160645
7.120000 4.840000 0.840000 25.700855 -50.624748 3223.399170
7.120000 4.840000 0.880000 44.205193 -31.217728 2928.645508
7.120000 4.840000 0.920000 47.089520 -3.988989 2233.334961
7.120000 4.840000 0.960000 33.149906 18.175142 1429.252075
7.120000 4.840000 1.000000 10.994171 26.025614 798.204346
7.120000 4.840000 1.040000 -7.838240 19.873535 456.395386
7.120000 4.840000 1.080000 -17.165501 7.285200 347.728546
7.120000 4.840000 1.120000 -18.469074 -4.385277 360.337341
7.120000 4.840000 1.160000 -16.282749 -13.096769 436.653290
7.120000 4.840000 1.200000 -12.463202 -20.616833 580.385193
7.120000 4.880000 0.800000 35.610497 -48.547234 3624.941406
7.120000 4.880000 0.840000 53.722137 -37.626553 4301.825684
7.120000 4.880000 0.880000 66.342712 -17.109367 4694.085938
7.120000 4.880000 0.920000 67.011353 9.583570 4582.366211
7.120000 4.880000 0.960000 52.250584 33.825104 3874.261230
7.120000 4.880000 1.000000 25.955778 45.344563 2729.831787
7.120000 4.880000 1.040000 -0.855892 39.009422 1522.467529
7.120000 4.880000 1.080000 -16.290154 19.277073 636.974609
7.120000 4.880000 1.120000 -15.482242 -2.286533 244.928040
7.120000 4.880000 1.160000 -3.402328 -15.030043 237.478012
7.120000 4.880000 1.200000 9.916860 -16.175238 359.982422
7.120000 4.920000 0.800000 58.682678 -19.624472 3828.776611
7.120000 4.920000 0.840000 69.279022 -6.892324 4847.086914
7.120000 4.920000 0.880000 77.844513 13.623844 6245.376953
7.120000 4.920000 0.920000 75.200958 42.787281 7485.935547
7.120000 4.920000 0.960000 52.883186 70.101967 7710.916992
7.120000 4.920000 1.000000 15.179623 78.854202 6448.406250
7.120000 4.920000 1.040000 -19.428928 61.038109 4103.133789
7.120000 4.920000 1.080000 -31.740582 27.184515 1746.462402
7.120000 4.920000 1.120000 -18.420155 -0.501188 339.553284
7.120000 4.920000 1.160000 4.977109 -6.621067 68.610138
7.120000 4.920000 1.200000 18.364246 4.974969 361.995850
7.120000 4.960000 0.800000 57.176331 18.213078 3600.849121
7.120000 4.960000 0.840000 61.762253 29.143869 4663.940918
7.120000 4.960000 0.880000 65.887680 50.219219 6863.156250
7.120000 4.960000 0.920000 54.515629 80.750916 9492.664062
7.120000 4.960000 0.960000 19.171392 102.839821 10943.570312
7.120000 4.960000 1.000000 -27.282328 96.014801 9963.166992
7.120000 4.960000 1.040000 -57.336609 59.140236 6785.054199
7.120000 4.960000 1.080000 -53.061478 15.661219 3060.794189
7.120000 4.960000 1.120000 -23.679750 -5.831197 594.733459
7.120000 4.960000 1.160000 2.632161 2.621707 13.801620
7.120000 4.960000 1.200000 5.432710 22.434097 532.803040
7.120000 5.000000 0.800000 31.640600 45.216125 3045.625488
7.120000 5.000000 0.840000 32.421043 52.818871 3840.957031
7.120000 5.000000 0.880000 29.835651 72.647858 6167.877441
7.120000 5.000000 0.920000 7.116161 96.523949 9367.512695
7.120000 5.000000 0.960000 -36.008320 101.234444 11545.011719
7.120000 5.000000 1.000000 -76.120827 72.370934 11031.932617
7.120000 5.000000 1.040000 -85.458191 23.095230 7836.492188
7.120000 5.000000 1.080000 -59.288010 -14.401533 3722.472168
7.120000 5.000000 1.120000 -22.114639 -18.211796 820.726807
7.120000 5.000000 1.160000 -4.645946 2.918550 30.102747
7.120000 5.000000 1.200000 -14.540982 19.775459 602.508972
7.120000 5.040000 0.800000 -3.218997 48.180786 2331.750244
7.120000 5.040000 0.840000 -4.509079 51.914001 2715.395264
7.120000 5.040000 0.880000 -13.657285 65.391907 4462.623047
7.120000 5.040000 0.920000 -41.226524 73.617264 7119.127930
7.120000 5.040000 0.960000 -76.456970 57.213089 9119.005859
7.120000 5.040000 1.000000 -93.531174 15.751478 8996.189453
7.120000 5.040000 1.040000 -76.814415 -26.834288 6620.533691
7.120000 5.040000 1.080000 -38.470314 -43.040051 3332.411133
7.120000 5.040000 1.120000 -8.357618 -28.212233 865.779846
7.120000 5.040000 1.160000 -5.445116 -4.600974 50.818245
7.120000 5.040000 1.200000 -20.382992 1.777474 418.625763
7.120000 5.080000 0.800000 -28.066904 28.782000 1616.154541
7.120000 5.080000 0.840000 -29.752335 28.388264 1691.094971
7.120000 5.080000 0.880000 -40.088329 31.276796 2585.312012
7.120000 5.080000 0.920000 -59.403496 23.293589 4071.366699
7.120000 5.080000 0.960000 -72.489204 -2.949181 5263.382324
7.120000 5.080000 1.000000 -63.227341 -36.210457 5308.893555
7.120000 5.080000 1.040000 -32.816971 -54.782532 4078.079346
7.120000 5.080000 1.080000 -1.125483 -47.380341 2246.163330
7.120000 5.080000 1.120000 11.612583 -24.713097 745.589233
7.120000 5.080000 1.160000 4.062716 -8.766970 93.365417
7.120000 5.080000 1.200000 -6.401915 -10.783131 157.260422
7.120000 5.120000 0.800000 -31.546278 1.917870 998.845886
7.120000 5.120000 0.840000 -31.747950 -2.107147 1012.372375
7.120000 5.120000 0.880000 -35.506023 -8.270121 1329.072632
7.120000 5.120000 0.920000 -37.115959 -21.759581 1851.073853
7.120000 5.120000 0.960000 -27.917625 -38.594913 2268.961182
7.120000 5.120000 1.000000 -7.020901 -47.439659 2299.814209
7.120000 5.120000 1.040000 15.377604 -40.636070 1887.760864
7.120000 5.120000 1.080000 26.641335 -22.663429 1223.391724
7.120000 5.120000 1.120000 23.574152 -6.435587 597.157471
7.120000 5.120000 1.160000 14.933708 -0.963778 223.944504
7.120000 5.120000 1.200000 11.823090 -3.311094 150.748795
7.120000 5.160000 0.800000 -17.251320 -14.959831 521.404602
7.120000 5.160000 0.840000 -14.745831 -21.061863 661.041626
7.120000 5.160000 0.880000 -7.901643 -29.072762 907.661438
7.120000 5.160000 0.920000 5.805507 -33.756592 1173.211304
7.120000 5.160000 0.960000 22.316063 -29.012520 1339.732910
7.120000 5.160000 1.000000 33.190296 -14.766548 1319.646606
7.120000 5.160000 1.040000 33.213509 1.691769 1105.999268
7.120000 5.160000 1.080000 25.373846 12.057026 789.203979
7.120000 5.160000 1.120000 17.617668 14.492917 520.426880
7.120000 5.160000 1.160000 14.768819 14.323849 423.290649
7.120000 5.160000 1.200000 14.305328 17.304264 504.079987
7.120000 5.200000 0.800000 -0.009064 -14.039561 197.109360
7.120000 5.200000 0.840000 5.018141 -20.626497 450.634125
7.120000 5.200000 0.880000 19.653782 -23.155670 922.456177
7.120000 5.200000 0.920000 36.565201 -12.272599 1487.630615
7.120000 5.200000 0.960000 42.428200 10.035324 1900.859863
7.120000 5.200000 1.000000 31.551014 30.423759 1921.071655
7.120000 5.200000 1.040000 12.412477 36.726871 1502.932617
7.120000 5.200000 1.080000 -0.574688 29.864567 892.222595
7.120000 5.200000 1.120000 -1.544164 22.068190 489.389435
7.120000 5.200000 1.160000 1.757851 23.252651 543.775818
7.120000 5.200000 1.200000 -2.202930 30.471058 933.338257
7.160000 4.800000 0.800000 -18.931978 -31.913261 1376.875977
7.160000 4.800000 0.840000 1.916319 -34.473976 1192.127319
7.160000 4.800000 0.880000 20.889879 -18.154743 765.981750
7.160000 4.800000 0.920000 21.489128 9.180889 546.071350
7.160000 4.800000 0.960000 1.013155 28.124756 792.028381
7.160000 4.800000 1.000000 -25.545504 25.308117 1293.073486
7.160000 4.800000 1.040000 -39.131088 5.771558 1564.552979
7.160000 4.800000 1.080000 -34.170258 -12.776301 1330.840332
7.160000 4.800000 1.120000 -22.066999 -17.861317 805.979126
7.160000 4.800000 1.160000 -17.438107 -13.538708 487.384155
7.160000 4.800000 1.200000 -22.171314 -13.628796 677.311218
7.160000 4.840000 0.800000 7.055088 -43.578594 1948.868164
7.160000 4.840000 0.840000 28.426294 -33.683872 1942.657471
7.160000 4.840000 0.880000 37.823654 -8.903145 1509.894775
7.160000 4.840000 0.920000 26.606281 16.307690 973.834961
7.160000 4.840000 0.960000 1.475502 25.862455 671.043701
7.160000 4.840000 1.000000 -20.862812 15.595521 678.477173
7.160000 4.840000 1.040000 -28.001827 -4.130361 801.162231
7.160000 4.840000 1.080000 -21.184412 -18.961714 808.325928
7.160000 4.840000 1.120000 -11.212888 -23.290176 668.161133
7.160000 4.840000 1.160000 -6.138726 -22.726799 554.191345
7.160000 4.840000 1.200000 -3.957550 -25.021271 641.726196
7.160000 4.880000 0.800000 37.584251 -31.897419 2430.021240
7.160000 4.880000 0.840000 49.603546 -11.757115 2598.741455
7.160000 4.880000 0.880000 45.796104 12.879856 2263.173828
7.160000 4.880000 0.920000 27.133350 29.411076 1601.229980
7.160000 4.880000 0.960000 3.529486 30.093296 918.063721
7.160000 4.880000 1.000000 -13.168303 16.866327 457.877197
7.160000 4.880000 1.040000 -16.887983 -1.142838 286.510071
7.160000 4.880000 1.080000 -9.851918 -14.655495 311.843811
7.160000 4.880000 1.120000 1.121738 -19.871981 396.153931
7.160000 4.880000 1.160000 10.443904 -18.721146 459.556427
7.160000 4.880000 1.200000 16.721588 -14.910448 501.932983
7.160000 4.920000 0.800000 52.445690 0.499115 2750.799561
7.160000 4.920000 0.840000 49.947975 21.760206 2968.306885
7.160000 4.920000 0.880000 36.286610 38.049011 2764.445312
7.160000 4.920000 0.920000 16.567585 44.367432 2242.953857
7.160000 4.920000 0.960000 -2.776598 39.300480 1552.237183
7.160000 4.920000 1.000000 -15.415494 24.906601 857.976196
7.160000 4.920000 1.040000 -16.857826 6.889738 331.654785
7.160000 4.920000 1.080000 -7.199356 -6.703395 96.766235
7.160000 4.920000 1.120000 7.498027 -9.641189 149.172913
7.160000 4.920000 1.160000 18.258842 -2.141459 337.971161
7.160000 4.920000 1.200000 19.601439 8.837921 462.325256
7.160000 4.960000 0.800000 40.093941 35.393112 2860.196289
7.160000 4.960000 0.840000 26.166744 47.873154 2976.537354
7.160000 4.960000 0.880000 9.874121 52.417175 2845.058594
7.160000 4.960000 0.920000 -6.368101 50.429893 2583.726807
7.160000 4.960000 0.960000 -20.997145 41.303593 2146.866943
7.160000 4.960000 1.000000 -29.276699 24.782236 1471.284424
7.160000 4.960000 1.040000 -25.549828 6.201375 691.250732
7.160000 4.960000 1.080000 -10.568995 -4.189254 129.253494
7.160000 4.960000 1.120000 5.454751 0.144316 29.775141
7.160000 4.960000 1.160000 10.254530 14.148447 305.333954
7.160000 4.960000 1.200000 1.236879 24.236275 588.926880
7.160000 5.000000 0.800000 7.245589 51.615372 2716.645020
7.160000 5.000000 0.840000 -9.360735 50.925179 2680.997070
7.160000 5.000000 0.880000 -21.675808 45.407883 2531.716309
7.160000 5.000000 0.920000 -31.941269 37.540451 2429.530273
7.160000 5.000000 0.960000 -40.063854 24.838970 2222.086914
7.160000 5.000000 1.000000 -40.373451 7.289577 1683.153564
7.160000 5.000000 1.040000 -28.652954 -7.208132 872.948914
7.160000 5.000000 1.080000 -10.760044 -8.536664 188.653183
7.160000 5.000000 1.120000 -0.448482 3.832481 14.889048
7.160000 5.000000 1.160000 -6.173723 17.247581 335.593933
7.160000 5.000000 1.200000 -20.902603 17.099604 729.315308
7.160000 5.040000 0.800000 -25.507547 40.672203 2304.863037
7.160000 5.040000 0.840000 -36.497772 29.685543 2213.318848
7.160000 5.040000 0.880000 -41.195602 18.362066 2034.243164
7.160000 5.040000 0.920000 -43.259853 7.157172 1922.640015
7.160000 5.040000 0.960000 -41.434860 -6.039151 1753.318970
7.160000 5.040000 1.000000 -31.567284 -18.188629 1327.319580
7.160000 5.040000 1.040000 -15.219853 -21.248329 683.135437
7.160000 5.040000 1.080000 -2.606592 -11.611130 141.612656
7.160000 5.040000 1.120000 -3.709074 2.522918 20.122341
7.160000 5.040000 1.160000 -16.350821 6.791318 313.471344
7.160000 5.040000 1.200000 -25.810863 -4.599438 687.355530
7.160000 5.080000 0.800000 -38.904758 12.780409 1676.919067
7.160000 5.080000 0.840000 -41.149654 -1.768395 1696.421265
7.160000 5.080000 0.880000 -37.371719 -14.391905 1603.772339
7.160000 5.080000 0.920000 -29.432783 -24.584675 1470.694946
7.160000 5.080000 0.960000 -17.032410 -30.966631 1249.035156
7.160000 5.080000 1.000000 -2.016987 -29.596066 879.995361
7.160000 5.080000 1.040000 8.754942 -18.797020 429.976990
7.160000 5.080000 1.080000 8.130247 -4.590603 87.174561
7.160000 5.080000 1.120000 -2.799177 1.884895 11.388220
7.160000 5.080000 1.160000 -12.816885 -5.244744 191.779877
7.160000 5.080000 1.200000 -9.913270 -18.986515 458.760681
7.160000 5.120000 0.800000 -28.953903 -11.570860 972.213257
7.160000 5.120000 0.840000 -24.677158 -24.268551 1197.924805
7.160000 5.120000 0.880000 -13.439472 -34.327988 1359.030151
7.160000 5.120000 0.920000 3.191191 -37.303139 1401.707886
7.160000 5.120000 0.960000 19.791782 -29.672945 1272.198242
7.160000 5.120000 1.000000 28.260254 -13.064464 969.322144
7.160000 5.120000 1.040000 23.607122 4.041154 573.627136
7.160000 5.120000 1.080000 9.647131 11.241442 219.437149
7.160000 5.120000 1.120000 -2.196693 4.983236 29.658100
7.160000 5.120000 1.160000 -1.893006 -7.203096 55.468060
7.160000 5.120000 1.200000 10.039972 -12.412227 254.864410
7.160000 5.160000 0.800000 -8.526217 -17.595058 382.282471
7.160000 5.160000 0.840000 -1.760522 -27.209263 743.443420
7.160000 5.160000 0.880000 14.445687 -31.822216 1221.331299
7.160000 5.160000 0.920000 33.643921 -23.009964 1661.371826
7.160000 5.160000 0.960000 43.178352 -1.201613 1865.813965
7.160000 5.160000 1.000000 35.030029 21.761448 1700.663574
7.160000 5.160000 1.040000 14.436827 31.446133 1197.281250
7.160000 5.160000 1.080000 -3.359859 23.601151 568.302917
7.160000 5.160000 1.120000 -6.236938 8.321779 108.151398
7.160000 5.160000 1.160000 4.140254 0.839227 17.846004
7.160000 5.160000 1.200000 14.652937 7.642334 273.113831
7.160000 5.200000 0.800000 4.279545 -6.668018 62.776970
7.160000 5.200000 0.840000 11.503775 -15.059839 359.135590
7.160000 5.200000 0.880000 29.134539 -13.065650 1019.532593
7.160000 5.200000 0.920000 42.612347 6.406551 1856.856079
7.160000 5.200000 0.960000 36.882614 33.396458 2475.650635
7.160000 5.200000 1.000000 12.448210 48.437786 2501.177246
7.160000 5.200000 1.040000 -13.357617 41.096756 1867.369263
7.160000 5.200000 1.080000 -22.383377 20.392262 916.859863
7.160000 5.200000 1.120000 -12.776415 5.949140 198.629044
7.160000 5.200000 1.160000 0.348957 8.784050 77.281303
7.160000 5.200000 1.200000 1.067700 21.642143 469.522339
7.200000 4.800000 0.800000 -20.496540 -29.091480 1266.422363
7.200000 4.800000 0.840000 -2.860615 -31.537449 1002.793762
7.200000 4.800000 0.880000 11.028942 -16.263018 386.123322
7.200000 4.800000 0.920000 6.209494 5.819868 72.428680
7.200000 4.800000 0.960000 -15.473916 15.290573 473.243713
7.200000 4.800000 1.000000 -36.033154 3.454150 1310.319336
7.200000 4.800000 1.040000 -38.828270 -18.865015 1863.523315
7.200000 4.800000 1.080000 -24.737192 -32.567772 1672.588379
7.200000 4.800000 1.120000 -9.876512 -29.698446 979.543152
7.200000 4.800000 1.160000 -7.577255 -20.369087 472.314514
7.200000 4.800000 1.200000 -14.235867 -20.009716 603.048645
7.200000 4.840000 0.800000 5.084487 -37.917717 1463.605347
7.200000 4.840000 0.840000 20.866137 -26.310095 1127.616699
7.200000 4.840000 0.880000 21.510084 -5.065958 488.347656
7.200000 4.840000 0.920000 4.633472 9.082993 103.969818
7.200000 4.840000 0.960000 -16.894354 4.645434 306.999237
7.200000 4.840000 1.000000 -26.559689 -14.126551 904.976501
7.200000 4.840000 1.040000 -19.078260 -31.836456 1377.539917
7.200000 4.840000 1.080000 -3.810486 -36.826683 1370.724365
7.200000 4.840000 1.120000 6.129762 -31.064529 1002.578979
7.200000 4.840000 1.160000 7.162437 -25.506741 701.894348
7.200000 4.840000 1.200000 7.121592 -26.742512 765.878967
7.200000 4.880000 0.800000 31.765608 -22.722588 1525.369873
7.200000 4.880000 0.840000 33.751324 -2.615459 1145.992432
7.200000 4.880000 0.880000 19.827679 12.094465 539.412964
7.200000 4.880000 0.920000 0.281475 11.222448 126.022575
7.200000 4.880000 0.960000 -11.123209 -3.144046 133.610809
7.200000 4.880000 1.000000 -8.294274 -19.610672 453.373444
7.200000 4.880000 1.040000 3.842447 -27.749233 784.784363
7.200000 4.880000 1.080000 15.640533 -25.789865 909.743469
7.200000 4.880000 1.120000 21.602039 -19.375967 842.076172
7.200000 4.880000 1.160000 23.395615 -14.237884 750.072144
7.200000 4.880000 1.200000 25.433477 -10.702327 761.401550
7.200000 4.920000 0.800000 38.899651 9.847099 1610.148193
7.200000 4.920000 0.840000 23.860506 24.803076 1184.516357
7.200000 4.920000 0.880000 4.294282 23.620316 576.360168
7.200000 4.920000 0.920000 -6.552418 9.996922 142.872620
7.200000 4.920000 0.960000 -4.259439 -4.834836 41.518456
7.200000 4.920000 1.000000 6.002349 -12.223810 185.449738
7.200000 4.920000 1.040000 16.427805 -11.135589 393.874115
7.200000 4.920000 1.080000 22.899044 -5.388024 553.397034
7.200000 4.920000 1.120000 25.459473 1.588600 650.708374
7.200000 4.920000 1.160000 25.054604 8.603508 701.753479
7.200000 4.920000 1.200000 21.726374 14.985970 696.614624
7.200000 4.960000 0.800000 18.926624 38.189121 1816.625977
7.200000 4.960000 0.840000 -4.433102 36.548183 1355.421997
7.200000 4.960000 0.880000 -16.893009 19.938068 682.900330
7.200000 4.960000 0.920000 -13.296738 2.762327 184.433685
7.200000 4.960000 0.960000 -1.031856 -4.470767 21.052485
7.200000 4.960000 1.000000 9.835592 -1.703799 99.641808
7.200000 4.960000 1.040000 15.124779 5.324911 257.113586
7.200000 4.960000 1.080000 16.064102 12.684055 418.940643
7.200000 4.960000 1.120000 13.773869 19.843920 583.500610
7.200000 4.960000 1.160000 7.368340 25.685844 714.054993
7.200000 4.960000 1.200000 -2.435810 26.620361 714.576782
7.200000 5.000000 0.800000 -15.250943 42.655907 2052.117676
7.200000 5.000000 0.840000 -32.835995 23.687757 1639.312378
7.200000 5.000000 0.880000 -30.364773 0.755459 922.590149
7.200000 5.000000 0.920000 -14.426176 -10.640003 321.324219
7.200000 5.000000 0.960000 1.234232 -7.472806 57.366158
7.200000 5.000000 1.000000 8.426086 2.994144 79.963829
7.200000 5.000000 1.040000 7.730385 13.197390 233.929962
7.200000 5.000000 1.080000 2.490464 20.621323 431.441376
7.200000 5.000000 1.120000 -6.171079 24.735937 649.948792
7.200000 5.000000 1.160000 -17.226858 22.958742 823.868469
7.200000 5.000000 1.200000 -25.592686 13.059095 825.525513
7.200000 5.040000 0.800000 -40.198494 21.572292 2081.282715
7.200000 5.040000 0.840000 -42.913380 -5.159851 1868.182129
7.200000 5.040000 0.880000 -26.528479 -23.758759 1268.238770
7.200000 5.040000 0.920000 -4.649272 -24.778286 635.579163
7.200000 5.040000 0.960000 9.342721 -12.296730 238.496002
7.200000 5.040000 1.000000 11.032439 3.517575 134.088043
7.200000 5.040000 1.040000 3.422225 15.155893 241.412720
7.200000 5.040000 1.080000 -8.920082 19.598362 463.663666
7.200000 5.040000 1.120000 -21.866264 15.529861 719.310120
7.200000 5.040000 1.160000 -29.905151 3.023557 903.459961
7.200000 5.040000 1.200000 -26.943245 -13.128424 898.294006
7.200000 5.080000 0.800000 -40.847660 -7.821663 1729.709839
7.200000 5.080000 0.840000 -29.917019 -30.720812 1838.796387
7.200000 5.080000 0.880000 -6.511743 -39.256954 1583.511230
7.200000 5.080000 0.920000 15.251594 -29.998209 1132.503662
7.200000 5.080000 0.960000 24.484922 -10.078954 701.096741
7.200000 5.080000 1.000000 18.665138 9.327486 435.389404
7.200000 5.080000 1.040000 2.534056 19.258547 377.313080
7.200000 5.080000 1.080000 -15.358692 15.799534 485.514709
7.200000 5.080000 1.120000 -25.799824 0.957022 666.546814
7.200000 5.080000 1.160000 -22.487297 -17.333157 806.116821
7.200000 5.080000 1.200000 -6.315313 -27.886400 817.534485
7.200000 5.120000 0.800000 -21.869181 -24.237068 1065.696533
7.200000 5.120000 0.840000 -5.365401 -37.978786 1471.175659
7.200000 5.120000 0.880000 18.116684 -36.898781 1689.734253
7.200000 5.120000 0.920000 35.809010 -19.526562 1663.571777
7.200000 5.120000 0.960000 37.342396 5.707114 1427.025635
7.200000 5.120000 1.000000 21.444626 25.005840 1085.164062
7.200000 5.120000 1.040000 -2.553456 27.519857 763.862671
7.200000 5.120000 1.080000 -19.963322 12.568679 556.505920
7.200000 5.120000 1.120000 -20.141716 -9.259299 491.423340
7.200000 5.120000 1.160000 -3.978335 -22.789455 535.186401
7.200000 5.120000 1.200000 16.415699 -18.778122 622.093018
7.200000 5.160000 0.800000 -1.950514 -19.656672 390.189240
7.200000 5.160000 0.840000 13.109728 -26.747696 887.304199
7.200000 5.160000 0.880000 33.193665 -19.506721 1482.331543
7.200000 5.160000 0.920000 44.199944 3.233084 1964.087891
7.200000 5.160000 0.960000 35.284008 29.580971 2119.995117
7.200000 5.160000 1.000000 9.485250 42.118156 1863.909058
7.200000 5.160000 1.040000 -16.547596 32.074631 1302.604980
7.200000 5.160000 1.080000 -25.168154 7.635906 691.743042
7.200000 5.160000 1.120000 -12.303238 -12.047915 296.521912
7.200000 5.160000 1.160000 9.275553 -12.587476 244.480438
7.200000 5.160000 1.200000 21.148516 4.201792 464.914764
7.200000 5.200000 0.800000 3.111889 -4.029935 25.924229
7.200000 5.200000 0.840000 15.624303 -9.715010 338.500244
7.200000 5.200000 0.880000 31.874411 0.705959 1016.476379
7.200000 5.200000 0.920000 34.568550 25.114311 1825.713257
7.200000 5.200000 0.960000 15.524712 46.035198 2360.256104
7.200000 5.200000 1.000000 -14.260736 45.810699 2301.988770
7.200000 5.200000 1.040000 -33.024544 23.811268 1657.596924
7.200000 5.200000 1.080000 -27.966505 -1.874968 785.640930
7.200000 5.200000 1.120000 -7.055707 -10.817904 166.810043
7.200000 5.200000 1.160000 8.954250 1.279553 81.815857
7.200000 5.200000 1.200000 6.090582 20.036522 438.557404
