#kx 	ky 	kz 	real 	imag 	intensity
6.800000 4.800000 0.983333 -3.886697 -54.172722 2949.790283
6.800000 4.800000 0.991667 0.262306 -3.310129 11.025760
6.800000 4.800000 1.000000 -10.403798 -55.857910 3228.345215
6.800000 4.800000 1.008333 27.961233 -74.073006 6268.640625
6.800000 4.800000 1.016667 100.370583 -38.006725 11518.764648
6.800000 4.900000 0.983333 -87.330353 46.796017 9816.457031
6.800000 4.900000 0.991667 -43.874382 -56.786240 5149.638672
6.800000 4.900000 1.000000 48.860378 -1.408096 2389.319336
6.800000 4.900000 1.008333 -22.469673 35.245270 1747.115234
6.800000 4.900000 1.016667 -3.250261 -34.205303 1180.567017
6.800000 5.000000 0.983333 -83.857033 -128.855988 23635.867188
6.800000 5.000000 0.991667 137.432770 -106.566971 30244.285156
6.800000 5.000000 1.000000 34.439800 137.006592 19956.906250
6.800000 5.000000 1.008333 -82.571045 -62.369656 10707.951172
6.800000 5.000000 1.016667 104.032028 10.584943 10934.704102
6.800000 5.100000 0.983333 37.011055 -49.513454 3821.400391
6.800000 5.100000 0.991667 148.779755 166.557678 49876.875000
6.800000 5.100000 1.000000 -213.662964 104.202682 56510.062500
6.800000 5.100000 1.008333 12.673622 -64.003731 4257.098145
6.800000 5.100000 1.016667 -150.839767 66.594566 27187.470703
6.800000 5.200000 0.983333 -27.797352 -37.421135 2173.034180
6.800000 5.200000 0.991667 -94.741295 132.249603 26465.871094
6.800000 5.200000 1.000000 -118.715988 -140.325272 33784.667969
6.800000 5.200000 1.008333 -20.365927 -10.431023 523.577209
6.800000 5.200000 1.016667 -23.895573 -238.352936 57383.121094
6.900000 4.800000 0.983333 -53.778820 68.793129 7624.656250
6.900000 4.800000 0.991667 -26.299557 -158.108002 25689.806641
6.900000 4.800000 1.000000 72.814629 69.135681 10081.712891
6.900000 4.800000 1.008333 -73.217232 -74.802536 10956.182617
6.900000 4.800000 1.016667 110.339478 2.282257 12180.009766
6.900000 4.900000 0.983333 94.027092 -754.034302 577408.875000
6.900000 4.900000 0.991667 262.774628 145.711517 90282.351562
6.900000 4.900000 1.000000 -263.455139 -136.644501 88080.328125
6.900000 4.900000 1.008333 -73.202614 -357.920532 133465.734375
6.900000 4.900000 1.016667 267.970947 -508.710602 330594.906250
6.900000 5.000000 0.983333 1096.079834 25.971794 1202065.500000
6.900000 5.000000 0.991667 -198.332138 323.174744 143777.546875
6.900000 5.000000 1.000000 158.552917 -328.323486 132935.343750
6.900000 5.000000 1.008333 367.898773 -295.269562 222533.625000
6.900000 5.000000 1.016667 930.583130 222.294281 915399.687500
6.900000 5.100000 0.983333 142.594696 603.547424 384602.750000
6.900000 5.100000 0.991667 -231.231171 4.273163 53486.117188
6.900000 5.100000 1.000000 98.476601 -5.765690 9730.883789
6.900000 5.100000 1.008333 264.812531 98.821442 79891.359375
6.900000 5.100000 1.016667 -5.997448 573.605652 329059.406250
6.900000 5.200000 0.983333 117.417946 124.581055 29307.414062
6.900000 5.200000 0.991667 -215.251343 -5.053040 46358.675781
6.900000 5.200000 1.000000 73.400078 -155.733093 29640.367188
6.900000 5.200000 1.008333 55.279522 22.549524 3564.306396
6.900000 5.200000 1.016667 71.469604 8.681947 5183.280273
7.000000 4.800000 0.983333 -143.513535 -97.174965 30039.109375
7.000000 4.800000 0.991667 172.039856 -122.912994 44705.316406
7.000000 4.800000 1.000000 -33.304043 63.228798 5107.040039
7.000000 4.800000 1.008333 59.954769 -177.056061 34943.425781
7.000000 4.800000 1.016667 165.004913 58.867321 30691.982422
7.000000 4.900000 0.983333 1148.173218 16.901611 1318587.375000
7.000000 4.900000 0.991667 -202.241638 385.425293 189454.343750
7.000000 4.900000 1.000000 212.539856 -429.786713 229889.812500
7.000000 4.900000 1.008333 535.465027 -175.409271 317491.187500
7.000000 4.900000 1.016667 871.126709 320.918335 861850.312500
7.000000 5.000000 0.983333 111.893570 1626.027588 2656486.000000
7.000000 5.000000 0.991667 -505.390930 -358.710938 384093.531250
7.000000 5.000000 1.000000 613.649048 249.170700 438651.187500
7.000000 5.000000 1.008333 436.906494 469.819366 411617.500000
7.000000 5.000000 1.016667 -40.498718 1428.843506 2043233.875000
7.000000 5.100000 0.983333 -872.151550 283.871643 841231.437500
7.000000 5.100000 0.991667 107.517181 -301.559418 102498.031250
7.000000 5.100000 1.000000 -92.921516 257.387695 74882.828125
7.000000 5.100000 1.008333 -49.891418 327.044647 109447.359375
7.000000 5.100000 1.016667 -916.306396 228.519684 891838.687500
7.000000 5.200000 0.983333 -167.040207 199.572479 67731.609375
7.000000 5.200000 0.991667 -93.032761 -185.434158 43040.921875
7.000000 5.200000 1.000000 185.257324 -33.838661 35465.332031
7.000000 5.200000 1.008333 8.699833 159.539948 25528.681641
7.000000 5.200000 1.016667 -66.097435 -51.150047 6985.198242
7.100000 4.800000 0.983333 11.992401 -127.607376 16427.460938
7.100000 4.800000 0.991667 151.260895 19.247482 23250.322266
7.100000 4.800000 1.000000 -42.967358 96.854248 11226.939453
7.100000 4.800000 1.008333 62.944740 -68.953995 8716.693359
7.100000 4.800000 1.016667 74.602768 165.370331 32912.917969
7.100000 4.900000 0.983333 74.726570 743.869995 558926.625000
7.100000 4.900000 0.991667 -241.898712 -116.949005 72192.054688
7.100000 4.900000 1.000000 271.816406 87.668137 81569.859375
7.100000 4.900000 1.008333 228.791763 308.687775 147633.812500
7.100000 4.900000 1.016667 -159.955734 644.293518 440699.968750
7.100000 5.000000 0.983333 -1070.356079 160.057083 1171280.375000
7.100000 5.000000 0.991667 225.535950 -434.799286 239916.890625
7.100000 5.000000 1.000000 -57.941196 419.349182 179210.921875
7.100000 5.000000 1.008333 -240.082458 311.343597 154574.421875
7.100000 5.000000 1.016667 -867.165100 104.043121 762800.312500
7.100000 5.100000 0.983333 -202.911789 -571.560791 367854.937500
7.100000 5.100000 0.991667 280.639832 35.305367 80005.187500
7.100000 5.100000 1.000000 -108.451294 -28.399780 12568.231445
7.100000 5.100000 1.008333 -129.848633 59.071739 20350.138672
7.100000 5.100000 1.016667 -227.204346 -478.942139 281007.406250
7.100000 5.200000 0.983333 -122.554733 -60.473370 18676.691406
7.100000 5.200000 0.991667 125.572327 -82.484016 22572.021484
7.100000 5.200000 1.000000 104.403275 216.467743 57758.328125
7.100000 5.200000 1.008333 -186.037598 99.750244 44560.101562
7.100000 5.200000 1.016667 13.539413 -27.542351 941.896851
7.200000 4.800000 0.983333 64.890793 -57.725193 7543.012695
7.200000 4.800000 0.991667 90.286880 66.514008 12575.833984
7.200000 4.800000 1.000000 -139.550690 -25.238461 20111.375000
7.200000 4.800000 1.008333 126.632996 -108.894798 27893.992188
7.200000 4.800000 1.016667 -9.512735 102.777176 10653.639648
7.200000 4.900000 0.983333 -54.202251 -31.085144 3904.170166
7.200000 4.900000 0.991667 60.628075 4.416403 3695.268066
7.200000 4.900000 1.000000 43.476723 -5.072931 1915.960083
7.200000 4.900000 1.008333 30.769749 121.842125 15792.280273
7.200000 4.900000 1.016667 -84.862534 -26.205193 7888.361328
7.200000 5.000000 0.983333 90.843155 -153.914551 31942.167969
7.200000 5.000000 0.991667 154.519745 52.494057 26631.976562
7.200000 5.000000 1.000000 10.024841 80.973289 6657.171387
7.200000 5.000000 1.008333 -17.092867 21.430676 751.439941
7.200000 5.000000 1.016667 44.116753 25.607990 2602.057129
7.200000 5.100000 0.983333 133.625885 67.069351 22354.175781
7.200000 5.100000 0.991667 75.259987 144.432068 26524.687500
7.200000 5.100000 1.000000 -5.477163 151.773193 23065.101562
7.200000 5.100000 1.008333 -75.222282 113.946732 18642.250000
7.200000 5.100000 1.016667 -95.724808 70.112114 14078.947266
7.200000 5.200000 0.983333 -17.284443 51.621033 2963.482910
7.200000 5.200000 0.991667 5.547791 101.551399 10343.464844
7.200000 5.200000 1.000000 -195.735504 107.559052 49881.335938
7.200000 5.200000 1.008333 -128.635712 -102.066223 26964.660156
7.200000 5.200000 1.016667 -72.300385 -45.518120 7299.245117
