#kx 	ky 	kz 	real 	imag 	intensity
4.800000 4.800000 -5.200000 -11.745328 -29.731936 1021.940674
4.800000 4.800000 -5.160000 5.988064 -34.949245 1257.306641
4.800000 4.800000 -5.120000 20.771233 -24.925621 1052.730713
4.800000 4.800000 -5.080000 21.638561 -9.284882 554.436340
4.800000 4.800000 -5.040000 11.239569 -2.046391 130.515625
4.800000 4.800000 -5.000000 2.567491 -7.716282 66.133018
4.800000 4.800000 -4.960000 5.418638 -17.519892 336.308228
4.800000 4.800000 -4.920000 16.884808 -19.261122 656.087524
4.800000 4.800000 -4.880000 25.447556 -9.902823 745.643982
4.800000 4.800000 -4.840000 23.477419 2.321560 556.578857
4.800000 4.800000 -4.800000 14.468069 7.592321 266.968384
4.800000 4.840000 -5.200000 7.261335 -34.099693 1215.516113
4.800000 4.840000 -5.160000 24.181786 -33.223984 1688.591797
4.800000 4.840000 -5.120000 35.327076 -21.858297 1725.787476
4.800000 4.840000 -5.080000 36.071487 -8.665140 1376.236816
4.800000 4.840000 -5.040000 30.481497 -1.242397 930.665222
4.800000 4.840000 -5.000000 25.758076 -0.093004 663.487122
4.800000 4.840000 -4.960000 25.099697 -0.368705 630.130737
4.800000 4.840000 -4.920000 26.147903 1.850894 687.138611
4.800000 4.840000 -4.880000 25.313734 5.944834 676.126221
4.800000 4.840000 -4.840000 22.176956 8.918489 571.356812
4.800000 4.840000 -4.800000 19.147375 9.726303 461.222961
4.800000 4.880000 -5.200000 20.841789 -23.590099 990.872986
4.800000 4.880000 -5.160000 35.405922 -20.331120 1666.933838
4.800000 4.880000 -5.120000 45.549221 -8.845203 2152.968994
4.800000 4.880000 -5.080000 47.544407 5.879626 2295.040771
4.800000 4.880000 -5.040000 41.783363 18.291180 2080.416748
4.800000 4.880000 -5.000000 31.716328 24.670891 1614.578247
4.800000 4.880000 -4.960000 22.086811 24.297174 1078.179932
4.800000 4.880000 -4.920000 16.907671 19.668739 672.728638
4.800000 4.880000 -4.880000 17.317757 15.399981 537.064087
4.800000 4.880000 -4.840000 20.621933 15.486501 665.095825
4.800000 4.880000 -4.800000 21.954308 20.336258 895.554993
4.800000 4.920000 -5.200000 21.094103 -9.952816 544.019714
4.800000 4.920000 -5.160000 35.495972 -5.627418 1291.631836
4.800000 4.920000 -5.120000 45.427425 8.602718 2137.657715
4.800000 4.920000 -5.080000 44.365147 27.416330 2719.921387
4.800000 4.920000 -5.040000 31.531834 41.550301 2720.684082
4.800000 4.920000 -5.000000 13.792163 43.688877 2098.941895
4.800000 4.920000 -4.960000 1.660297 34.383347 1184.971069
4.800000 4.920000 -4.920000 1.357624 22.398293 503.526642
4.800000 4.920000 -4.880000 9.572227 17.942152 413.548340
4.800000 4.920000 -4.840000 16.231689 24.096672 844.117310
4.800000 4.920000 -4.800000 13.432043 34.403408 1364.014282
4.800000 4.960000 -5.200000 13.782230 -4.150174 207.173828
4.800000 4.960000 -5.160000 28.681948 3.991896 838.589355
4.800000 4.960000 -5.120000 34.355560 22.679802 1694.677979
4.800000 4.960000 -5.080000 24.830153 41.396069 2330.170898
4.800000 4.960000 -5.040000 5.004014 48.066189 2335.398438
4.800000 4.960000 -5.000000 -11.949358 39.117409 1672.958740
4.800000 4.960000 -4.960000 -15.173059 23.246462 770.619751
4.800000 4.960000 -4.920000 -5.561562 14.304393 235.546616
4.800000 4.960000 -4.880000 5.096764 19.135712 392.152466
4.800000 4.960000 -4.840000 5.022978 31.718479 1031.292236
4.800000 4.960000 -4.800000 -6.879628 39.409172 1600.412109
4.800000 5.000000 -5.200000 9.379816 -5.656990 119.982483
4.800000 5.000000 -5.160000 20.375557 8.446271 486.502808
4.800000 5.000000 -5.120000 16.616430 27.197752 1015.823486
4.800000 5.000000 -5.080000 -0.162212 36.770309 1352.082031
4.800000 5.000000 -5.040000 -17.231277 30.462854 1224.902344
4.800000 5.000000 -5.000000 -21.772646 15.145864 703.445312
4.800000 5.000000 -4.960000 -12.538912 5.245567 184.740280
4.800000 5.000000 -4.920000 -0.900633 9.409835 89.356133
4.800000 5.000000 -4.880000 0.075166 22.608755 511.161469
4.800000 5.000000 -4.840000 -12.049179 31.430939 1133.086670
4.800000 5.000000 -4.800000 -27.450050 27.174810 1491.975586
4.800000 5.040000 -5.200000 10.411578 -5.888470 143.075043
4.800000 5.040000 -5.160000 11.455523 10.054180 232.315552
4.800000 5.040000 -5.120000 -0.730224 19.667555 387.345947
4.800000 5.040000 -5.080000 -14.561521 14.890640 433.769043
4.800000 5.040000 -5.040000 -17.009926 1.568308 291.797180
4.800000 5.040000 -5.000000 -6.516830 -5.984207 78.279816
4.800000 5.040000 -4.960000 5.183718 0.830095 27.559988
4.800000 5.040000 -4.920000 4.625964 16.134100 281.708710
4.800000 5.040000 -4.880000 -10.021472 25.289022 739.964600
4.800000 5.040000 -4.840000 -27.301506 19.219563 1114.763794
4.800000 5.040000 -4.800000 -33.913998 2.808088 1158.044556
4.800000 5.080000 -5.200000 9.678766 -0.587171 94.023285
4.800000 5.080000 -5.160000 0.613614 7.613586 58.343220
4.800000 5.080000 -5.120000 -10.105273 2.217724 107.034851
4.800000 5.080000 -5.080000 -8.818981 -10.995213 198.669128
4.800000 5.080000 -5.040000 5.903519 -16.416821 304.363525
4.800000 5.080000 -5.000000 20.281744 -4.706982 433.504822
4.800000 5.080000 -4.960000 18.470695 16.426693 611.002808
4.800000 5.080000 -4.920000 -1.185099 28.683199 824.130371
4.800000 5.080000 -4.880000 -23.741226 20.752453 994.310120
4.800000 5.080000 -4.840000 -31.814669 -0.859383 1012.911682
4.800000 5.080000 -4.800000 -21.793922 -18.714142 825.194214
4.800000 5.120000 -5.200000 0.738719 3.965660 16.272161
4.800000 5.120000 -5.160000 -9.425506 -2.672824 95.984146
4.800000 5.120000 -5.120000 -6.244319 -18.299772 373.873169
4.800000 5.120000 -5.080000 13.443269 -25.143347 812.909363
4.800000 5.120000 -5.040000 34.209942 -10.430873 1279.123169
4.800000 5.120000 -5.000000 35.409668 18.523880 1596.978760
4.800000 5.120000 -4.960000 11.952353 38.872620 1653.939331
4.800000 5.120000 -4.920000 -19.074806 33.296970 1472.536499
4.800000 5.120000 -4.880000 -33.667892 6.641941 1177.642334
4.800000 5.120000 -4.840000 -22.998363 -18.937128 887.539551
4.800000 5.120000 -4.800000 -0.173473 -25.196831 634.910400
4.800000 5.160000 -5.200000 -12.283064 -1.781692 154.048080
4.800000 5.160000 -5.160000 -11.098241 -20.287552 534.755676
4.800000 5.160000 -5.120000 10.492931 -32.299728 1153.374023
4.800000 5.160000 -5.080000 38.559963 -20.050240 1888.882812
4.800000 5.160000 -5.040000 48.092735 13.835455 2504.331055
4.800000 5.160000 -5.000000 26.705122 45.051849 2742.832764
4.800000 5.160000 -4.960000 -11.529481 48.565704 2491.556641
4.800000 5.160000 -4.920000 -37.405491 22.022839 1884.176270
4.800000 5.160000 -4.880000 -32.909676 -11.935503 1225.502930
4.800000 5.160000 -4.840000 -6.550080 -27.010170 772.452820
4.800000 5.160000 -4.800000 16.963949 -16.636534 564.549805
4.800000 5.200000 -5.200000 -17.498692 -18.468128 647.275940
4.800000 5.200000 -5.160000 0.840040 -36.677395 1345.937012
4.800000 5.200000 -5.120000 32.726803 -32.334484 2116.562500
4.800000 5.200000 -5.080000 52.669571 -0.535798 2774.370850
4.800000 5.200000 -5.040000 40.594162 38.637794 3140.765137
4.800000 5.200000 -5.000000 2.003860 55.515617 3085.999268
4.800000 5.200000 -4.960000 -34.758766 37.328636 2601.599121
4.800000 5.200000 -4.920000 -43.053432 0.074710 1853.603638
4.800000 5.200000 -4.880000 -21.048409 -26.212360 1130.123291
4.800000 5.200000 -4.840000 8.869147 -24.350418 671.604614
4.800000 5.200000 -4.800000 22.516838 -2.784852 514.763367
4.840000 4.800000 -5.200000 26.553810 -21.194021 1154.291382
4.840000 4.800000 -5.160000 35.963547 -8.418445 1364.246948
4.840000 4.800000 -5.120000 32.337002 6.865725 1092.819824
4.840000 4.800000 -5.080000 19.644732 12.624992 545.305908
4.840000 4.800000 -5.040000 10.263738 6.365200 145.860077
4.840000 4.800000 -5.000000 12.139639 -2.502468 153.633179
4.840000 4.800000 -4.960000 20.807674 -2.964751 441.749054
4.840000 4.800000 -4.920000 24.827810 5.925438 651.531006
4.840000 4.800000 -4.880000 18.462397 14.595225 553.880676
4.840000 4.800000 -4.840000 7.645583 13.888889 251.356186
4.840000 4.800000 -4.800000 2.987961 5.043842 34.368256
4.840000 4.840000 -5.200000 33.192619 -5.233061 1129.134888
4.840000 4.840000 -5.160000 39.254921 3.910985 1556.244629
4.840000 4.840000 -5.120000 39.479271 15.150015 1788.135742
4.840000 4.840000 -5.080000 34.605129 24.652298 1805.250732
4.840000 4.840000 -5.040000 26.841169 30.930096 1677.119141
4.840000 4.840000 -5.000000 17.459536 33.778225 1445.803955
4.840000 4.840000 -4.960000 7.423717 32.279228 1097.060181
4.840000 4.840000 -4.920000 -0.574235 25.535748 652.404175
4.840000 4.840000 -4.880000 -2.643461 15.478249 246.564072
4.840000 4.840000 -4.840000 2.560289 7.533553 63.309502
4.840000 4.840000 -4.800000 11.025167 6.782511 167.556778
4.840000 4.880000 -5.200000 24.328312 9.407597 680.369629
4.840000 4.880000 -5.160000 33.953835 15.382234 1389.476074
4.840000 4.880000 -5.120000 39.506989 31.063129 2525.720215
4.840000 4.880000 -5.080000 32.475960 51.399651 3696.612061
4.840000 4.880000 -5.040000 10.909630 64.692902 4304.191406
4.840000 4.880000 -5.000000 -16.325573 60.489670 3925.524658
4.840000 4.880000 -4.960000 -33.994347 38.860462 2665.750977
4.840000 4.880000 -4.920000 -31.765614 12.410099 1163.064697
4.840000 4.880000 -4.880000 -13.056502 -2.401037 176.237244
4.840000 4.880000 -4.840000 7.130941 1.844690 54.253208
4.840000 4.880000 -4.800000 14.361588 17.886600 526.185669
4.840000 4.920000 -5.200000 8.681070 10.266482 180.761642
4.840000 4.920000 -5.160000 24.313049 20.615194 1016.110596
4.840000 4.920000 -5.120000 26.930645 46.560013 2893.094238
4.840000 4.920000 -5.080000 5.156558 71.421097 5127.563477
4.840000 4.920000 -5.040000 -33.222237 73.583603 6518.263672
4.840000 4.920000 -5.000000 -63.932209 45.761173 6181.412109
4.840000 4.920000 -4.960000 -65.203461 4.040521 4267.816895
4.840000 4.920000 -4.920000 -36.867790 -23.598629 1916.129272
4.840000 4.920000 -4.880000 -1.313498 -20.360802 416.287537
4.840000 4.920000 -4.840000 15.514364 5.748690 273.742920
4.840000 4.920000 -4.800000 5.737988 30.416149 958.066650
4.840000 4.960000 -5.200000 1.219554 -0.893452 2.285568
4.840000 4.960000 -5.160000 15.931335 20.518354 674.810303
4.840000 4.960000 -5.120000 4.524663 51.547134 2677.579834
4.840000 4.960000 -5.080000 -33.428520 64.551270 5284.332031
4.840000 4.960000 -5.040000 -73.040756 41.729908 7076.337402
4.840000 4.960000 -5.000000 -83.143417 -6.069341 6949.664551
4.840000 4.960000 -4.960000 -53.992874 -45.640049 4998.244629
4.840000 4.960000 -4.920000 -7.295090 -49.218578 2475.686768
4.840000 4.960000 -4.880000 22.135315 -18.365881 827.277710
4.840000 4.960000 -4.840000 16.346142 18.690964 616.548462
4.840000 4.960000 -4.800000 -12.339602 33.281872 1259.948730
4.840000 5.000000 -5.200000 7.109132 -10.302216 156.675400
4.840000 5.000000 -5.160000 9.630084 19.140160 459.084229
4.840000 5.000000 -5.120000 -18.003878 40.891499 1996.254272
4.840000 5.000000 -5.080000 -57.711521 29.964249 4228.475586
4.840000 5.000000 -5.040000 -75.994461 -12.499314 5931.391113
4.840000 5.000000 -5.000000 -53.744286 -56.445068 6074.494141
4.840000 5.000000 -4.960000 -5.298439 -67.848396 4631.478027
4.840000 5.000000 -4.920000 32.877068 -38.952839 2598.225098
4.840000 5.000000 -4.880000 34.078655 5.169080 1188.074097
4.840000 5.000000 -4.840000 3.620274 29.952288 910.245911
4.840000 5.000000 -4.800000 -29.160135 21.643322 1318.746826
4.840000 5.040000 -5.200000 16.496292 -7.553083 329.176727
4.840000 5.040000 -5.160000 2.320998 17.085407 297.298157
4.840000 5.040000 -5.120000 -29.891880 17.809856 1210.715454
4.840000 5.040000 -5.080000 -51.144447 -12.429044 2770.235596
4.840000 5.040000 -5.040000 -38.060898 -51.735092 4125.151855
4.840000 5.040000 -5.000000 3.790686 -66.830566 4480.693848
4.840000 5.040000 -4.960000 42.770016 -43.293346 3703.588135
4.840000 5.040000 -4.920000 48.945541 0.728075 2396.196045
4.840000 5.040000 -4.880000 20.453861 30.999847 1379.350952
4.840000 5.040000 -4.840000 -16.746883 27.751633 1050.611206
4.840000 5.040000 -4.800000 -34.234558 0.793730 1172.635010
4.840000 5.080000 -5.200000 15.920752 2.895951 261.856873
4.840000 5.080000 -5.160000 -6.454684 10.220457 146.120682
4.840000 5.080000 -5.120000 -25.390232 -8.002962 708.711304
4.840000 5.080000 -5.080000 -18.702972 -37.850655 1782.473145
4.840000 5.080000 -5.040000 13.748172 -51.274303 2818.066406
4.840000 5.080000 -5.000000 47.233284 -32.077179 3259.928711
4.840000 5.080000 -4.960000 53.679440 7.663495 2940.211426
4.840000 5.080000 -4.920000 27.376883 37.660519 2167.808350
4.840000 5.080000 -4.880000 -10.272879 36.574867 1443.252930
4.840000 5.080000 -4.840000 -31.086891 9.829796 1063.019653
4.840000 5.080000 -4.800000 -24.855324 -18.352222 954.591187
4.840000 5.120000 -5.200000 3.709935 6.786753 59.823635
4.840000 5.120000 -5.160000 -10.896818 -4.159804 136.044617
4.840000 5.120000 -5.120000 -6.600612 -25.589094 698.369812
4.840000 5.120000 -5.080000 18.736094 -35.035667 1578.539307
4.840000 5.120000 -5.040000 45.676899 -17.579029 2395.401367
4.840000 5.120000 -5.000000 49.592304 18.017040 2784.010498
4.840000 5.120000 -4.960000 23.819128 45.325832 2621.781982
4.840000 5.120000 -4.920000 -13.319446 43.656948 2083.336670
4.840000 5.120000 -4.880000 -34.921387 16.255779 1483.753662
4.840000 5.120000 -4.840000 -29.067097 -14.206389 1046.717651
4.840000 5.120000 -4.800000 -6.710258 -27.255787 787.905518
4.840000 5.160000 -5.200000 -7.719637 -3.876255 74.618156
4.840000 5.160000 -5.160000 -3.851847 -21.020834 456.712189
4.840000 5.160000 -5.120000 17.879883 -28.174355 1113.484497
4.840000 5.160000 -5.080000 41.288525 -11.779888 1843.508057
4.840000 5.160000 -5.040000 44.103733 21.445971 2405.068848
4.840000 5.160000 -5.000000 18.872381 47.638565 2625.599609
4.840000 5.160000 -4.960000 -18.410902 46.168030 2470.448242
4.840000 5.160000 -4.920000 -41.419445 18.186825 2046.331055
4.840000 5.160000 -4.880000 -36.198002 -14.810178 1529.636719
4.840000 5.160000 -4.840000 -11.593988 -30.559809 1068.322510
4.840000 5.160000 -4.800000 11.538493 -24.242489 720.835083
4.840000 5.200000 -5.200000 -5.133616 -21.581734 492.125244
4.840000 5.200000 -5.160000 14.467443 -29.628666 1087.164795
4.840000 5.200000 -5.120000 37.381004 -16.285336 1662.551636
4.840000 5.200000 -5.080000 42.886009 14.568114 2051.439697
4.840000 5.200000 -5.040000 21.361845 41.941967 2215.457031
4.840000 5.200000 -5.000000 -15.068764 44.495197 2206.890381
4.840000 5.200000 -4.960000 -41.293228 19.323799 2078.540039
4.840000 5.200000 -4.920000 -40.158699 -15.174595 1842.989380
4.840000 5.200000 -4.880000 -16.093613 -35.306847 1505.577759
4.840000 5.200000 -4.840000 10.914902 -31.478302 1110.018555
4.840000 5.200000 -4.800000 23.783670 -13.022856 735.257751
4.880000 4.800000 -5.200000 45.144924 20.908184 2475.216309
4.880000 4.800000 -5.160000 32.655834 38.849045 2575.651855
4.880000 4.800000 -5.120000 10.823171 41.895538 1872.377075
4.880000 4.800000 -5.080000 -4.099131 28.586807 834.008423
4.880000 4.800000 -5.040000 -2.325233 12.288696 156.418762
4.880000 4.800000 -5.000000 9.545345 7.952997 154.363785
4.880000 4.800000 -4.960000 15.670979 16.892498 530.936035
4.880000 4.800000 -4.920000 7.861539 25.981453 736.839722
4.880000 4.800000 -4.880000 -5.931482 22.235109 529.582581
4.880000 4.800000 -4.840000 -10.612797 6.925722 160.597076
4.880000 4.800000 -4.800000 -0.391176 -5.990446 36.038464
4.880000 4.840000 -5.200000 23.686195 38.536488 2046.096680
4.880000 4.840000 -5.160000 15.703297 43.784523 2163.677979
4.880000 4.840000 -5.120000 8.056994 46.095558 2189.715820
4.880000 4.840000 -5.080000 0.764282 47.948925 2299.683594
4.880000 4.840000 -5.040000 -9.084156 49.372589 2520.174561
4.880000 4.840000 -5.000000 -22.678280 45.952400 2625.927490
4.880000 4.840000 -4.960000 -35.084156 33.010231 2320.573242
4.880000 4.840000 -4.920000 -37.430073 12.505375 1557.394775
4.880000 4.840000 -4.880000 -25.281040 -5.417822 668.483765
4.880000 4.840000 -4.840000 -4.844114 -9.860142 120.687836
4.880000 4.840000 -4.800000 10.601192 0.731489 112.920364
4.880000 4.880000 -5.200000 -4.471493 33.776535 1160.848633
4.880000 4.880000 -5.160000 1.036238 38.223316 1462.095581
4.880000 4.880000 -5.120000 -1.022535 54.458748 2966.800781
4.880000 4.880000 -5.080000 -21.832859 70.410454 5434.305664
4.880000 4.880000 -5.040000 -56.698029 67.107246 7718.048828
4.880000 4.880000 -5.000000 -84.591263 36.276272 8471.649414
4.880000 4.880000 -4.960000 -84.082367 -8.796772 7147.227539
4.880000 4.880000 -4.920000 -52.527279 -41.180916 4454.982910
4.880000 4.880000 -4.880000 -10.280575 -41.765640 1850.058838
4.880000 4.880000 -4.840000 15.311298 -15.153046 464.050659
4.880000 4.880000 -4.800000 12.201732 14.986765 373.485382
4.880000 4.920000 -5.200000 -18.115124 9.799925 424.196228
4.880000 4.920000 -5.160000 -5.406252 27.992971 812.833984
4.880000 4.920000 -5.120000 -20.221024 57.766487 3745.856934
4.880000 4.920000 -5.080000 -65.049202 67.090271 8732.502930
4.880000 4.920000 -5.040000 -111.146233 33.666740 13486.934570
4.880000 4.920000 -5.000000 -120.161888 -30.464979 15366.994141
4.880000 4.920000 -4.960000 -78.574066 -84.413483 13299.519531
4.880000 4.920000 -4.920000 -12.284832 -91.837799 8585.098633
4.880000 4.920000 -4.880000 34.072754 -52.070423 3872.281250
4.880000 4.920000 -4.840000 34.603558 0.387325 1197.556274
4.880000 4.920000 -4.800000 1.629333 27.159077 740.270142
4.880000 4.960000 -5.200000 -8.065111 -13.424212 245.255478
4.880000 4.960000 -5.160000 -5.153207 20.753616 457.268127
4.880000 4.960000 -5.120000 -42.885635 46.608154 4011.497803
4.880000 4.960000 -5.080000 -98.635323 27.178600 10467.603516
4.880000 4.960000 -5.040000 -124.201996 -39.111012 16955.806641
4.880000 4.960000 -5.000000 -88.565659 -110.055458 19956.080078
4.880000 4.960000 -4.960000 -9.239346 -133.220123 17832.966797
4.880000 4.960000 -4.920000 59.774670 -91.924355 12023.097656
4.880000 4.960000 -4.880000 73.889236 -19.902319 5855.721680
4.880000 4.960000 -4.840000 34.696198 29.375450 2066.743164
4.880000 4.960000 -4.800000 -16.307573 28.943459 1103.660767
4.880000 5.000000 -5.200000 13.885698 -17.520817 499.791656
4.880000 5.000000 -5.160000 -5.021292 18.551643 369.376862
4.880000 5.000000 -5.120000 -56.123470 20.634792 3575.638672
4.880000 5.000000 -5.080000 -94.966827 -29.790606 9906.178711
4.880000 5.000000 -5.040000 -77.575943 -103.014435 16630.000000
4.880000 5.000000 -5.000000 -3.744155 -141.902130 20150.234375
4.880000 5.000000 -4.960000 77.587372 -112.034805 18571.597656
4.880000 5.000000 -4.920000 109.145538 -33.782532 13054.008789
4.880000 5.000000 -4.880000 74.637970 35.307133 6817.420410
4.880000 5.000000 -4.840000 9.937037 51.041828 2704.012939
4.880000 5.000000 -4.800000 -32.759476 17.590633 1382.613647
4.880000 5.040000 -5.200000 26.535439 -2.848006 712.240662
4.880000 5.040000 -5.160000 -9.269049 16.161133 347.097473
4.880000 5.040000 -5.120000 -50.819771 -9.840540 2679.485352
4.880000 5.040000 -5.080000 -53.251228 -69.508957 7667.188477
4.880000 5.040000 -5.040000 0.077633 -114.903473 13202.813477
4.880000 5.040000 -5.000000 76.639435 -102.458282 16371.302734
4.880000 5.040000 -4.960000 119.734116 -34.159538 15503.132812
4.880000 5.040000 -4.920000 97.939240 41.843979 11343.013672
4.880000 5.040000 -4.880000 32.036140 73.067551 6365.181641
4.880000 5.040000 -4.840000 -25.860329 47.020271 2879.662598
4.880000 5.040000 -4.800000 -39.254120 -3.453489 1552.812622
4.880000 5.080000 -5.200000 19.847984 12.956249 561.806885
4.880000 5.080000 -5.160000 -14.291284 7.442881 259.637268
4.880000 5.080000 -5.120000 -28.562490 -30.949081 1773.661499
4.880000 5.080000 -5.080000 0.576366 -71.028915 5045.438965
4.880000 5.080000 -5.040000 58.761887 -72.469803 8704.832031
4.880000 5.080000 -5.000000 101.583298 -23.818150 10886.470703
4.880000 5.080000 -4.960000 92.815422 43.609573 10516.497070
4.880000 5.080000 -4.920000 37.265602 81.476929 8027.214844
4.880000 5.080000 -4.880000 -23.606594 66.135376 4931.159668
4.880000 5.080000 -4.840000 -48.752213 16.700415 2655.682129
4.880000 5.080000 -4.800000 -31.016331 -26.096437 1643.036865
4.880000 5.120000 -5.200000 3.692549 13.315784 190.945007
4.880000 5.120000 -5.160000 -11.963601 -6.687418 187.849304
4.880000 5.120000 -5.120000 -0.108298 -34.574459 1195.404907
4.880000 5.120000 -5.080000 36.440792 -41.281307 3032.077637
4.880000 5.120000 -5.040000 69.269211 -11.700195 4935.118164
4.880000 5.120000 -5.000000 67.667679 38.019108 6024.367188
4.880000 5.120000 -4.960000 27.053070 71.739616 5878.441406
4.880000 5.120000 -4.920000 -25.319557 64.219604 4765.237793
4.880000 5.120000 -4.880000 -53.518852 22.624889 3376.153320
4.880000 5.120000 -4.840000 -42.966316 -21.438581 2305.717041
4.880000 5.120000 -4.800000 -9.205332 -40.347061 1712.623535
4.880000 5.160000 -5.200000 -3.599620 -1.169423 14.324814
4.880000 5.160000 -5.160000 1.366286 -17.474880 307.238159
4.880000 5.160000 -5.120000 22.260412 -22.469469 1000.402954
4.880000 5.160000 -5.080000 42.768867 -4.777075 1851.996460
4.880000 5.160000 -5.040000 42.059208 27.766293 2539.943848
4.880000 5.160000 -5.000000 13.968533 51.636349 2861.432373
4.880000 5.160000 -4.960000 -25.168875 46.858990 2829.237061
4.880000 5.160000 -4.920000 -48.870621 14.602570 2601.572754
4.880000 5.160000 -4.880000 -42.181221 -23.555714 2334.126953
4.880000 5.160000 -4.840000 -12.679626 -43.827324 2081.607178
4.880000 5.160000 -4.800000 18.355495 -38.448212 1815.189209
4.880000 5.200000 -5.200000 5.801455 -14.883427 255.173279
4.880000 5.200000 -5.160000 19.625134 -16.189060 647.231567
4.880000 5.200000 -5.120000 31.818104 -3.263579 1023.042664
4.880000 5.200000 -5.080000 29.690050 18.455002 1222.086182
4.880000 5.200000 -5.040000 9.428818 33.839832 1234.036865
4.880000 5.200000 -5.000000 -18.437550 29.387714 1203.581055
4.880000 5.200000 -4.960000 -35.705700 4.922984 1299.132690
4.880000 5.200000 -4.920000 -30.445007 -25.180305 1560.946289
4.880000 5.200000 -4.880000 -6.037416 -42.760784 1864.935059
4.880000 5.200000 -4.840000 22.300701 -39.130157 2028.490479
4.880000 5.200000 -4.800000 39.623363 -19.533417 1951.565430
4.920000 4.800000 -5.200000 22.014458 66.990227 4972.326660
4.920000 4.800000 -5.160000 -10.718578 70.267532 5052.413574
4.920000 4.800000 -5.120000 -36.246418 49.047302 3719.440918
4.920000 4.800000 -5.080000 -37.780930 18.857899 1783.019043
4.920000 4.800000 -5.040000 -19.412247 2.390141 382.548096
4.920000 4.800000 -5.000000 -2.135399 7.716026 64.096992
4.920000 4.800000 -4.960000 -2.576800 21.139435 453.515594
4.920000 4.800000 -4.920000 -16.551010 22.494164 779.923340
4.920000 4.800000 -4.880000 -24.783897 6.637286 658.295166
4.920000 4.800000 -4.840000 -14.251318 -11.716730 340.381836
4.920000 4.800000 -4.800000 7.980632 -14.404674 271.185120
4.920000 4.840000 -5.200000 -20.893379 60.842724 4138.370605
4.920000 4.840000 -5.160000 -35.302170 51.753952 3924.714600
4.920000 4.840000 -5.120000 -41.758617 40.954021 3421.014160
4.920000 4.840000 -5.080000 -44.958664 33.842735 3166.612305
4.920000 4.840000 -5.040000 -51.230881 27.844471 3399.917480
4.920000 4.840000 -5.000000 -59.710083 15.270340 3798.477295
4.920000 4.840000 -4.960000 -60.918289 -6.553116 3753.981201
4.920000 4.840000 -4.920000 -46.053570 -28.808586 2950.865967
4.920000 4.840000 -4.880000 -18.170078 -36.922981 1693.458252
4.920000 4.840000 -4.840000 7.364655 -24.325354 645.960999
4.920000 4.840000 -4.800000 15.445590 -0.265144 238.636551
4.920000 4.880000 -5.200000 -45.510529 24.827093 2687.592773
4.920000 4.880000 -5.160000 -41.022980 25.819283 2349.520264
4.920000 4.880000 -5.120000 -49.833427 36.397018 3808.113525
4.920000 4.880000 -5.080000 -77.422562 36.220558 7306.181641
4.920000 4.880000 -5.040000 -106.466187 7.829750 11396.353516
4.920000 4.880000 -5.000000 -109.162918 -43.005592 13766.023438
4.920000 4.880000 -4.960000 -72.878525 -87.094284 12896.693359
4.920000 4.880000 -4.920000 -14.878254 -94.803619 9209.088867
4.920000 4.880000 -4.880000 29.577312 -61.993473 4718.007812
4.920000 4.880000 -4.840000 36.155769 -14.269587 1510.860718
4.920000 4.880000 -4.800000 10.858177 15.071873 345.061340
4.920000 4.920000 -5.200000 -35.200764 -15.497194 1479.256836
4.920000 4.920000 -5.160000 -31.070063 7.957640 1028.672852
4.920000 4.920000 -5.120000 -63.190681 26.268147 4683.077637
4.920000 4.920000 -5.080000 -112.231445 3.240929 12606.401367
4.920000 4.920000 -5.040000 -131.973679 -64.281281 21549.136719
4.920000 4.920000 -5.000000 -91.094032 -135.739716 26723.392578
4.920000 4.920000 -4.960000 -5.909874 -158.587357 25184.875000
4.920000 4.920000 -4.920000 69.446487 -114.632919 17963.519531
4.920000 4.920000 -4.880000 88.342247 -36.930290 9168.199219
4.920000 4.920000 -4.840000 50.243816 19.349030 2898.826172
4.920000 4.920000 -4.800000 -3.123019 24.148624 592.909302
4.920000 4.960000 -5.200000 -0.991600 -31.768578 1010.225769
4.920000 4.960000 -5.160000 -18.453959 4.101355 357.369690
4.920000 4.960000 -5.120000 -73.114609 3.785053 5360.072754
4.920000 4.960000 -5.080000 -114.668823 -56.608879 16353.504883
4.920000 4.960000 -5.040000 -90.481514 -144.161819 28969.535156
4.920000 4.960000 -5.000000 1.698589 -191.281525 36591.507812
4.920000 4.960000 -4.960000 104.607025 -155.077789 34991.750000
4.920000 4.960000 -4.920000 148.442688 -57.781906 25373.980469
4.920000 4.960000 -4.880000 110.808014 31.714977 13284.255859
4.920000 4.960000 -4.840000 32.931282 57.871353 4433.562988
4.920000 4.960000 -4.800000 -21.442545 22.765366 978.044556
4.920000 5.000000 -5.200000 28.550673 -16.926702 1101.654175
4.920000 5.000000 -5.160000 -13.819578 7.582495 248.474976
4.920000 5.000000 -5.120000 -67.580200 -25.985275 5242.317871
4.920000 5.000000 -5.080000 -71.447571 -107.345078 16627.720703
4.920000 5.000000 -5.040000 1.891573 -173.252289 30019.933594
4.920000 5.000000 -5.000000 112.266922 -160.930206 38502.390625
4.920000 5.000000 -4.960000 181.397339 -67.304367 37434.875000
4.920000 5.000000 -4.920000 160.611954 44.454189 27772.375000
4.920000 5.000000 -4.880000 72.707893 99.265152 15140.007812
4.920000 5.000000 -4.840000 -11.556932 73.647903 5557.576172
4.920000 5.000000 -4.800000 -37.633972 8.804556 1493.836182
4.920000 5.040000 -5.200000 32.839275 10.587255 1190.507935
4.920000 5.040000 -5.160000 -16.762482 7.436253 336.278656
4.920000 5.040000 -5.120000 -43.592678 -48.682713 4270.328125
4.920000 5.040000 -5.080000 -4.660980 -116.264908 13539.252930
4.920000 5.040000 -5.040000 87.572754 -130.348419 24659.699219
4.920000 5.040000 -5.000000 167.506042 -62.730408 31993.376953
4.920000 5.040000 -4.960000 171.503143 47.054092 31627.416016
4.920000 5.040000 -4.920000 94.911865 122.975822 24131.314453
4.920000 5.040000 -4.880000 -4.088929 117.912041 13919.968750
4.920000 5.040000 -4.840000 -57.112770 51.039879 5866.937500
4.920000 5.040000 -4.800000 -42.919563 -16.249302 2106.128662
4.920000 5.080000 -5.200000 15.711424 25.715153 908.117920
4.920000 5.080000 -5.160000 -18.284256 -0.496536 334.560577
4.920000 5.080000 -5.120000 -11.186047 -52.596420 2891.511230
4.920000 5.080000 -5.080000 47.040985 -81.611786 8873.337891
4.920000 5.080000 -5.040000 117.108765 -48.358196 16052.978516
4.920000 5.080000 -5.000000 140.042694 35.893677 20900.312500
4.920000 5.080000 -4.960000 89.987183 113.501877 20980.369141
4.920000 5.080000 -4.920000 -0.493988 128.881882 16610.783203
4.920000 5.080000 -4.880000 -68.152222 76.096527 10435.406250
4.920000 5.080000 -4.840000 -73.320343 0.730889 5376.406738
4.920000 5.080000 -4.800000 -29.104454 -43.502655 2739.550293
4.920000 5.120000 -5.200000 -1.808646 19.509579 383.894867
4.920000 5.120000 -5.160000 -11.034151 -10.217080 226.141205
4.920000 5.120000 -5.120000 14.521442 -38.077126 1660.739746
4.920000 5.120000 -5.080000 60.737545 -31.137566 4658.597168
4.920000 5.120000 -5.040000 88.095490 17.842182 8079.158691
4.920000 5.120000 -5.000000 65.640884 77.726501 10350.134766
4.920000 5.120000 -4.960000 1.433907 102.578110 10524.324219
4.920000 5.120000 -4.920000 -61.286697 71.430214 8858.334961
4.920000 5.120000 -4.880000 -80.219177 6.690393 6479.877441
4.920000 5.120000 -4.840000 -48.587276 -46.191193 4494.349609
4.920000 5.120000 -4.800000 3.555775 -57.394878 3306.815674
4.920000 5.160000 -5.200000 -3.397207 4.143154 28.706743
4.920000 5.160000 -5.160000 3.090842 -12.396545 163.227631
4.920000 5.160000 -5.120000 24.857761 -15.901272 870.758789
4.920000 5.160000 -5.080000 43.990036 4.426880 1954.720581
4.920000 5.160000 -5.040000 38.608696 38.398914 2965.107910
4.920000 5.160000 -5.000000 4.061768 59.339607 3537.687012
4.920000 5.160000 -4.960000 -39.017857 46.141293 3651.412109
4.920000 5.160000 -4.920000 -59.741913 3.032707 3578.293457
4.920000 5.160000 -4.880000 -42.475838 -42.270782 3591.015869
4.920000 5.160000 -4.840000 0.652868 -60.933270 3713.289551
4.920000 5.160000 -4.800000 41.206230 -45.180717 3739.250488
4.920000 5.200000 -5.200000 8.453967 -2.460225 77.522263
4.920000 5.200000 -5.160000 14.978832 -3.928162 239.795868
4.920000 5.200000 -5.120000 22.001810 2.393555 489.808746
4.920000 5.200000 -5.080000 21.094006 15.422020 682.795776
4.920000 5.200000 -5.040000 7.196915 25.585402 706.408386
4.920000 5.200000 -5.000000 -13.909237 21.039953 636.146484
4.920000 5.200000 -4.960000 -27.108007 -1.198349 736.280090
4.920000 5.200000 -4.920000 -19.248274 -29.833508 1260.534180
4.920000 5.200000 -4.880000 9.158340 -46.099941 2209.079834
4.920000 5.200000 -4.840000 42.777328 -37.871067 3264.117676
4.920000 5.200000 -4.800000 62.438931 -8.881060 3977.493408
4.960000 4.800000 -5.200000 -30.580063 81.113197 7514.490723
4.960000 4.800000 -5.160000 -66.649261 57.955101 7800.917969
4.960000 4.800000 -5.120000 -76.429840 15.569626 6083.933594
4.960000 4.800000 -5.080000 -54.864689 -18.059010 3336.261963
4.960000 4.800000 -5.040000 -22.434532 -23.222214 1042.579468
4.960000 4.800000 -5.000000 -5.699795 -6.443359 74.004539
4.960000 4.800000 -4.960000 -12.003941 7.688240 203.203629
4.960000 4.800000 -4.920000 -24.402210 2.310259 600.805115
4.960000 4.800000 -4.880000 -21.537788 -15.361027 699.837463
4.960000 4.800000 -4.840000 -0.719758 -23.753887 564.765198
4.960000 4.800000 -4.800000 20.236778 -11.144807 533.733887
4.960000 4.840000 -5.200000 -69.551636 40.898254 6510.097656
4.960000 4.840000 -5.160000 -77.404175 16.564762 6265.797852
4.960000 4.840000 -5.120000 -72.806183 -3.571388 5313.495117
4.960000 4.840000 -5.080000 -64.889442 -15.205530 4441.847656
4.960000 4.840000 -5.040000 -60.229595 -23.911301 4199.354492
4.960000 4.840000 -5.000000 -55.382530 -37.016270 4437.428711
4.960000 4.840000 -4.960000 -41.093697 -52.847641 4481.564941
4.960000 4.840000 -4.920000 -14.636482 -59.768917 3786.550049
4.960000 4.840000 -4.880000 13.331793 -47.683418 2451.445312
4.960000 4.840000 -4.840000 26.348841 -20.407063 1110.709595
4.960000 4.840000 -4.800000 17.715132 5.068216 339.512695
4.960000 4.880000 -5.200000 -66.440994 -14.580055 4626.983887
4.960000 4.880000 -5.160000 -59.977875 -16.339209 3864.315186
4.960000 4.880000 -5.120000 -69.140381 -15.503833 5020.760742
4.960000 4.880000 -5.080000 -87.771271 -33.085781 8798.464844
4.960000 4.880000 -5.040000 -90.975189 -74.136040 13772.637695
4.960000 4.880000 -5.000000 -58.689762 -116.993217 17131.902344
4.960000 4.880000 -4.960000 1.494713 -129.136917 16678.578125
4.960000 4.880000 -4.920000 56.038124 -96.605278 12472.851562
4.960000 4.880000 -4.880000 72.431046 -38.838081 6754.652832
4.960000 4.880000 -4.840000 46.911179 6.466223 2242.470703
4.960000 4.880000 -4.800000 6.670261 15.042727 270.776001
4.960000 4.920000 -5.200000 -25.613117 -47.405823 2903.343750
4.960000 4.920000 -5.160000 -32.193977 -25.902355 1707.384155
4.960000 4.920000 -5.120000 -68.134689 -29.512577 5513.328125
4.960000 4.920000 -5.080000 -94.124741 -79.414207 15166.083008
4.960000 4.920000 -5.040000 -66.794800 -149.899002 26931.255859
4.960000 4.920000 -5.000000 16.173962 -185.116898 34529.863281
4.960000 4.920000 -4.960000 106.661674 -148.866119 33537.835938
4.960000 4.920000 -4.920000 144.932220 -60.063492 24612.970703
4.960000 4.920000 -4.880000 111.293159 21.616188 12853.426758
4.960000 4.920000 -4.840000 41.503613 47.103687 3941.307129
4.960000 4.920000 -4.800000 -7.787029 17.482960 366.291687
4.960000 4.960000 -5.200000 20.754696 -39.132019 1962.072388
4.960000 4.960000 -5.160000 -13.884384 -17.040979 483.171112
4.960000 4.960000 -5.120000 -61.047287 -49.988617 6225.632812
4.960000 4.960000 -5.080000 -59.591778 -129.455505 20309.908203
4.960000 4.960000 -5.040000 18.574299 -192.508636 37404.578125
4.960000 4.960000 -5.000000 133.103943 -175.641022 48566.429688
4.960000 4.960000 -4.960000 204.309845 -75.780914 47485.257812
4.960000 4.960000 -4.920000 182.409958 42.229370 35056.714844
4.960000 4.960000 -4.880000 91.037964 101.038712 18496.732422
4.960000 4.960000 -4.840000 3.507988 76.469170 5859.839844
4.960000 4.960000 -4.800000 -23.519749 11.590748 687.524048
4.960000 5.000000 -5.200000 40.866508 -4.024927 1686.271606
4.960000 5.000000 -5.160000 -11.130407 -5.954952 159.347427
4.960000 5.000000 -5.120000 -39.484417 -68.657150 6272.823242
4.960000 5.000000 -5.080000 7.545923 -145.778290 21308.251953
4.960000 5.000000 -5.040000 117.398438 -161.086090 39731.121094
4.960000 5.000000 -5.000000 213.741821 -79.920769 52072.894531
4.960000 5.000000 -4.960000 220.775238 52.426125 51490.207031
4.960000 5.000000 -4.920000 131.581451 146.232376 38697.585938
4.960000 5.000000 -4.880000 14.169989 144.781555 21162.488281
4.960000 5.000000 -4.840000 -50.257099 69.872765 7407.979492
4.960000 5.000000 -4.800000 -36.100708 -5.833430 1337.290039
4.960000 5.040000 -5.200000 28.611212 26.803123 1537.008789
4.960000 5.040000 -5.160000 -15.247265 -3.927902 247.907501
4.960000 5.040000 -5.120000 -7.410595 -72.031906 5243.512695
4.960000 5.040000 -5.080000 69.978912 -112.948151 17654.333984
4.960000 5.040000 -5.040000 167.323425 -71.011078 33039.703125
4.960000 5.040000 -5.000000 204.519424 42.915855 43669.964844
4.960000 5.040000 -4.960000 142.802124 153.095016 43830.531250
4.960000 5.040000 -4.920000 22.259129 182.690582 33871.316406
4.960000 5.040000 -4.880000 -72.674698 119.905304 19658.894531
4.960000 5.040000 -4.840000 -86.580948 23.637283 8054.981934
4.960000 5.040000 -4.800000 -34.910061 -33.833336 2363.406982
4.960000 5.080000 -5.200000 3.655232 33.462570 1133.104370
4.960000 5.080000 -5.160000 -14.753311 -9.131155 301.038177
4.960000 5.080000 -5.120000 20.268515 -55.565132 3498.296631
4.960000 5.080000 -5.080000 93.321136 -52.104527 11423.716797
4.960000 5.080000 -5.040000 144.620239 19.632484 21300.447266
4.960000 5.080000 -5.000000 121.050507 116.953598 28331.371094
4.960000 5.080000 -4.960000 27.438496 167.967697 28966.017578
4.960000 5.080000 -4.920000 -73.421692 133.959961 23336.015625
4.960000 5.080000 -4.880000 -114.190369 42.944317 14883.654297
4.960000 5.080000 -4.840000 -79.101868 -37.389000 7655.042969
4.960000 5.080000 -4.800000 -10.447732 -59.439728 3642.236328
4.960000 5.120000 -5.200000 -10.520463 20.953903 549.746216
4.960000 5.120000 -5.160000 -6.877850 -12.223173 196.710770
4.960000 5.120000 -5.120000 30.887699 -28.966019 1793.080200
4.960000 5.120000 -5.080000 74.553925 -1.332348 5560.062988
4.960000 5.120000 -5.040000 80.100548 61.151585 10155.614258
4.960000 5.120000 -5.000000 28.974957 112.382172 13469.300781
4.960000 5.120000 -4.960000 -49.760853 107.723694 14080.537109
4.960000 5.120000 -4.920000 -100.876053 44.653770 12169.937500
4.960000 5.120000 -4.880000 -89.660995 -33.573284 9166.259766
4.960000 5.120000 -4.840000 -29.907532 -75.168358 6544.742676
4.960000 5.120000 -4.800000 32.080891 -62.027611 4876.608398
4.960000 5.160000 -5.200000 -7.483646 8.379248 126.216751
4.960000 5.160000 -5.160000 1.899052 -7.595822 61.302914
4.960000 5.160000 -5.120000 24.812618 -7.325966 669.335815
4.960000 5.160000 -5.080000 39.835773 17.384815 1889.120605
4.960000 5.160000 -5.040000 25.531418 50.455338 3197.594238
4.960000 5.160000 -5.000000 -16.310040 61.476387 4045.363525
4.960000 5.160000 -4.960000 -56.899967 32.970428 4324.655273
4.960000 5.160000 -4.920000 -63.035881 -20.865280 4408.882324
4.960000 5.160000 -4.880000 -26.137032 -63.598793 4727.950684
4.960000 5.160000 -4.840000 29.903759 -66.431961 5307.440430
4.960000 5.160000 -4.800000 69.200920 -30.737146 5733.539551
4.960000 5.200000 -5.200000 1.293928 7.933979 64.622276
4.960000 5.200000 -5.160000 4.412102 1.619191 22.088421
4.960000 5.200000 -5.120000 12.988409 1.961546 172.546432
4.960000 5.200000 -5.080000 16.879520 12.004865 429.034973
4.960000 5.200000 -5.040000 7.262684 22.430355 555.867371
4.960000 5.200000 -5.000000 -11.276340 18.553802 471.399445
4.960000 5.200000 -4.960000 -21.213133 -4.055550 466.444489
4.960000 5.200000 -4.920000 -7.209824 -31.492783 1043.776855
4.960000 5.200000 -4.880000 27.978411 -40.939175 2458.807373
4.960000 5.200000 -4.840000 63.015198 -20.156063 4377.182129
4.960000 5.200000 -4.800000 74.506744 21.258236 6003.167480
5.000000 4.800000 -5.200000 -76.245720 52.630234 8583.351562
5.000000 4.800000 -5.160000 -95.710533 8.274477 9228.972656
5.000000 4.800000 -5.120000 -78.936729 -38.624645 7722.870605
5.000000 4.800000 -5.080000 -37.087315 -59.043922 4861.653809
5.000000 4.800000 -5.040000 -0.243705 -45.635925 2082.697021
5.000000 4.800000 -5.000000 9.880535 -18.420258 436.930847
5.000000 4.800000 -4.960000 -1.527222 -4.112734 19.246986
5.000000 4.800000 -4.920000 -11.105148 -10.433407 232.180298
5.000000 4.800000 -4.880000 -3.078787 -21.583260 475.316040
5.000000 4.800000 -4.840000 15.403873 -18.057791 563.363098
5.000000 4.800000 -4.800000 24.446575 1.695625 600.510132
5.000000 4.840000 -5.200000 -87.653519 -7.869541 7745.068848
5.000000 4.840000 -5.160000 -79.877609 -38.447472 7858.640625
5.000000 4.840000 -5.120000 -59.845531 -57.850288 6928.143555
5.000000 4.840000 -5.080000 -38.769737 -64.331291 5641.607422
5.000000 4.840000 -5.040000 -22.644283 -64.697014 4698.467285
5.000000 4.840000 -5.000000 -8.380707 -64.884186 4280.193848
5.000000 4.840000 -4.960000 9.397621 -62.560555 4002.138184
5.000000 4.840000 -4.920000 28.688469 -50.407406 3363.934814
5.000000 4.840000 -4.880000 39.238934 -26.853577 2260.808350
5.000000 4.840000 -4.840000 32.689018 -1.793966 1071.790161
5.000000 4.840000 -4.800000 13.089745 10.520748 282.027557
5.000000 4.880000 -5.200000 -51.395554 -56.414360 5824.083008
5.000000 4.880000 -5.160000 -41.428024 -58.752052 5168.084961
5.000000 4.880000 -5.120000 -42.764584 -64.937119 6045.639160
5.000000 4.880000 -5.080000 -41.196564 -86.861221 9242.028320
5.000000 4.880000 -5.040000 -17.067074 -115.365776 13600.547852
5.000000 4.880000 -5.000000 31.758041 -124.794434 16582.222656
5.000000 4.880000 -4.960000 81.874611 -96.833435 16080.166016
5.000000 4.880000 -4.920000 101.786255 -40.836193 12028.036133
5.000000 4.880000 -4.880000 79.727798 10.569321 6468.232422
5.000000 4.880000 -4.840000 35.110611 28.219587 2029.100098
5.000000 4.880000 -4.800000 1.933270 10.721601 118.690269
5.000000 4.920000 -5.200000 4.956047 -61.946320 3861.908936
5.000000 4.920000 -5.160000 -7.727694 -49.346947 2494.838379
5.000000 4.920000 -5.120000 -30.019360 -70.571045 5881.434570
5.000000 4.920000 -5.080000 -20.179707 -121.226440 15103.070312
5.000000 4.920000 -5.040000 41.231026 -157.923843 26639.937500
5.000000 4.920000 -5.000000 125.003677 -136.407745 34232.992188
5.000000 4.920000 -4.960000 173.690704 -55.974968 33301.656250
5.000000 4.920000 -4.920000 152.096176 34.693993 24336.919922
5.000000 4.920000 -4.880000 79.478394 78.254883 12440.641602
5.000000 4.920000 -4.840000 12.029556 57.708897 3475.026855
5.000000 4.920000 -4.800000 -7.165054 7.296881 104.582474
5.000000 4.960000 -5.200000 42.101933 -27.977461 2555.311035
5.000000 4.960000 -5.160000 5.027817 -27.700283 792.584595
5.000000 4.960000 -5.120000 -13.350819 -77.793976 6230.146973
5.000000 4.960000 -5.080000 31.858414 -138.773987 20273.177734
5.000000 4.960000 -5.040000 129.191940 -144.698242 37628.140625
5.000000 4.960000 -5.000000 211.312363 -66.602524 49088.808594
5.000000 4.960000 -4.960000 212.399292 53.777241 48005.453125
5.000000 4.960000 -4.920000 128.726807 136.445496 35187.960938
5.000000 4.960000 -4.880000 22.906773 132.604828 18108.761719
5.000000 4.960000 -4.840000 -32.469616 64.582245 5225.142090
5.000000 4.960000 -4.800000 -16.765085 -0.497171 281.315277
5.000000 5.000000 -5.200000 41.356117 14.538980 1921.710449
5.000000 5.000000 -5.160000 1.114834 -12.912310 167.970596
5.000000 5.000000 -5.120000 11.599091 -77.837059 6193.146973
5.000000 5.000000 -5.080000 91.441559 -114.755127 21530.296875
5.000000 5.000000 -5.040000 189.805237 -67.201721 40542.097656
5.000000 5.000000 -5.000000 224.884735 52.615185 53341.503906
5.000000 5.000000 -4.960000 158.361496 166.193283 52698.570312
5.000000 5.000000 -4.920000 33.329796 195.462097 39316.304688
5.000000 5.000000 -4.880000 -62.863338 130.727783 21041.552734
5.000000 5.000000 -4.840000 -75.133614 34.808548 6856.695312
5.000000 5.000000 -4.800000 -22.843021 -18.084665 848.858765
5.000000 5.040000 -5.200000 15.314163 36.283092 1550.986328
5.000000 5.040000 -5.160000 -5.057541 -10.070637 126.996445
5.000000 5.040000 -5.120000 36.239990 -61.754074 5126.902344
5.000000 5.040000 -5.080000 121.858917 -55.215862 17898.386719
5.000000 5.040000 -5.040000 181.414642 31.348293 33893.988281
5.000000 5.040000 -5.000000 152.596146 147.384613 45007.808594
5.000000 5.040000 -4.960000 41.878174 208.411499 45189.132812
5.000000 5.040000 -4.920000 -76.434662 170.104996 34777.964844
5.000000 5.040000 -4.880000 -124.351318 66.886543 19937.058594
5.000000 5.040000 -4.840000 -85.988785 -21.848518 7871.429199
5.000000 5.040000 -4.800000 -13.060022 -43.026482 2021.842285
5.000000 5.080000 -5.200000 -9.456591 31.948778 1110.151489
5.000000 5.080000 -5.160000 -5.068096 -11.461517 157.051971
5.000000 5.080000 -5.120000 46.318760 -33.381668 3259.763184
5.000000 5.080000 -5.080000 106.329536 5.384781 11334.966797
5.000000 5.080000 -5.040000 114.450119 92.218803 21603.136719
5.000000 5.080000 -5.000000 45.248150 164.307541 29044.363281
5.000000 5.080000 -4.960000 -61.835033 161.387817 29869.597656
5.000000 5.080000 -4.920000 -132.816742 80.683754 24150.156250
5.000000 5.080000 -4.880000 -122.708427 -19.772438 15448.307617
5.000000 5.080000 -4.840000 -51.613304 -72.781517 7961.082520
5.000000 5.080000 -4.800000 19.384123 -57.989536 3738.530518
5.000000 5.120000 -5.200000 -17.589418 17.406212 612.363831
5.000000 5.120000 -5.160000 -1.853777 -9.166483 87.460892
5.000000 5.120000 -5.120000 37.046120 -8.064821 1437.456421
5.000000 5.120000 -5.080000 62.698299 34.258919 5104.750000
5.000000 5.120000 -5.040000 39.774235 90.830429 9832.156250
5.000000 5.120000 -5.000000 -28.412666 112.291077 13416.565430
5.000000 5.120000 -4.960000 -95.954216 71.334747 14295.857422
5.000000 5.120000 -4.920000 -111.779419 -9.433163 12583.623047
5.000000 5.120000 -4.880000 -64.164978 -74.884796 9724.876953
5.000000 5.120000 -4.840000 10.343338 -84.229218 7201.545898
5.000000 5.120000 -4.800000 60.974316 -42.626835 5534.914062
5.000000 5.160000 -5.200000 -13.822084 9.335596 278.203369
5.000000 5.160000 -5.160000 -2.034742 -3.717759 17.961908
5.000000 5.160000 -5.120000 18.649363 1.723556 350.769379
5.000000 5.160000 -5.080000 25.152142 27.664734 1397.967773
5.000000 5.160000 -5.040000 1.906281 52.008987 2708.568604
5.000000 5.160000 -5.000000 -39.051456 46.350094 3673.347656
5.000000 5.160000 -4.960000 -63.951183 4.508270 4110.078613
5.000000 5.160000 -4.920000 -46.568516 -47.250397 4401.226562
5.000000 5.160000 -4.880000 6.715050 -70.614136 5031.447754
5.000000 5.160000 -4.840000 60.962914 -47.846069 6005.723145
5.000000 5.160000 -4.800000 82.143158 4.327952 6766.229492
5.000000 5.200000 -5.200000 -11.240148 10.059428 227.533020
5.000000 5.200000 -5.160000 -6.551287 -0.925697 43.776272
5.000000 5.200000 -5.120000 6.109655 -2.211872 42.220268
5.000000 5.200000 -5.080000 12.775631 8.841553 241.389801
5.000000 5.200000 -5.040000 4.130554 19.478783 396.484436
5.000000 5.200000 -5.000000 -11.731022 13.869221 329.972168
5.000000 5.200000 -4.960000 -14.684410 -8.522438 288.263855
5.000000 5.200000 -4.920000 7.380623 -28.558407 870.056152
5.000000 5.200000 -4.880000 43.998711 -23.521151 2489.131104
5.000000 5.200000 -4.840000 68.759903 11.267962 4854.891113
5.000000 5.200000 -4.800000 61.641731 56.673775 7011.620117
5.040000 4.800000 -5.200000 -86.217361 4.185923 7450.955566
5.040000 4.800000 -5.160000 -80.317039 -43.537582 8346.347656
5.040000 4.800000 -5.120000 -41.787746 -76.310417 7569.495605
5.040000 4.800000 -5.080000 6.841945 -73.875900 5504.460449
5.040000 4.800000 -5.040000 35.878517 -42.555061 3098.201172
5.040000 4.800000 -5.000000 33.896057 -8.991961 1229.798096
5.040000 4.800000 -4.960000 15.371773 4.591480 257.373077
5.040000 4.800000 -4.920000 3.732193 -1.120098 15.183884
5.040000 4.800000 -4.880000 8.127656 -7.950272 129.265610
5.040000 4.800000 -4.840000 17.519865 -1.849645 310.366852
5.040000 4.800000 -4.800000 16.194771 12.895117 428.554626
5.040000 4.840000 -5.200000 -66.502319 -50.768333 6999.982422
5.040000 4.840000 -5.160000 -43.712334 -75.421875 7599.227051
5.040000 4.840000 -5.120000 -12.406519 -83.745697 7167.263672
5.040000 4.840000 -5.080000 15.371750 -75.927528 6001.280273
5.040000 4.840000 -5.040000 32.929169 -59.710541 4649.678711
5.040000 4.840000 -5.000000 41.446930 -42.588219 3531.604492
5.040000 4.840000 -4.960000 44.865097 -26.487469 2714.462891
5.040000 4.840000 -4.920000 43.735165 -10.092125 2014.615601
5.040000 4.840000 -4.880000 35.449905 5.079304 1282.495117
5.040000 4.840000 -4.840000 20.264429 13.153346 583.657593
5.040000 4.840000 -4.800000 5.102808 9.675442 119.652817
5.040000 4.880000 -5.200000 -13.796416 -72.828918 5494.392578
5.040000 4.880000 -5.160000 -0.442917 -73.288071 5371.337402
5.040000 4.880000 -5.120000 9.163416 -77.735344 6126.751953
5.040000 4.880000 -5.080000 26.840353 -86.554794 8212.136719
5.040000 4.880000 -5.040000 58.205902 -86.309654 10837.283203
5.040000 4.880000 -5.000000 91.750328 -62.744526 12354.998047
5.040000 4.880000 -4.960000 105.497253 -18.016148 11454.252930
5.040000 4.880000 -4.920000 86.811989 26.149529 8220.119141
5.040000 4.880000 -4.880000 46.280106 44.820629 4150.736816
5.040000 4.880000 -4.840000 10.909094 31.293699 1098.303955
5.040000 4.880000 -4.800000 1.828509 3.107097 12.997495
5.040000 4.920000 -5.200000 34.410690 -50.827641 3767.544434
5.040000 4.920000 -5.160000 24.238531 -47.894146 2881.355469
5.040000 4.920000 -5.120000 22.941334 -70.261177 5462.937500
5.040000 4.920000 -5.080000 55.642235 -95.822166 12277.946289
5.040000 4.920000 -5.040000 114.298943 -87.096657 20650.076172
5.040000 4.920000 -5.000000 158.174301 -29.455292 25886.722656
5.040000 4.920000 -4.960000 149.153900 48.931103 24641.140625
5.040000 4.920000 -4.920000 88.589607 98.051842 17462.283203
5.040000 4.920000 -4.880000 18.715998 89.648163 8387.082031
5.040000 4.920000 -4.840000 -14.040548 41.601761 1927.843506
5.040000 4.920000 -4.800000 1.240768 -0.247578 1.600801
5.040000 4.960000 -5.200000 49.099663 -6.642020 2454.893311
5.040000 4.960000 -5.160000 25.289204 -21.859404 1117.377319
5.040000 4.960000 -5.120000 36.961174 -63.031624 5339.114258
5.040000 4.960000 -5.080000 97.286728 -81.976433 16184.842773
5.040000 4.960000 -5.040000 167.318726 -38.037182 29442.382812
5.040000 4.960000 -5.000000 186.128448 56.924004 37884.144531
5.040000 4.960000 -4.960000 127.744255 141.800720 36426.039062
5.040000 4.960000 -4.920000 28.724186 158.553604 25964.324219
5.040000 4.960000 -4.880000 -42.638687 103.888626 12610.904297
5.040000 4.960000 -4.840000 -46.382126 30.094162 3056.959961
5.040000 4.960000 -4.800000 -2.278812 -4.751806 27.772648
5.040000 5.000000 -5.200000 30.705742 27.302088 1688.246582
5.040000 5.000000 -5.160000 15.228748 -8.564850 305.271423
5.040000 5.000000 -5.120000 52.288902 -48.435257 5080.103516
5.040000 5.000000 -5.080000 125.938278 -36.726357 17209.275391
5.040000 5.000000 -5.040000 173.631927 44.112000 32093.916016
5.040000 5.000000 -5.000000 141.787537 147.263458 41790.230469
5.040000 5.000000 -4.960000 39.483002 197.751617 40664.609375
5.040000 5.000000 -4.920000 -64.838135 159.296600 29579.390625
5.040000 5.000000 -4.880000 -102.954033 66.873169 15071.553711
5.040000 5.000000 -4.840000 -65.392143 -6.902943 4323.782715
5.040000 5.000000 -4.800000 -3.096817 -17.518496 316.487946
5.040000 5.040000 -5.200000 1.878428 35.179512 1241.126465
5.040000 5.040000 -5.160000 7.132521 -5.349112 79.485847
5.040000 5.040000 -5.120000 59.061962 -23.419260 4036.777100
5.040000 5.040000 -5.080000 117.534546 20.249849 14224.425781
5.040000 5.040000 -5.040000 121.027534 110.732239 26909.292969
5.040000 5.040000 -5.000000 46.071068 182.685944 35496.695312
5.040000 5.040000 -4.960000 -64.129883 176.330597 35205.121094
5.040000 5.040000 -4.920000 -133.889099 92.863907 26549.996094
5.040000 5.040000 -4.880000 -121.109848 -5.754981 14700.715820
5.040000 5.040000 -4.840000 -51.402107 -52.803970 5430.435547
5.040000 5.040000 -4.800000 11.173794 -33.478840 1245.686401
5.040000 5.080000 -5.200000 -16.459785 24.800097 885.969360
5.040000 5.080000 -5.160000 3.105852 -3.665966 23.085625
5.040000 5.080000 -5.120000 48.339851 1.980591 2340.664062
5.040000 5.080000 -5.080000 74.847748 55.625717 8696.406250
5.040000 5.080000 -5.040000 42.535233 122.699593 16864.435547
5.040000 5.080000 -5.000000 -40.992489 145.125977 22741.933594
5.040000 5.080000 -4.960000 -119.777870 94.500145 23277.015625
5.040000 5.080000 -4.920000 -136.493683 1.347252 18632.339844
5.040000 5.080000 -4.880000 -82.892105 -70.064102 11780.080078
5.040000 5.080000 -4.840000 -4.780720 -77.659103 6053.791992
5.040000 5.080000 -4.800000 41.880157 -34.073608 2914.958496
5.040000 5.120000 -5.200000 -20.806767 12.759125 595.716797
5.040000 5.120000 -5.160000 -1.868635 -1.252644 5.060914
5.040000 5.120000 -5.120000 24.995726 12.757259 787.533997
5.040000 5.120000 -5.080000 27.201653 52.394169 3485.078857
5.040000 5.120000 -5.040000 -12.169991 83.917229 7190.209961
5.040000 5.120000 -5.000000 -71.354836 70.854393 10111.857422
5.040000 5.120000 -4.960000 -104.034889 10.755646 10938.941406
5.040000 5.120000 -4.920000 -80.160934 -57.726181 9758.087891
5.040000 5.120000 -4.880000 -14.028873 -86.845276 7738.911133
5.040000 5.120000 -4.840000 48.286568 -60.642273 6009.078125
5.040000 5.120000 -4.800000 69.448418 -5.464782 4852.946289
5.040000 5.160000 -5.200000 -20.339142 6.751432 459.262543
5.040000 5.160000 -5.160000 -9.181698 -2.591519 91.019547
5.040000 5.160000 -5.120000 5.476871 4.831358 53.338142
5.040000 5.160000 -5.080000 3.986221 24.595903 620.848389
5.040000 5.160000 -5.040000 -19.622696 34.263203 1559.017212
5.040000 5.160000 -5.000000 -46.451294 15.214565 2389.205566
5.040000 5.160000 -4.960000 -47.604301 -25.448971 2913.819580
5.040000 5.160000 -4.920000 -12.222939 -57.069595 3406.338867
5.040000 5.160000 -4.880000 39.539841 -51.753578 4241.832031
5.040000 5.160000 -4.840000 72.651245 -9.588923 5370.150879
5.040000 5.160000 -4.800000 66.907410 41.881042 6230.623047
5.040000 5.200000 -5.200000 -21.944550 2.666705 488.674591
5.040000 5.200000 -5.160000 -13.399152 -9.942069 278.381989
5.040000 5.200000 -5.120000 1.923279 -9.910662 101.920212
5.040000 5.200000 -5.080000 9.023643 1.803923 84.680275
5.040000 5.200000 -5.040000 2.156222 10.680294 118.717972
5.040000 5.200000 -5.000000 -7.301899 4.650463 74.944534
5.040000 5.200000 -4.960000 -2.055172 -10.899940 123.032433
5.040000 5.200000 -4.920000 21.689034 -16.238400 734.099792
5.040000 5.200000 -4.880000 47.365967 3.407158 2255.143555
5.040000 5.200000 -4.840000 51.846142 41.861023 4440.367676
5.040000 5.200000 -4.800000 26.472496 75.813400 6448.464844
5.080000 4.800000 -5.200000 -62.137386 -30.140215 4769.487305
5.080000 4.800000 -5.160000 -38.020546 -64.281235 5577.639160
5.080000 4.800000 -5.120000 6.496462 -74.421509 5580.765137
5.080000 4.800000 -5.080000 46.386597 -51.599731 4814.248535
5.080000 4.800000 -5.040000 58.759300 -10.682599 3566.773193
5.080000 4.800000 -5.000000 41.761734 21.717592 2215.696289
5.080000 4.800000 -4.960000 14.427725 29.595652 1084.061768
5.080000 4.800000 -4.920000 -1.887943 18.823025 357.870605
5.080000 4.800000 -4.880000 -1.690627 7.559515 60.004486
5.080000 4.800000 -4.840000 3.942561 7.130931 66.393959
5.080000 4.800000 -4.800000 2.510978 13.029244 176.066223
5.080000 4.840000 -5.200000 -27.807018 -62.615845 4693.974121
5.080000 4.840000 -5.160000 1.312775 -74.203896 5507.941406
5.080000 4.840000 -5.120000 33.675793 -67.258537 5657.770020
5.080000 4.840000 -5.080000 56.179779 -43.728485 5068.347656
5.080000 4.840000 -5.040000 61.220337 -14.288878 3952.101807
5.080000 4.840000 -5.000000 50.993507 9.148701 2684.036621
5.080000 4.840000 -4.960000 34.094391 20.786198 1594.493530
5.080000 4.840000 -4.920000 18.500731 22.111252 831.184509
5.080000 4.840000 -4.880000 7.620481 17.594820 367.649445
5.080000 4.840000 -4.840000 1.688858 10.485603 112.800117
5.080000 4.840000 -4.800000 0.823833 2.668303 7.798543
5.080000 4.880000 -5.200000 18.080065 -59.396774 3854.865479
5.080000 4.880000 -5.160000 33.212620 -56.077457 4247.759277
5.080000 4.880000 -5.120000 48.472267 -50.757408 4925.875000
5.080000 4.880000 -5.080000 65.763863 -39.675983 5899.069336
5.080000 4.880000 -5.040000 80.093163 -17.649530 6726.420410
5.080000 4.880000 -5.000000 81.098106 13.375568 6755.808594
5.080000 4.880000 -4.960000 62.586262 41.276211 5620.765625
5.080000 4.880000 -4.920000 31.076805 51.336040 3601.156982
5.080000 4.880000 -4.880000 3.731590 38.854401 1523.589233
5.080000 4.880000 -4.840000 -4.306885 14.751030 236.142136
5.080000 4.880000 -4.800000 7.720538 -2.168815 64.310463
5.080000 4.920000 -5.200000 45.067135 -26.771229 2747.745361
5.080000 4.920000 -5.160000 43.090019 -27.170567 2594.989502
5.080000 4.920000 -5.120000 54.407055 -35.595413 4227.161133
5.080000 4.920000 -5.080000 82.983734 -31.314404 7866.892090
5.080000 4.920000 -5.040000 109.418152 1.381989 11974.242188
5.080000 4.920000 -5.000000 106.386765 52.811649 14107.213867
5.080000 4.920000 -4.960000 65.933655 91.463760 12712.866211
5.080000 4.920000 -4.920000 10.962234 90.932808 8388.946289
5.080000 4.920000 -4.880000 -22.555819 54.761459 3507.582275
5.080000 4.920000 -4.840000 -16.883789 14.320543 490.140320
5.080000 4.920000 -4.800000 12.657332 0.920549 161.055481
5.080000 4.960000 -5.200000 41.401276 9.810118 1810.304077
5.080000 4.960000 -5.160000 35.413391 -5.240039 1281.566284
5.080000 4.960000 -5.120000 58.431999 -21.383150 3871.537598
5.080000 4.960000 -5.080000 99.944794 -6.084907 10025.988281
5.080000 4.960000 -5.040000 121.645752 49.047760 17203.373047
5.080000 4.960000 -5.000000 92.648483 112.788872 21305.070312
5.080000 4.960000 -4.960000 22.507666 138.472519 19681.234375
5.080000 4.960000 -4.920000 -42.855255 106.705719 13222.683594
5.080000 4.960000 -4.880000 -60.986820 44.517502 5701.200195
5.080000 4.960000 -4.840000 -30.383492 1.033418 924.224487
5.080000 4.960000 -4.800000 10.828505 3.093850 126.828415
5.080000 5.000000 -5.200000 18.614822 29.266331 1203.029785
5.080000 5.000000 -5.160000 22.775076 5.020895 543.913513
5.080000 5.000000 -5.120000 58.876465 -2.827772 3474.434570
5.080000 5.000000 -5.080000 97.320755 33.537689 10596.105469
5.080000 5.000000 -5.040000 93.483986 101.514130 19044.375000
5.080000 5.000000 -5.000000 32.350674 151.825409 24097.521484
5.080000 5.000000 -4.960000 -51.096600 141.571167 22653.257812
5.080000 5.000000 -4.920000 -99.643188 75.484238 15626.634766
5.080000 5.000000 -4.880000 -84.746811 3.429969 7193.786621
5.080000 5.000000 -4.840000 -30.886829 -24.704882 1564.327393
5.080000 5.000000 -4.800000 10.197948 -2.569403 110.599983
5.080000 5.040000 -5.200000 -4.118980 29.065407 861.763855
5.080000 5.040000 -5.160000 11.743149 8.840686 216.059265
5.080000 5.040000 -5.120000 47.719707 17.479069 2582.688232
5.080000 5.040000 -5.080000 65.693192 65.655029 8626.177734
5.080000 5.040000 -5.040000 32.613407 122.228897 16003.537109
5.080000 5.040000 -5.000000 -42.261337 137.456970 20680.439453
5.080000 5.040000 -4.960000 -108.909546 89.742294 19914.968750
5.080000 5.040000 -4.920000 -119.409744 9.203852 14343.398438
5.080000 5.040000 -4.880000 -71.314911 -47.569000 7348.625977
5.080000 5.040000 -4.840000 -8.439898 -47.875137 2363.260742
5.080000 5.040000 -4.800000 21.284718 -9.072877 535.356323
5.080000 5.080000 -5.200000 -17.128336 19.702337 681.562012
5.080000 5.080000 -5.160000 0.806723 9.706497 94.866890
5.080000 5.080000 -5.120000 23.867517 27.352612 1317.823730
5.080000 5.080000 -5.080000 20.080118 67.664307 4981.669434
5.080000 5.080000 -5.040000 -24.318012 95.683617 9746.720703
5.080000 5.080000 -5.000000 -84.268166 77.262573 13070.628906
5.080000 5.080000 -4.960000 -113.658295 14.546547 13129.809570
5.080000 5.080000 -4.920000 -86.972076 -51.233032 10188.965820
5.080000 5.080000 -4.880000 -23.716434 -75.114784 6204.700195
5.080000 5.080000 -4.840000 29.384911 -47.857334 3153.797363
5.080000 5.080000 -4.800000 40.799889 -0.792852 1665.259521
5.080000 5.120000 -5.200000 -22.793692 10.068629 620.929688
5.080000 5.120000 -5.160000 -10.858471 4.893410 141.851852
5.080000 5.120000 -5.120000 -0.100599 17.881392 319.754303
5.080000 5.120000 -5.080000 -10.526230 39.349644 1659.195923
5.080000 5.120000 -5.040000 -43.079426 43.268707 3728.018066
5.080000 5.120000 -5.000000 -72.513870 13.551159 5441.895020
5.080000 5.120000 -4.960000 -68.591843 -35.615494 5973.304199
5.080000 5.120000 -4.920000 -25.920067 -68.661499 5386.250977
5.080000 5.120000 -4.880000 28.384247 -60.068794 4413.925293
5.080000 5.120000 -4.840000 58.139275 -17.298355 3679.408447
5.080000 5.120000 -4.800000 49.498314 27.504131 3206.560303
5.080000 5.160000 -5.200000 -25.718021 0.726659 661.944641
5.080000 5.160000 -5.160000 -17.648777 -7.691425 370.637360
5.080000 5.160000 -5.120000 -7.957472 -4.237556 81.278236
5.080000 5.160000 -5.080000 -9.585398 4.950315 116.385475
5.080000 5.160000 -5.040000 -21.862438 4.063358 494.477112
5.080000 5.160000 -5.000000 -28.253696 -13.849617 990.083252
5.080000 5.160000 -4.960000 -12.900185 -35.927578 1457.205688
5.080000 5.160000 -4.920000 20.971142 -39.538712 2003.098511
5.080000 5.160000 -4.880000 50.925285 -14.229179 2795.854248
5.080000 5.160000 -4.840000 54.789307 27.057352 3733.968506
5.080000 5.160000 -4.800000 30.158485 59.106064 4403.061035
5.080000 5.200000 -5.200000 -24.945473 -10.453289 731.547852
5.080000 5.200000 -5.160000 -13.006065 -22.135822 659.152344
5.080000 5.200000 -5.120000 3.487827 -20.668339 439.345184
5.080000 5.200000 -5.080000 11.954644 -9.400908 231.290573
5.080000 5.200000 -5.040000 9.989719 -0.409832 99.962456
5.080000 5.200000 -5.000000 7.318787 -0.356689 53.691864
5.080000 5.200000 -4.960000 13.798027 -2.516878 196.720215
5.080000 5.200000 -4.920000 26.839108 5.827557 754.298096
5.080000 5.200000 -4.880000 32.365669 28.563770 1863.425537
5.080000 5.200000 -4.840000 18.601845 54.568905 3323.793945
5.080000 5.200000 -4.800000 -11.799717 66.876190 4611.658203
5.120000 4.800000 -5.200000 -29.904514 -33.947029 2046.680664
5.120000 4.800000 -5.160000 -3.182482 -49.533867 2463.732178
5.120000 4.800000 -5.120000 32.203403 -42.275108 2824.244141
5.120000 4.800000 -5.080000 54.847485 -10.588261 3120.357910
5.120000 4.800000 -5.040000 49.272873 28.193970 3222.715820
5.120000 4.800000 -5.000000 19.862471 50.524174 2947.209961
5.120000 4.800000 -4.960000 -12.365331 45.771194 2247.903564
5.120000 4.800000 -4.920000 -27.607203 23.835154 1330.272217
5.120000 4.800000 -4.880000 -22.851519 4.411231 541.650879
5.120000 4.800000 -4.840000 -10.918786 -1.038604 120.298584
5.120000 4.800000 -4.800000 -5.456062 2.972695 38.605530
5.120000 4.840000 -5.200000 -1.197384 -46.543716 2167.751465
5.120000 4.840000 -5.160000 24.265553 -46.528957 2753.760742
5.120000 4.840000 -5.120000 48.032188 -28.699217 3130.736084
5.120000 4.840000 -5.080000 56.110584 2.176716 3153.135742
5.120000 4.840000 -5.040000 42.655495 31.063679 2784.443359
5.120000 4.840000 -5.000000 15.556235 43.314556 2118.147217
5.120000 4.840000 -4.960000 -9.276620 35.513462 1347.261597
5.120000 4.840000 -4.920000 -19.904612 16.896614 681.689148
5.120000 4.840000 -4.880000 -15.870502 0.699865 252.362656
5.120000 4.840000 -4.840000 -5.405343 -5.937447 64.471008
5.120000 4.840000 -4.800000 3.375691 -4.621767 32.756020
5.120000 4.880000 -5.200000 26.845940 -34.800007 1931.744995
5.120000 4.880000 -5.160000 41.109825 -27.265741 2433.438477
5.120000 4.880000 -5.120000 52.464050 -11.781506 2891.280518
5.120000 4.880000 -5.080000 55.067650 9.903707 3130.529541
5.120000 4.880000 -5.040000 44.987671 31.168442 2995.362305
5.120000 4.880000 -5.000000 24.238613 43.119965 2446.841797
5.120000 4.880000 -4.960000 1.391930 40.189671 1617.147095
5.120000 4.880000 -4.920000 -12.801363 24.642220 771.113892
5.120000 4.880000 -4.880000 -12.227950 6.092340 186.639374
5.120000 4.880000 -4.840000 0.359620 -4.318905 18.782265
5.120000 4.880000 -4.800000 15.097202 -1.106174 229.149139
5.120000 4.920000 -5.200000 37.915428 -9.073063 1519.900146
5.120000 4.920000 -5.160000 42.261681 -4.976031 1810.810547
5.120000 4.920000 -5.120000 50.459518 2.286392 2551.390625
5.120000 4.920000 -5.080000 57.295132 18.940081 3641.458740
5.120000 4.920000 -5.040000 52.057602 42.847481 4545.900391
5.120000 4.920000 -5.000000 29.573250 61.191269 4618.948242
5.120000 4.920000 -4.960000 -1.290039 60.123981 3616.557373
5.120000 4.920000 -4.920000 -22.038252 38.474617 1965.980713
5.120000 4.920000 -4.880000 -19.835867 11.537659 526.579163
5.120000 4.920000 -4.840000 0.309824 -0.540771 0.388424
5.120000 4.920000 -4.800000 18.888355 9.931782 455.410248
5.120000 4.960000 -5.200000 30.366640 14.289960 1126.335815
5.120000 4.960000 -5.160000 32.999294 11.409554 1219.131348
5.120000 4.960000 -5.120000 45.562843 15.374536 2312.349121
5.120000 4.960000 -5.080000 55.904701 36.333862 4445.485352
5.120000 4.960000 -5.040000 46.014320 67.303490 6647.077148
5.120000 4.960000 -5.000000 11.708107 85.892471 7514.596191
5.120000 4.960000 -4.960000 -28.485994 74.221619 6320.300293
5.120000 4.960000 -4.920000 -47.237076 38.021698 3676.990723
5.120000 4.960000 -4.880000 -33.411713 4.280945 1134.669067
5.120000 4.960000 -4.840000 -3.450812 -2.411562 17.723736
5.120000 4.960000 -4.800000 13.391940 17.583942 488.539093
5.120000 5.000000 -5.200000 13.327573 26.086540 858.131775
5.120000 5.000000 -5.160000 19.336132 20.731174 803.667603
5.120000 5.000000 -5.120000 34.321648 28.693554 2001.295410
5.120000 5.000000 -5.080000 39.086967 55.916687 4654.466797
5.120000 5.000000 -5.040000 16.183144 85.694229 7605.395020
5.120000 5.000000 -5.000000 -28.466330 90.639458 9025.843750
5.120000 5.000000 -4.960000 -65.660728 59.636932 7867.894531
5.120000 5.000000 -4.920000 -68.149208 12.109022 4790.942871
5.120000 5.000000 -4.880000 -36.995754 -17.433622 1672.616943
5.120000 5.000000 -4.840000 -1.625104 -10.992683 123.480049
5.120000 5.000000 -4.800000 7.847879 16.556519 335.707520
5.120000 5.040000 -5.200000 -4.081264 26.751572 732.303345
5.120000 5.040000 -5.160000 3.111190 23.512323 562.508850
5.120000 5.040000 -5.120000 13.464711 35.389648 1433.725708
5.120000 5.040000 -5.080000 7.277253 60.337181 3693.533936
5.120000 5.040000 -5.040000 -24.410433 76.212326 6404.187988
5.120000 5.040000 -5.000000 -64.771393 60.825916 7895.125488
5.120000 5.040000 -4.960000 -82.727661 16.718489 7123.373535
5.120000 5.040000 -4.920000 -62.206711 -26.722944 4583.790527
5.120000 5.040000 -4.880000 -19.319010 -38.906689 1886.954590
5.120000 5.040000 -4.840000 11.646829 -16.617395 411.786438
5.120000 5.040000 -4.800000 10.453755 13.778471 299.127258
5.120000 5.080000 -5.200000 -18.071150 19.937056 724.052612
5.120000 5.080000 -5.160000 -13.824638 17.300409 490.424805
5.120000 5.080000 -5.120000 -10.068546 25.962805 775.442871
5.120000 5.080000 -5.080000 -21.188425 39.344975 1996.976318
5.120000 5.080000 -5.040000 -47.266911 38.287903 3700.124512
5.120000 5.080000 -5.000000 -68.431702 11.796810 4822.062500
5.120000 5.080000 -4.960000 -62.196514 -27.220749 4609.375488
5.120000 5.080000 -4.920000 -27.168846 -50.444366 3282.780273
5.120000 5.080000 -4.880000 12.669855 -40.357086 1789.219727
5.120000 5.080000 -4.840000 29.403881 -7.441544 919.964783
5.120000 5.080000 -4.800000 17.077316 20.170904 698.500122
5.120000 5.120000 -5.200000 -27.105003 7.460960 790.347168
5.120000 5.120000 -5.160000 -24.688850 0.613366 609.915527
5.120000 5.120000 -5.120000 -20.983551 1.303943 442.009674
5.120000 5.120000 -5.080000 -25.328278 4.169067 658.902771
5.120000 5.120000 -5.040000 -35.178902 -2.831850 1245.574585
5.120000 5.120000 -5.000000 -36.110962 -22.466181 1808.730835
5.120000 5.120000 -4.960000 -17.373627 -41.091885 1990.385864
5.120000 5.120000 -4.920000 13.895979 -40.253834 1813.469360
5.120000 5.120000 -4.880000 36.632614 -15.722893 1589.157715
5.120000 5.120000 -4.840000 35.234619 16.770025 1522.712158
5.120000 5.120000 -4.800000 14.161451 36.032104 1498.859253
5.120000 5.160000 -5.200000 -28.036655 -8.754123 862.688721
5.120000 5.160000 -5.160000 -21.376827 -20.250540 867.053101
5.120000 5.160000 -5.120000 -10.115016 -23.109936 636.382690
5.120000 5.160000 -5.080000 -2.873802 -19.815973 400.931519
5.120000 5.160000 -5.040000 -0.015671 -18.139759 329.051117
5.120000 5.160000 -5.000000 5.664690 -20.039776 433.681335
5.120000 5.160000 -4.960000 18.327023 -18.142134 665.016785
5.120000 5.160000 -4.920000 31.554119 -4.366181 1014.725952
5.120000 5.160000 -4.880000 33.331970 19.230030 1480.814331
5.120000 5.160000 -4.840000 18.434452 40.234955 1958.680542
5.120000 5.160000 -4.800000 -5.683469 47.058437 2246.798340
5.120000 5.200000 -5.200000 -18.336397 -22.776506 854.992676
5.120000 5.200000 -5.160000 -3.980762 -32.470592 1070.185791
5.120000 5.200000 -5.120000 14.088208 -29.549370 1071.642944
5.120000 5.200000 -5.080000 25.717962 -16.541822 935.045471
5.120000 5.200000 -5.040000 27.888023 -1.779552 780.908630
5.120000 5.200000 -5.000000 24.843704 9.471546 706.919861
5.120000 5.200000 -4.960000 20.974663 18.509457 782.536499
5.120000 5.200000 -4.920000 15.420209 28.546316 1052.675049
5.120000 5.200000 -4.880000 4.253169 38.529984 1502.649048
5.120000 5.200000 -4.840000 -13.258888 42.950794 2020.568848
5.120000 5.200000 -4.800000 -32.135101 37.434219 2433.985596
5.160000 4.800000 -5.200000 -13.916264 -17.721394 507.710205
5.160000 4.800000 -5.160000 3.527452 -22.376150 513.135010
5.160000 4.800000 -5.120000 24.466934 -10.384110 706.460632
5.160000 4.800000 -5.080000 31.737003 17.718946 1321.198486
5.160000 4.800000 -5.040000 14.679469 45.250252 2263.072266
5.160000 4.800000 -5.000000 -18.570036 52.032867 3052.265381
5.160000 4.800000 -4.960000 -45.869202 32.607422 3167.227539
5.160000 4.800000 -4.920000 -49.823849 1.802858 2485.666260
5.160000 4.800000 -4.880000 -32.514618 -18.542364 1401.019775
5.160000 4.800000 -4.840000 -11.717256 -18.868317 493.307434
5.160000 4.800000 -4.800000 -2.899615 -8.159040 74.977707
5.160000 4.840000 -5.200000 1.287569 -25.287365 641.108643
5.160000 4.840000 -5.160000 18.251829 -21.100473 778.359253
5.160000 4.840000 -5.120000 30.444218 -1.862136 930.317932
5.160000 4.840000 -5.080000 24.772751 24.177040 1198.218506
5.160000 4.840000 -5.040000 0.361155 39.570862 1565.983643
5.160000 4.840000 -5.000000 -28.168079 32.468658 1847.654419
5.160000 4.840000 -4.960000 -42.032227 7.653758 1825.288086
5.160000 4.840000 -4.920000 -33.944141 -17.226759 1448.965942
5.160000 4.840000 -4.880000 -13.203321 -26.805233 892.848206
5.160000 4.840000 -4.840000 4.132571 -19.849751 411.090759
5.160000 4.840000 -4.800000 9.557158 -7.103349 141.796814
5.160000 4.880000 -5.200000 17.825600 -20.268677 728.571289
5.160000 4.880000 -5.160000 28.837612 -10.275011 937.183716
5.160000 4.880000 -5.120000 30.827631 7.948624 1013.523438
5.160000 4.880000 -5.080000 18.788078 24.481859 952.353333
5.160000 4.880000 -5.040000 -2.033852 28.384396 809.810425
5.160000 4.880000 -5.000000 -19.240217 16.814070 652.898926
5.160000 4.880000 -4.960000 -22.713184 -2.392540 521.612976
5.160000 4.880000 -4.920000 -11.999524 -16.846783 427.802673
5.160000 4.880000 -4.880000 4.383578 -18.757246 371.050049
5.160000 4.880000 -4.840000 16.207977 -9.303753 349.258331
5.160000 4.880000 -4.800000 18.404194 4.367777 357.791840
5.160000 4.920000 -5.200000 27.421761 -5.501658 782.221191
5.160000 4.920000 -5.160000 31.100693 5.449574 996.950989
5.160000 4.920000 -5.120000 27.267883 17.592978 1053.050293
5.160000 4.920000 -5.080000 16.754238 25.503033 931.109131
5.160000 4.920000 -5.040000 3.794466 25.726940 676.273376
5.160000 4.920000 -5.000000 -6.113994 18.341093 373.776611
5.160000 4.920000 -4.960000 -8.569260 7.016380 122.661804
5.160000 4.920000 -4.920000 -2.467459 -2.165706 10.778633
5.160000 4.920000 -4.880000 8.615425 -3.360460 85.518242
5.160000 4.920000 -4.840000 17.259117 5.340725 326.400482
5.160000 4.920000 -4.800000 16.220985 19.469866 642.196045
5.160000 4.960000 -5.200000 25.912556 12.564706 829.332397
5.160000 4.960000 -5.160000 23.552128 21.044626 997.578979
5.160000 4.960000 -5.120000 18.458050 27.008123 1070.138306
5.160000 4.960000 -5.080000 11.933876 31.170937 1114.044678
5.160000 4.960000 -5.040000 3.177684 33.062538 1103.229126
5.160000 4.960000 -5.000000 -6.866721 29.725389 930.750610
5.160000 4.960000 -4.960000 -13.007761 19.900799 565.243652
5.160000 4.960000 -4.920000 -9.821975 8.694897 172.072418
5.160000 4.960000 -4.880000 1.059828 5.340584 29.645069
5.160000 4.960000 -4.840000 9.390606 14.195296 289.689911
5.160000 4.960000 -4.800000 4.619086 28.110861 811.556458
5.160000 5.000000 -5.200000 13.312155 26.712257 890.758179
5.160000 5.000000 -5.160000 6.590163 30.643148 982.432800
5.160000 5.000000 -5.120000 1.992098 31.721596 1010.228088
5.160000 5.000000 -5.080000 -2.325792 34.243973 1178.058960
5.160000 5.000000 -5.040000 -10.925190 36.198700 1429.705566
5.160000 5.000000 -5.000000 -22.329084 31.010357 1460.230225
5.160000 5.000000 -4.960000 -27.711653 17.193800 1063.562500
5.160000 5.000000 -4.920000 -20.433540 3.632135 430.721985
5.160000 5.000000 -4.880000 -5.821087 2.163163 38.564327
5.160000 5.000000 -4.840000 1.598319 14.121465 201.970398
5.160000 5.000000 -4.800000 -7.284258 26.378338 748.877136
5.160000 5.040000 -5.200000 -6.332594 30.471842 968.634888
5.160000 5.040000 -5.160000 -15.227335 27.770611 1003.078613
5.160000 5.040000 -5.120000 -18.194853 23.738291 894.559143
5.160000 5.040000 -5.080000 -20.412565 23.117981 951.113892
5.160000 5.040000 -5.040000 -26.926811 21.615368 1192.277344
5.160000 5.040000 -5.000000 -33.785175 12.559562 1299.180664
5.160000 5.040000 -4.960000 -31.483860 -2.026298 995.339355
5.160000 5.040000 -4.920000 -17.431770 -10.607545 416.386627
5.160000 5.040000 -4.880000 -2.095870 -4.353342 23.344259
5.160000 5.040000 -4.840000 0.368752 11.196058 125.487701
5.160000 5.040000 -4.800000 -12.093027 19.800520 538.301880
5.160000 5.080000 -5.200000 -24.875175 20.533348 1040.392700
5.160000 5.080000 -5.160000 -31.736498 9.949603 1106.199951
5.160000 5.080000 -5.120000 -29.758827 0.872771 886.349487
5.160000 5.080000 -5.080000 -26.137320 -2.748433 690.713379
5.160000 5.080000 -5.040000 -25.249603 -5.656027 669.533142
5.160000 5.080000 -5.000000 -23.010437 -12.251559 679.580933
5.160000 5.080000 -4.960000 -13.517570 -18.442722 522.858704
5.160000 5.080000 -4.920000 0.726194 -15.427702 238.541351
5.160000 5.080000 -4.880000 8.741587 -1.403175 78.384239
5.160000 5.080000 -4.840000 2.815738 13.498369 190.134354
5.160000 5.080000 -4.800000 -11.368984 16.634251 405.952087
5.160000 5.120000 -5.200000 -32.600010 0.224351 1062.810913
5.160000 5.120000 -5.160000 -32.044628 -15.863731 1278.516113
5.160000 5.120000 -5.120000 -21.311234 -26.041037 1132.304199
5.160000 5.120000 -5.080000 -9.046396 -27.215405 822.515503
5.160000 5.120000 -5.040000 -0.231948 -23.758324 564.511719
5.160000 5.120000 -5.000000 6.656939 -19.355116 418.935364
5.160000 5.120000 -4.960000 13.615835 -12.388453 338.864716
5.160000 5.120000 -4.920000 17.479607 -0.308439 305.631775
5.160000 5.120000 -4.880000 12.828211 13.652311 350.948608
5.160000 5.120000 -4.840000 -0.044946 21.324005 454.715210
5.160000 5.120000 -4.800000 -12.851685 18.274502 499.123230
5.160000 5.160000 -5.200000 -24.347422 -19.949768 990.790161
5.160000 5.160000 -5.160000 -13.955385 -34.835835 1408.288208
5.160000 5.160000 -5.120000 4.815143 -38.929615 1538.700439
5.160000 5.160000 -5.080000 21.890039 -30.619034 1416.698975
5.160000 5.160000 -5.040000 30.902920 -15.292313 1188.845337
5.160000 5.160000 -5.000000 31.401365 0.970060 986.986755
5.160000 5.160000 -4.960000 25.411623 14.951122 869.286682
5.160000 5.160000 -4.920000 14.449620 24.941389 830.864380
5.160000 5.160000 -4.880000 0.431398 28.798937 829.564880
5.160000 5.160000 -4.840000 -12.613186 25.440746 806.324036
5.160000 5.160000 -4.800000 -20.377476 17.561380 723.643555
5.160000 5.200000 -5.200000 -4.859761 -28.034767 809.565430
5.160000 5.200000 -5.160000 11.388314 -34.801437 1340.833740
5.160000 5.200000 -5.120000 31.096745 -28.330366 1769.617188
5.160000 5.200000 -5.080000 43.818298 -9.480436 2009.921875
5.160000 5.200000 -5.040000 43.193779 14.011658 2062.029053
5.160000 5.200000 -5.000000 29.869972 32.906837 1975.075195
5.160000 5.200000 -4.960000 9.780209 41.271595 1798.997070
5.160000 5.200000 -4.920000 -9.578308 38.389233 1565.477173
5.160000 5.200000 -4.880000 -22.568233 28.052273 1296.255127
5.160000 5.200000 -4.840000 -27.662369 16.206602 1027.860596
5.160000 5.200000 -4.800000 -27.763300 7.502975 827.095459
5.200000 4.800000 -5.200000 -18.097250 -3.296844 338.379639
5.200000 4.800000 -5.160000 -11.092117 -8.881380 201.913971
5.200000 4.800000 -5.120000 0.529519 -2.389457 5.989893
5.200000 4.800000 -5.080000 1.162501 15.922166 254.866776
5.200000 4.800000 -5.040000 -17.296787 30.148571 1208.115234
5.200000 4.800000 -5.000000 -44.040672 23.495962 2491.641113
5.200000 4.800000 -4.960000 -57.459915 -3.683911 3315.213135
5.200000 4.800000 -4.920000 -45.713520 -32.242630 3129.312988
5.200000 4.800000 -4.880000 -18.496326 -41.835838 2092.351562
5.200000 4.800000 -4.840000 2.676508 -29.939611 903.544006
5.200000 4.800000 -4.800000 5.599113 -12.492080 187.402130
5.200000 4.840000 -5.200000 -9.859850 -17.509743 403.807739
5.200000 4.840000 -5.160000 0.825577 -16.624123 277.043030
5.200000 4.840000 -5.120000 6.458849 -3.649249 55.033745
5.200000 4.840000 -5.080000 -3.364957 11.078053 134.046188
5.200000 4.840000 -5.040000 -24.444214 11.807715 736.941772
5.200000 4.840000 -5.000000 -39.796513 -6.551049 1626.678711
5.200000 4.840000 -4.960000 -35.191566 -31.860641 2253.546875
5.200000 4.840000 -4.920000 -12.918114 -45.221577 2211.868652
5.200000 4.840000 -4.880000 10.400153 -38.229347 1569.646240
5.200000 4.840000 -4.840000 19.632971 -19.609163 769.972839
5.200000 4.840000 -4.800000 14.245294 -5.027526 228.204407
5.200000 4.880000 -5.200000 8.251086 -21.148258 515.329285
5.200000 4.880000 -5.160000 15.885350 -11.969168 395.605316
5.200000 4.880000 -5.120000 11.829783 0.946325 140.839294
5.200000 4.880000 -5.080000 -2.552218 5.154902 33.086834
5.200000 4.880000 -5.040000 -15.334748 -5.132010 261.492035
5.200000 4.880000 -5.000000 -14.689324 -22.873438 738.970398
5.200000 4.880000 -4.960000 0.241515 -34.187637 1168.852905
5.200000 4.880000 -4.920000 18.842560 -30.582510 1290.332031
5.200000 4.880000 -4.880000 28.825581 -15.519622 1071.772827
5.200000 4.880000 -4.840000 26.288347 0.274963 691.152832
5.200000 4.880000 -4.800000 16.723156 8.931549 359.436523
5.200000 4.920000 -5.200000 24.836863 -8.664591 691.944885
5.200000 4.920000 -5.160000 22.921486 4.643388 546.955566
5.200000 4.920000 -5.120000 11.310125 10.334642 234.723770
5.200000 4.920000 -5.080000 0.797544 3.888153 15.753807
5.200000 4.920000 -5.040000 0.764003 -8.232924 68.364731
5.200000 4.920000 -5.000000 11.027686 -15.188093 352.288025
5.200000 4.920000 -4.960000 23.236349 -11.432966 670.640625
5.200000 4.920000 -4.920000 29.097980 -0.095131 846.701477
5.200000 4.920000 -4.880000 26.508247 11.788186 841.648560
5.200000 4.920000 -4.840000 18.528828 19.656242 729.685303
5.200000 4.920000 -4.800000 8.520477 22.902391 597.118042
5.200000 4.960000 -5.200000 26.927191 14.295704 929.440796
5.200000 4.960000 -5.160000 13.860031 23.433788 741.242920
5.200000 4.960000 -5.120000 1.011495 18.161346 330.857635
5.200000 4.960000 -5.080000 -0.376873 6.177905 38.308537
5.200000 4.960000 -5.040000 8.879397 0.009403 78.843788
5.200000 4.960000 -5.000000 18.744062 4.763116 374.027161
5.200000 4.960000 -4.960000 21.005728 15.236691 673.397339
5.200000 4.960000 -4.920000 15.944213 23.599005 811.130981
5.200000 4.960000 -4.880000 8.596705 27.344431 821.621216
5.200000 4.960000 -4.840000 1.267480 28.719139 826.395447
5.200000 4.960000 -4.800000 -7.774788 28.247440 858.365234
5.200000 5.000000 -5.200000 10.123345 32.870323 1182.940308
5.200000 5.000000 -5.160000 -8.961002 30.342615 1000.973877
5.200000 5.000000 -5.120000 -15.963907 15.223089 486.588776
5.200000 5.000000 -5.080000 -7.583176 3.591551 70.403793
5.200000 5.000000 -5.040000 5.071836 5.320114 54.027126
5.200000 5.000000 -5.000000 9.639090 16.175871 354.570862
5.200000 5.000000 -4.960000 4.266784 25.292419 657.911926
5.200000 5.000000 -4.920000 -4.017952 27.495180 772.128845
5.200000 5.000000 -4.880000 -9.898941 26.125702 780.541321
5.200000 5.000000 -4.840000 -15.217243 24.980612 855.595459
5.200000 5.000000 -4.800000 -23.164066 21.400757 994.566406
5.200000 5.040000 -5.200000 -16.293617 33.233643 1369.956909
5.200000 5.040000 -5.160000 -32.004681 17.243019 1321.621338
5.200000 5.040000 -5.120000 -28.225517 -2.623755 803.563904
5.200000 5.040000 -5.080000 -11.910571 -9.681873 235.600372
5.200000 5.040000 -5.040000 0.999205 -1.490582 3.220244
5.200000 5.040000 -5.000000 1.746113 11.282564 130.345169
5.200000 5.040000 -4.960000 -5.671220 18.213289 363.886658
5.200000 5.040000 -4.920000 -13.004139 18.413712 508.172394
5.200000 5.040000 -4.880000 -17.865665 16.730991 599.108093
5.200000 5.040000 -4.840000 -23.286417 14.390478 749.343079
5.200000 5.040000 -4.800000 -29.201756 7.355567 906.846924
5.200000 5.080000 -5.200000 -34.886711 13.757847 1406.360962
5.200000 5.080000 -5.160000 -39.070221 -10.251580 1631.577026
5.200000 5.080000 -5.120000 -23.498943 -27.734074 1321.379150
5.200000 5.080000 -5.080000 -1.935297 -27.141180 740.389038
5.200000 5.080000 -5.040000 10.354109 -12.773773 270.376862
5.200000 5.080000 -5.000000 9.098227 2.838453 90.834541
5.200000 5.080000 -4.960000 0.351357 11.477862 131.864777
5.200000 5.080000 -4.920000 -8.980975 13.309992 257.813782
5.200000 5.080000 -4.880000 -16.910233 11.195635 411.298218
5.200000 5.080000 -4.840000 -23.268497 5.312814 569.648987
5.200000 5.080000 -4.800000 -24.904404 -4.576829 641.176697
5.200000 5.120000 -5.200000 -33.101349 -12.629312 1255.198853
5.200000 5.120000 -5.160000 -23.815781 -35.075199 1797.461060
5.200000 5.120000 -5.120000 -0.072545 -43.630402 1903.617188
5.200000 5.120000 -5.080000 22.582129 -33.057755 1602.767700
5.200000 5.120000 -5.040000 31.719585 -11.337404 1134.668823
5.200000 5.120000 -5.000000 25.610796 9.011358 737.117432
5.200000 5.120000 -4.960000 10.662472 20.017817 514.401306
5.200000 5.120000 -4.920000 -5.393507 20.428612 446.418091
5.200000 5.120000 -4.880000 -17.129299 12.731909 455.514404
5.200000 5.120000 -4.840000 -21.202271 1.017583 450.571747
5.200000 5.120000 -4.800000 -16.643602 -8.908399 356.369049
5.200000 5.160000 -5.200000 -13.293868 -27.940365 957.390930
5.200000 5.160000 -5.160000 4.126059 -40.983475 1696.669556
5.200000 5.160000 -5.120000 28.827051 -37.761036 2256.894775
5.200000 5.160000 -5.080000 46.568829 -17.480816 2474.234619
5.200000 5.160000 -5.040000 47.424934 10.202211 2353.209717
5.200000 5.160000 -5.000000 31.299921 32.130241 2012.037476
5.200000 5.160000 -4.960000 6.664017 39.296452 1588.620117
5.200000 5.160000 -4.920000 -14.912776 30.838474 1173.402344
5.200000 5.160000 -4.880000 -24.782009 13.554417 797.870178
5.200000 5.160000 -4.840000 -21.419802 -2.072115 463.101562
5.200000 5.160000 -4.800000 -11.158348 -7.849318 186.120514
5.200000 5.200000 -5.200000 9.096581 -23.143797 618.383118
5.200000 5.200000 -5.160000 25.837711 -25.435328 1314.543213
5.200000 5.200000 -5.120000 44.122318 -13.256018 2122.500977
5.200000 5.200000 -5.080000 51.755066 11.886698 2819.880371
5.200000 5.200000 -5.040000 40.892601 39.164429 3206.057129
5.200000 5.200000 -5.000000 14.131313 54.522545 3172.402100
5.200000 5.200000 -4.960000 -16.003540 49.787964 2734.954590
5.200000 5.200000 -4.920000 -34.661480 28.618692 2020.447754
5.200000 5.200000 -4.880000 -34.669739 4.506800 1222.302124
5.200000 5.200000 -4.840000 -21.571457 -8.733454 541.600952
5.200000 5.200000 -4.800000 -9.056927 -7.112982 132.622437
