#kx 	ky 	kz 	real 	imag 	intensity
2.800000 -9.200000 0.800000 -59.496674 -8.875269 3618.624756
2.800000 -9.200000 0.840000 -39.626152 -26.332756 2263.645996
2.800000 -9.200000 0.880000 -20.483051 -20.999310 860.526367
2.800000 -9.200000 0.920000 -20.036453 -6.857479 448.484497
2.800000 -9.200000 0.960000 -34.130680 -5.724412 1197.672241
2.800000 -9.200000 1.000000 -41.523384 -23.515764 2277.182617
2.800000 -9.200000 1.040000 -27.114456 -43.655422 2640.989746
2.800000 -9.200000 1.080000 1.402018 -44.394127 1972.804199
2.800000 -9.200000 1.120000 20.799236 -21.464367 893.327271
2.800000 -9.200000 1.160000 15.335941 7.475700 291.077209
2.800000 -9.200000 1.200000 -8.649179 20.352076 489.015259
2.800000 -9.160000 0.800000 -43.374664 -39.789330 3464.552246
2.800000 -9.160000 0.840000 -16.300327 -41.206841 1963.704346
2.800000 -9.160000 0.880000 -4.632839 -24.793488 636.180237
2.800000 -9.160000 0.920000 -13.407869 -12.971789 348.038269
2.800000 -9.160000 0.960000 -26.048874 -19.972160 1077.431030
2.800000 -9.160000 1.000000 -23.089703 -37.756470 1958.685303
2.800000 -9.160000 1.040000 -2.937305 -45.638321 2091.484131
2.800000 -9.160000 1.080000 16.865488 -32.566299 1345.008545
2.800000 -9.160000 1.120000 18.126190 -8.423037 399.506317
2.800000 -9.160000 1.160000 0.099545 6.461678 41.763187
2.800000 -9.160000 1.200000 -21.031385 1.322879 444.069183
2.800000 -9.120000 0.800000 -9.815493 -47.711891 2372.768555
2.800000 -9.120000 0.840000 10.071634 -33.212891 1204.533936
2.800000 -9.120000 0.880000 8.782969 -14.742636 294.485840
2.800000 -9.120000 0.920000 -4.592449 -10.528873 131.947769
2.800000 -9.120000 0.960000 -11.390232 -21.297340 583.314087
2.800000 -9.120000 1.000000 -3.181602 -32.052490 1037.484741
2.800000 -9.120000 1.040000 10.914004 -29.504847 989.651428
2.800000 -9.120000 1.080000 15.648943 -15.842422 495.871765
2.800000 -9.120000 1.120000 6.163859 -5.132955 64.340385
2.800000 -9.120000 1.160000 -7.860641 -7.924522 124.587723
2.800000 -9.120000 1.200000 -13.270224 -21.169880 624.262634
2.800000 -9.080000 0.800000 14.939325 -28.149668 1015.587280
2.800000 -9.080000 0.840000 19.273281 -9.212521 456.329895
2.800000 -9.080000 0.880000 8.646461 1.585938 77.276497
2.800000 -9.080000 0.920000 -2.739038 -1.797236 10.732384
2.800000 -9.080000 0.960000 -4.392643 -11.151760 143.657074
2.800000 -9.080000 1.000000 1.382029 -15.413812 239.495590
2.800000 -9.080000 1.040000 5.087974 -12.698078 187.128677
2.800000 -9.080000 1.080000 2.211410 -10.357445 112.167000
2.800000 -9.080000 1.120000 -2.164272 -14.794224 223.553131
2.800000 -9.080000 1.160000 -0.279849 -23.723354 562.875854
2.800000 -9.080000 1.200000 9.051865 -29.207813 935.032654
2.800000 -9.040000 0.800000 13.307476 -1.186356 178.496353
2.800000 -9.040000 0.840000 6.323175 9.611361 132.360794
2.800000 -9.040000 0.880000 -4.333852 9.998354 118.749352
2.800000 -9.040000 0.920000 -9.981403 3.614707 112.694519
2.800000 -9.040000 0.960000 -10.202332 -2.366905 109.689812
2.800000 -9.040000 1.000000 -9.811573 -6.123350 133.762390
2.800000 -9.040000 1.040000 -10.423841 -11.439775 239.524933
2.800000 -9.040000 1.080000 -7.711820 -20.310291 471.980103
2.800000 -9.040000 1.120000 2.482882 -28.057697 793.399109
2.800000 -9.040000 1.160000 17.300358 -27.585373 1060.255127
2.800000 -9.040000 1.200000 28.283583 -17.671160 1112.230957
2.800000 -9.000000 0.800000 -6.529396 8.622395 116.978699
2.800000 -9.000000 0.840000 -13.446924 8.317437 249.999527
2.800000 -9.000000 0.880000 -17.437513 3.734093 318.010315
2.800000 -9.000000 0.920000 -18.577934 -0.698174 345.627106
2.800000 -9.000000 0.960000 -20.184025 -4.933058 431.729919
2.800000 -9.000000 1.000000 -21.789658 -12.854466 640.026489
2.800000 -9.000000 1.040000 -17.514267 -25.064394 934.973389
2.800000 -9.000000 1.080000 -3.031116 -34.592178 1205.806396
2.800000 -9.000000 1.120000 17.034422 -32.307163 1333.924316
2.800000 -9.000000 1.160000 31.060959 -16.913265 1250.841675
2.800000 -9.000000 1.200000 31.079399 2.100268 970.340210
2.800000 -8.960000 0.800000 -20.415966 -3.107420 426.467743
2.800000 -8.960000 0.840000 -20.308050 -7.385065 466.956085
2.800000 -8.960000 0.880000 -18.680727 -9.679609 442.664429
2.800000 -8.960000 0.920000 -19.310654 -10.810048 489.758484
2.800000 -8.960000 0.960000 -22.149849 -15.820492 740.903809
2.800000 -8.960000 1.000000 -20.731636 -27.034624 1160.671631
2.800000 -8.960000 1.040000 -8.472381 -38.285515 1537.561890
2.800000 -8.960000 1.080000 12.277849 -38.695221 1648.065674
2.800000 -8.960000 1.120000 29.498308 -23.679756 1430.881104
2.800000 -8.960000 1.160000 31.767748 -1.322856 1010.939758
2.800000 -8.960000 1.200000 19.488956 14.006420 575.999268
2.800000 -8.920000 0.800000 -14.417184 -17.926134 529.201477
2.800000 -8.920000 0.840000 -10.308706 -18.473122 447.525635
2.800000 -8.920000 0.880000 -8.904232 -16.661274 356.883392
2.800000 -8.920000 0.920000 -11.463852 -16.956743 418.951050
2.800000 -8.920000 0.960000 -13.494481 -23.412769 730.258789
2.800000 -8.920000 1.000000 -7.759555 -33.459728 1179.764160
2.800000 -8.920000 1.040000 7.527611 -37.867085 1490.581055
2.800000 -8.920000 1.080000 24.347847 -29.086906 1438.865723
2.800000 -8.920000 1.120000 30.742598 -9.977478 1044.657349
2.800000 -8.920000 1.160000 22.235188 7.182756 545.995544
2.800000 -8.920000 1.200000 6.814691 11.837640 186.569717
2.800000 -8.880000 0.800000 1.164198 -16.370564 269.350708
2.800000 -8.880000 0.840000 2.021913 -13.635087 190.003738
2.800000 -8.880000 0.880000 0.004039 -12.071701 145.725983
2.800000 -8.880000 0.920000 -3.106903 -14.330308 215.010574
2.800000 -8.880000 0.960000 -2.918132 -20.645708 434.760773
2.800000 -8.880000 1.000000 4.011615 -26.541454 720.541870
2.800000 -8.880000 1.040000 15.489090 -25.503212 890.325745
2.800000 -8.880000 1.080000 23.831358 -15.476875 807.467285
2.800000 -8.880000 1.120000 22.499184 -2.289814 511.456512
2.800000 -8.880000 1.160000 12.964758 4.966895 192.754990
2.800000 -8.880000 1.200000 3.858912 2.846905 22.996067
2.800000 -8.840000 0.800000 4.840291 0.142171 23.448629
2.800000 -8.840000 0.840000 0.889296 -0.997750 1.786351
2.800000 -8.840000 0.880000 -1.278839 -4.076918 18.256687
2.800000 -8.840000 0.920000 -1.638640 -7.879444 64.770782
2.800000 -8.840000 0.960000 0.086702 -11.905912 141.758270
2.800000 -8.840000 1.000000 4.429072 -14.744790 237.025513
2.800000 -8.840000 1.040000 10.224348 -14.206183 306.352936
2.800000 -8.840000 1.080000 14.274920 -9.871451 301.218872
2.800000 -8.840000 1.120000 14.243457 -4.545570 223.538284
2.800000 -8.840000 1.160000 11.511745 -1.745231 135.566116
2.800000 -8.840000 1.200000 9.791903 -1.609598 98.472160
2.800000 -8.800000 0.800000 -11.030506 11.361508 250.755951
2.800000 -8.800000 0.840000 -12.894379 1.901682 169.881393
2.800000 -8.800000 0.880000 -9.242260 -4.254965 103.524094
2.800000 -8.800000 0.920000 -5.597307 -5.935292 66.557541
2.800000 -8.800000 0.960000 -4.542411 -6.817945 67.117867
2.800000 -8.800000 1.000000 -3.769031 -9.872671 111.675224
2.800000 -8.800000 1.040000 0.014858 -13.765978 189.502365
2.800000 -8.800000 1.080000 6.794227 -14.834332 266.218933
2.800000 -8.800000 1.120000 13.324282 -11.300205 305.231140
2.800000 -8.800000 1.160000 16.526167 -4.634036 294.588470
2.800000 -8.800000 1.200000 15.552931 2.517371 248.230820
2.840000 -9.200000 0.800000 -52.880207 -27.248426 3538.793213
2.840000 -9.200000 0.840000 -30.910450 -33.351017 2067.746094
2.840000 -9.200000 0.880000 -20.540134 -24.020931 998.902222
2.840000 -9.200000 0.920000 -26.319534 -19.001602 1053.778809
2.840000 -9.200000 0.960000 -32.473465 -30.288269 1971.905029
2.840000 -9.200000 1.000000 -21.281813 -48.029099 2759.709717
2.840000 -9.200000 1.040000 5.802717 -50.759590 2610.207520
2.840000 -9.200000 1.080000 27.671068 -29.150829 1615.458862
2.840000 -9.200000 1.120000 24.665302 2.351911 613.908630
2.840000 -9.200000 1.160000 -1.060853 18.806604 354.813751
2.840000 -9.200000 1.200000 -27.394821 8.871013 829.171082
2.840000 -9.160000 0.800000 -25.226749 -53.845474 3535.724121
2.840000 -9.160000 0.840000 -2.376196 -43.469925 1895.280762
2.840000 -9.160000 0.880000 0.598764 -27.697762 767.524536
2.840000 -9.160000 0.920000 -7.519084 -24.841967 673.659912
2.840000 -9.160000 0.960000 -7.856131 -34.895035 1279.382202
2.840000 -9.160000 1.000000 6.928020 -41.217491 1746.879028
2.840000 -9.160000 1.040000 24.526850 -30.178495 1512.307861
2.840000 -9.160000 1.080000 26.633003 -7.041761 758.903259
2.840000 -9.160000 1.120000 9.060399 8.921906 161.691223
2.840000 -9.160000 1.160000 -13.409013 4.264872 197.990753
2.840000 -9.160000 1.200000 -21.951145 -15.356577 717.677246
2.840000 -9.120000 0.800000 11.833659 -50.071945 2647.235107
2.840000 -9.120000 0.840000 24.407719 -28.801003 1425.234497
2.840000 -9.120000 0.880000 19.207184 -12.606848 527.848511
2.840000 -9.120000 0.920000 10.208015 -9.940231 203.011780
2.840000 -9.120000 0.960000 9.084013 -13.605827 267.637817
2.840000 -9.120000 1.000000 13.974424 -12.114769 342.052155
2.840000 -9.120000 1.040000 14.469669 -3.694626 223.021591
2.840000 -9.120000 1.080000 5.494449 2.441612 36.150436
2.840000 -9.120000 1.120000 -6.087873 -2.315423 42.423386
2.840000 -9.120000 1.160000 -9.038341 -15.511283 322.291504
2.840000 -9.120000 1.200000 -0.102203 -25.944351 673.119812
2.840000 -9.080000 0.800000 29.875219 -22.123550 1381.980225
2.840000 -9.080000 0.840000 30.396551 -0.738256 924.495361
2.840000 -9.080000 0.880000 19.978035 12.652491 559.207397
2.840000 -9.080000 0.920000 7.580442 16.493238 329.490021
2.840000 -9.080000 0.960000 -2.597969 14.625895 220.666229
2.840000 -9.080000 1.000000 -10.809461 9.253258 202.467224
2.840000 -9.080000 1.040000 -16.278698 -0.354668 265.121796
2.840000 -9.080000 1.080000 -15.209330 -13.185991 405.194061
2.840000 -9.080000 1.120000 -5.335686 -23.460262 578.853455
2.840000 -9.080000 1.160000 9.159256 -24.599758 689.040039
2.840000 -9.080000 1.200000 19.620739 -16.156601 646.009155
2.840000 -9.040000 0.800000 19.835728 3.170115 403.505707
2.840000 -9.040000 0.840000 14.806736 18.861507 574.995911
2.840000 -9.040000 0.880000 1.410333 29.820135 891.229492
2.840000 -9.040000 0.920000 -17.759205 31.713472 1321.133667
2.840000 -9.040000 0.960000 -36.806786 20.643234 1780.882568
2.840000 -9.040000 1.000000 -46.052773 -2.510418 2127.160156
2.840000 -9.040000 1.040000 -37.619614 -28.346909 2218.782715
2.840000 -9.040000 1.080000 -13.486483 -42.681652 2003.608643
2.840000 -9.040000 1.120000 13.067788 -37.150749 1550.945312
2.840000 -9.040000 1.160000 26.690254 -17.140377 1006.162231
2.840000 -9.040000 1.200000 22.564621 2.033295 513.296387
2.840000 -9.000000 0.800000 -0.444582 5.902795 35.040642
2.840000 -9.000000 0.840000 -5.257281 18.496838 369.772003
2.840000 -9.000000 0.880000 -22.381226 27.459246 1254.929443
2.840000 -9.000000 0.920000 -47.299660 20.932276 2675.417969
2.840000 -9.000000 0.960000 -64.541183 -5.927170 4200.695801
2.840000 -9.000000 1.000000 -58.064999 -42.193306 5151.818848
2.840000 -9.000000 1.040000 -26.329231 -65.912216 5037.648926
2.840000 -9.000000 1.080000 13.027929 -61.197083 3914.810059
2.840000 -9.000000 1.120000 35.929062 -32.528400 2348.994141
2.840000 -9.000000 1.160000 31.765223 -1.677672 1011.843933
2.840000 -9.000000 1.200000 11.653805 11.133301 259.761566
2.840000 -8.960000 0.800000 -6.929796 -7.693470 107.211555
2.840000 -8.960000 0.840000 -13.003457 6.401045 210.063263
2.840000 -8.960000 0.880000 -35.003597 10.533469 1336.205811
2.840000 -8.960000 0.920000 -58.485039 -8.556012 3493.705078
2.840000 -8.960000 0.960000 -61.269249 -45.943573 5864.732910
2.840000 -8.960000 1.000000 -33.268845 -78.251709 7230.145996
2.840000 -8.960000 1.040000 11.653431 -81.746902 6818.358398
2.840000 -8.960000 1.080000 45.078793 -53.330120 4876.199219
2.840000 -8.960000 1.120000 47.726501 -14.158066 2478.269775
2.840000 -8.960000 1.160000 25.497496 8.751334 726.708191
2.840000 -8.960000 1.200000 2.448365 5.862654 40.365208
2.840000 -8.920000 0.800000 4.535685 -14.841133 240.831665
2.840000 -8.920000 0.840000 -8.174318 -0.876354 67.587479
2.840000 -8.920000 0.880000 -32.114262 -6.230824 1070.148926
2.840000 -8.920000 0.920000 -45.060661 -34.790794 3240.862793
2.840000 -8.920000 0.960000 -29.676319 -68.962997 5636.579102
2.840000 -8.920000 1.000000 9.432398 -82.711884 6930.226074
2.840000 -8.920000 1.040000 47.487091 -64.078293 6361.051758
2.840000 -8.920000 1.080000 60.086308 -26.247995 4299.321289
2.840000 -8.920000 1.120000 43.938499 3.908431 1945.867554
2.840000 -8.920000 1.160000 18.267988 9.480930 423.607422
2.840000 -8.920000 1.200000 5.800055 -3.050893 42.948582
2.840000 -8.880000 0.800000 15.399211 -3.317210 248.139587
2.840000 -8.880000 0.840000 -4.182165 2.656452 24.547243
2.840000 -8.880000 0.880000 -22.460453 -13.207697 678.915222
2.840000 -8.880000 0.920000 -20.716621 -41.689034 2167.153809
2.840000 -8.880000 0.960000 4.584222 -61.299427 3778.635010
2.840000 -8.880000 1.000000 37.760765 -56.190781 4583.279297
2.840000 -8.880000 1.040000 56.799915 -29.717897 4109.383789
2.840000 -8.880000 1.080000 51.863953 -1.137976 2691.164551
2.840000 -8.880000 1.120000 32.560455 11.561260 1193.845947
2.840000 -8.880000 1.160000 17.585995 6.691977 354.049774
2.840000 -8.880000 1.200000 16.985199 -1.983389 292.430817
2.840000 -8.840000 0.800000 7.192472 14.438988 260.216003
2.840000 -8.840000 0.840000 -10.517642 7.144191 161.660263
2.840000 -8.840000 0.880000 -16.125404 -13.006145 429.188446
2.840000 -8.840000 0.920000 -3.986366 -31.657007 1018.057190
2.840000 -8.840000 0.960000 18.138283 -35.908070 1618.386719
2.840000 -8.840000 1.000000 35.972511 -24.124371 1876.006836
2.840000 -8.840000 1.040000 40.282928 -5.943024 1658.033936
2.840000 -8.840000 1.080000 33.178856 6.792683 1146.976929
2.840000 -8.840000 1.120000 24.294342 9.810457 686.460083
2.840000 -8.840000 1.160000 21.057735 8.406727 514.101257
2.840000 -8.840000 1.200000 22.155113 10.596846 603.142151
2.840000 -8.800000 0.800000 -16.047386 15.699532 503.993896
2.840000 -8.800000 0.840000 -20.960865 0.263344 439.427185
2.840000 -8.800000 0.880000 -14.051600 -13.687429 384.793152
2.840000 -8.800000 0.920000 -1.294440 -19.103659 366.625336
2.840000 -8.800000 0.960000 9.698068 -16.443007 364.424988
2.840000 -8.800000 1.000000 15.791992 -10.642460 362.648987
2.840000 -8.800000 1.040000 18.744486 -5.369333 380.185486
2.840000 -8.800000 1.080000 21.139095 -0.409185 447.028778
2.840000 -8.800000 1.120000 22.849829 6.304729 561.864319
2.840000 -8.800000 1.160000 21.214905 15.114464 678.519165
2.840000 -8.800000 1.200000 13.980154 23.200134 733.690918
2.880000 -9.200000 0.800000 -41.599083 -42.368359 3525.561523
2.880000 -9.200000 0.840000 -22.386660 -41.108757 2191.092529
2.880000 -9.200000 0.880000 -16.644814 -34.060886 1437.193726
2.880000 -9.200000 0.920000 -18.084791 -36.212364 1638.395020
2.880000 -9.200000 0.960000 -10.717636 -46.902962 2314.755615
2.880000 -9.200000 1.000000 10.779896 -49.862831 2602.508057
2.880000 -9.200000 1.040000 32.085873 -32.200523 2066.376953
2.880000 -9.200000 1.080000 32.849319 -1.488657 1081.293823
2.880000 -9.200000 1.120000 9.000719 18.817364 435.106110
2.880000 -9.200000 1.160000 -20.597263 12.022304 568.783020
2.880000 -9.200000 1.200000 -31.254583 -14.698434 1192.892944
2.880000 -9.160000 0.800000 -3.791236 -59.142502 3512.208984
2.880000 -9.160000 0.840000 12.056528 -43.080841 2001.318726
2.880000 -9.160000 0.880000 12.259606 -30.151054 1059.384033
2.880000 -9.160000 0.920000 10.158188 -28.391724 909.278748
2.880000 -9.160000 0.960000 16.814426 -29.384020 1146.145508
2.880000 -9.160000 1.000000 27.846952 -20.318703 1188.302490
2.880000 -9.160000 1.040000 28.717550 -0.914005 825.533081
2.880000 -9.160000 1.080000 12.430920 14.153629 354.852966
2.880000 -9.160000 1.120000 -10.358105 10.460284 216.707886
2.880000 -9.160000 1.160000 -20.627981 -9.964128 524.797424
2.880000 -9.160000 1.200000 -9.979546 -29.339275 960.384399
2.880000 -9.120000 0.800000 32.268219 -42.270058 2827.995605
2.880000 -9.120000 0.840000 38.064003 -18.084501 1775.917480
2.880000 -9.120000 0.880000 30.986652 -0.900891 960.984192
2.880000 -9.120000 0.920000 21.194393 6.972670 497.820435
2.880000 -9.120000 0.960000 13.224411 10.699757 289.369843
2.880000 -9.120000 1.000000 4.547129 13.298691 197.531555
2.880000 -9.120000 1.040000 -6.787625 11.426567 176.638290
2.880000 -9.120000 1.080000 -16.020115 1.125938 257.911804
2.880000 -9.120000 1.120000 -15.255474 -14.259520 436.063385
2.880000 -9.120000 1.160000 -2.846411 -24.473965 607.077026
2.880000 -9.120000 1.200000 12.732531 -21.739098 634.705688
2.880000 -9.080000 0.800000 41.553547 -8.302399 1795.627075
2.880000 -9.080000 0.840000 37.577267 17.442181 1716.280762
2.880000 -9.080000 0.880000 20.060858 36.802513 1756.862915
2.880000 -9.080000 0.920000 -5.733709 43.264175 1904.664185
2.880000 -9.080000 0.960000 -31.257332 33.399513 2092.548340
2.880000 -9.080000 1.000000 -46.034630 9.569069 2210.754395
2.880000 -9.080000 1.040000 -42.500820 -18.372332 2143.862305
2.880000 -9.080000 1.080000 -22.164112 -36.659096 1835.137207
2.880000 -9.080000 1.120000 3.217253 -36.364311 1332.713867
2.880000 -9.080000 1.160000 18.882721 -20.515892 777.458984
2.880000 -9.080000 1.200000 17.994694 -2.188798 328.599823
2.880000 -9.040000 0.800000 25.013710 14.391720 832.807251
2.880000 -9.040000 0.840000 13.475720 39.677902 1755.931030
2.880000 -9.040000 0.880000 -17.744904 55.382294 3382.080078
2.880000 -9.040000 0.920000 -58.171501 45.467831 5451.247070
2.880000 -9.040000 0.960000 -84.826363 6.892189 7243.014160
2.880000 -9.040000 1.000000 -78.093605 -42.550388 7909.146973
2.880000 -9.040000 1.040000 -39.212875 -74.101791 7028.725098
2.880000 -9.040000 1.080000 7.815798 -69.882553 4944.658203
2.880000 -9.040000 1.120000 34.112335 -37.633232 2579.911621
2.880000 -9.040000 1.160000 28.783691 -3.984485 844.377014
2.880000 -9.040000 1.200000 5.985113 8.277023 104.330696
2.880000 -9.000000 0.800000 5.608158 13.718896 219.659531
2.880000 -9.000000 0.840000 -14.461877 38.093109 1660.230835
2.880000 -9.000000 0.880000 -57.771542 40.516365 4979.126953
2.880000 -9.000000 0.920000 -97.744164 3.870911 9568.906250
2.880000 -9.000000 0.960000 -100.530762 -58.613277 13541.950195
2.880000 -9.000000 1.000000 -55.580391 -108.317497 14821.860352
2.880000 -9.000000 1.040000 11.177956 -111.791542 12622.294922
2.880000 -9.000000 1.080000 56.726158 -69.767448 8085.354004
2.880000 -9.000000 1.120000 56.694557 -16.632061 3490.898193
2.880000 -9.000000 1.160000 24.289726 9.926273 688.521667
2.880000 -9.000000 1.200000 -4.915123 0.569193 24.482414
2.880000 -8.960000 0.800000 2.298046 3.118462 15.005821
2.880000 -8.960000 0.840000 -28.771955 22.087982 1315.704346
2.880000 -8.960000 0.880000 -74.337021 3.458984 5537.957031
2.880000 -8.960000 0.920000 -93.828705 -54.761383 11802.634766
2.880000 -8.960000 0.960000 -60.129795 -116.776382 17252.316406
2.880000 -8.960000 1.000000 12.201898 -136.766144 18853.865234
2.880000 -8.960000 1.040000 75.899277 -99.351471 15631.415039
2.880000 -8.960000 1.080000 91.004929 -33.945961 9434.225586
2.880000 -8.960000 1.120000 58.572380 11.591451 3565.085449
2.880000 -8.960000 1.160000 16.242100 12.957441 431.701111
2.880000 -8.960000 1.200000 1.276487 -12.879526 167.511612
2.880000 -8.920000 0.800000 10.749952 3.139511 125.418007
2.880000 -8.920000 0.840000 -28.591627 8.200474 884.728882
2.880000 -8.920000 0.880000 -61.746567 -30.077917 4717.319336
2.880000 -8.920000 0.920000 -50.690063 -90.399643 10741.578125
2.880000 -8.920000 0.960000 8.358762 -126.243401 16007.265625
2.880000 -8.920000 1.000000 77.746155 -106.809845 17452.806641
2.880000 -8.920000 1.040000 110.164375 -45.437717 14200.775391
2.880000 -8.920000 1.080000 89.893044 12.424438 8235.125977
2.880000 -8.920000 1.120000 44.208206 30.242470 2868.972412
2.880000 -8.920000 1.160000 15.111855 10.789030 344.771301
2.880000 -8.920000 1.200000 20.241608 -12.085732 555.787598
2.880000 -8.880000 0.800000 11.285124 16.807384 409.842163
2.880000 -8.880000 0.840000 -25.305981 2.938419 649.026978
2.880000 -8.880000 0.880000 -35.718666 -42.598061 3090.417969
2.880000 -8.880000 0.920000 -1.824677 -84.473991 7139.184570
2.880000 -8.880000 0.960000 56.567902 -86.595963 10698.788086
2.880000 -8.880000 1.000000 98.051727 -44.769028 11618.407227
2.880000 -8.880000 1.040000 96.133499 9.894232 9339.544922
2.880000 -8.880000 1.080000 61.138847 39.889629 5329.141113
2.880000 -8.880000 1.120000 27.316553 34.210716 1916.567139
2.880000 -8.880000 1.160000 19.382540 14.066517 573.549744
2.880000 -8.880000 1.200000 31.640923 8.177995 1068.027588
2.880000 -8.840000 0.800000 -5.979658 26.452576 735.495056
2.880000 -8.840000 0.840000 -26.612539 -0.496222 708.473450
2.880000 -8.840000 0.880000 -15.943914 -36.700180 1601.111572
2.880000 -8.840000 0.920000 21.420044 -52.504314 3215.521484
2.880000 -8.840000 0.960000 58.662769 -34.854973 4656.189453
2.880000 -8.840000 1.000000 70.631134 2.209450 4993.639160
2.880000 -8.840000 1.040000 54.817673 31.842123 4018.897949
2.880000 -8.840000 1.080000 30.268669 38.732605 2416.406982
2.880000 -8.840000 1.120000 17.283474 30.153616 1207.958984
2.880000 -8.840000 1.160000 18.785004 24.711794 963.549072
2.880000 -8.840000 1.200000 20.885780 31.950390 1457.043213
2.880000 -8.800000 0.800000 -27.731434 15.023948 994.751404
2.880000 -8.800000 0.840000 -27.799210 -9.892735 870.662292
2.880000 -8.800000 0.880000 -8.946949 -26.700529 792.966187
2.880000 -8.800000 0.920000 15.137123 -24.849022 846.606384
2.880000 -8.800000 0.960000 29.411438 -8.824612 942.906494
2.880000 -8.800000 1.000000 29.567564 8.481777 946.181396
2.880000 -8.800000 1.040000 22.498165 18.329365 842.133057
2.880000 -8.800000 1.080000 16.733767 22.116058 769.138977
2.880000 -8.800000 1.120000 13.609505 26.344389 879.245483
2.880000 -8.800000 1.160000 7.735354 33.440903 1178.129639
2.880000 -8.800000 1.200000 -5.150151 38.360813 1498.076050
2.920000 -9.200000 0.800000 -24.168121 -54.979855 3606.882568
2.920000 -9.200000 0.840000 -6.974014 -49.819664 2530.635986
2.920000 -9.200000 0.880000 0.136032 -43.312664 1876.005371
2.920000 -9.200000 0.920000 5.646486 -42.576485 1844.639893
2.920000 -9.200000 0.960000 18.132469 -41.321648 2036.264893
2.920000 -9.200000 1.000000 33.093689 -28.268063 1894.275635
2.920000 -9.200000 1.040000 35.561649 -3.423943 1276.354248
2.920000 -9.200000 1.080000 17.152122 17.173971 589.140625
2.920000 -9.200000 1.120000 -11.196915 15.733516 372.914429
2.920000 -9.200000 1.160000 -26.490742 -8.028275 766.212585
2.920000 -9.200000 1.200000 -15.274557 -33.827251 1377.595093
2.920000 -9.160000 0.800000 19.088608 -56.179428 3520.503174
2.920000 -9.160000 0.840000 29.983961 -37.562824 2310.003662
2.920000 -9.160000 0.880000 30.051695 -23.041407 1434.010742
2.920000 -9.160000 0.920000 28.614376 -14.476355 1028.347412
2.920000 -9.160000 0.960000 28.814123 -5.330870 858.671875
2.920000 -9.160000 1.000000 24.412601 7.777023 656.457214
2.920000 -9.160000 1.040000 9.431902 17.799057 405.767212
2.920000 -9.160000 1.080000 -10.866865 13.768902 307.671417
2.920000 -9.160000 1.120000 -21.652428 -5.460698 498.646851
2.920000 -9.160000 1.160000 -12.718243 -26.258131 851.243164
2.920000 -9.160000 1.200000 9.650644 -31.243647 1069.300415
2.920000 -9.120000 0.800000 48.180370 -25.834190 2988.753418
2.920000 -9.120000 0.840000 47.885025 0.953422 2293.884521
2.920000 -9.120000 0.880000 34.520416 21.620800 1659.118164
2.920000 -9.120000 0.920000 14.333588 31.726801 1212.041626
2.920000 -9.120000 0.960000 -6.892693 30.531185 979.662476
2.920000 -9.120000 1.000000 -24.047949 18.812119 932.199646
2.920000 -9.120000 1.040000 -31.672012 -0.544594 1003.412964
2.920000 -9.120000 1.080000 -25.788260 -20.552656 1087.446045
2.920000 -9.120000 1.120000 -8.367900 -31.515718 1063.262329
2.920000 -9.120000 1.160000 11.009270 -27.273148 865.028625
2.920000 -9.120000 1.200000 20.450554 -11.203438 543.742188
2.920000 -9.080000 0.800000 45.680763 11.879198 2227.847412
2.920000 -9.080000 0.840000 31.953421 41.975830 2782.991455
2.920000 -9.080000 0.880000 -1.492271 60.152466 3620.545898
2.920000 -9.080000 0.920000 -42.921078 52.881100 4638.629395
2.920000 -9.080000 0.960000 -71.753586 18.960335 5508.071289
2.920000 -9.080000 1.000000 -71.479851 -26.096840 5790.414062
2.920000 -9.080000 1.040000 -42.315411 -58.382942 5199.162109
2.920000 -9.080000 1.080000 -2.485058 -61.858727 3832.677490
2.920000 -9.080000 1.120000 24.416344 -39.690411 2171.486572
2.920000 -9.080000 1.160000 26.305292 -10.965385 812.208069
2.920000 -9.080000 1.200000 9.907059 4.632132 119.606453
2.920000 -9.040000 0.800000 21.558043 31.025885 1427.354736
2.920000 -9.040000 0.840000 -7.636095 59.062157 3546.648438
2.920000 -9.040000 0.880000 -60.037304 59.623669 7159.459961
2.920000 -9.040000 0.920000 -105.861893 17.347214 11507.666016
2.920000 -9.040000 0.960000 -110.512833 -51.480225 14863.299805
2.920000 -9.040000 1.000000 -64.749367 -106.251099 15481.776367
2.920000 -9.040000 1.040000 4.044937 -113.212570 12833.447266
2.920000 -9.040000 1.080000 52.280087 -73.267349 8101.312012
2.920000 -9.040000 1.120000 55.109917 -20.477047 3456.412598
2.920000 -9.040000 1.160000 24.415241 7.544419 653.022278
2.920000 -9.040000 1.200000 -5.615410 -0.064548 31.536993
2.920000 -9.000000 0.800000 0.245282 27.121593 735.640991
2.920000 -9.000000 0.840000 -44.526985 44.718704 3982.415039
2.920000 -9.000000 0.880000 -101.830872 14.998478 10594.480469
2.920000 -9.000000 0.920000 -123.440506 -60.649078 18915.869141
2.920000 -9.000000 0.960000 -79.743568 -137.333954 25219.652344
2.920000 -9.000000 1.000000 8.904531 -161.105560 26034.292969
2.920000 -9.000000 1.040000 85.183716 -115.961792 20703.402344
2.920000 -9.000000 1.080000 102.623642 -38.551323 12017.816406
2.920000 -9.000000 1.120000 63.858730 14.334055 4283.402832
2.920000 -9.000000 1.160000 13.805988 14.648818 405.193176
2.920000 -9.000000 1.200000 -3.793680 -17.496687 320.526062
2.920000 -8.960000 0.800000 -4.803858 16.915907 309.224976
2.920000 -8.960000 0.840000 -58.796944 14.371073 3663.608398
2.920000 -8.960000 0.880000 -99.255264 -44.679703 11847.882812
2.920000 -8.960000 0.920000 -77.284576 -128.911102 22590.978516
2.920000 -8.960000 0.960000 8.587686 -175.045776 30714.771484
2.920000 -8.960000 1.000000 104.476883 -143.666229 31555.406250
2.920000 -8.960000 1.040000 145.915253 -56.473709 24480.541016
2.920000 -8.960000 1.080000 113.905960 22.348137 13474.006836
2.920000 -8.960000 1.120000 48.602272 43.269424 4234.423828
2.920000 -8.960000 1.160000 8.782587 12.069427 222.804916
2.920000 -8.960000 1.200000 18.243069 -23.189188 870.548035
2.920000 -8.920000 0.800000 -2.070752 16.797268 286.436249
2.920000 -8.920000 0.840000 -51.416092 -10.069008 2744.999512
2.920000 -8.920000 0.880000 -59.218868 -81.168747 10095.240234
2.920000 -8.920000 0.920000 0.499094 -142.054291 20179.671875
2.920000 -8.920000 0.960000 94.621582 -137.586273 27883.226562
2.920000 -8.920000 1.000000 156.655853 -63.977654 28634.197266
2.920000 -8.920000 1.040000 145.701508 25.980623 21903.921875
2.920000 -8.920000 1.080000 81.736244 70.636658 11670.351562
2.920000 -8.920000 1.120000 23.540421 53.628231 3430.138428
2.920000 -8.920000 1.160000 12.622515 12.610495 318.352478
2.920000 -8.920000 1.200000 38.767269 -2.685703 1510.114136
2.920000 -8.880000 0.800000 -8.056699 24.391624 659.861755
2.920000 -8.880000 0.840000 -37.855301 -19.511175 1813.709717
2.920000 -8.880000 0.880000 -14.242290 -78.945442 6435.225586
2.920000 -8.880000 0.920000 56.222305 -100.038071 13168.562500
2.920000 -8.880000 0.960000 123.023087 -57.631737 18456.097656
2.920000 -8.880000 1.000000 136.528748 20.081326 19043.359375
2.920000 -8.880000 1.040000 92.477844 77.277565 14523.973633
2.920000 -8.880000 1.080000 32.880707 81.298233 7690.543945
2.920000 -8.880000 1.120000 4.046381 48.747505 2392.692627
2.920000 -8.880000 1.160000 14.500938 23.404110 758.029602
2.920000 -8.880000 1.200000 33.302628 31.071009 2074.472656
2.920000 -8.840000 0.800000 -25.506868 23.221304 1189.829346
2.920000 -8.840000 0.840000 -29.883083 -21.034618 1335.453857
2.920000 -8.840000 0.880000 7.974321 -53.821487 2960.342285
2.920000 -8.840000 0.920000 61.378143 -43.734863 5680.014648
2.920000 -8.840000 0.960000 89.223328 4.437130 7980.490234
2.920000 -8.840000 1.000000 73.061798 54.773571 8338.169922
2.920000 -8.840000 1.040000 31.600330 74.027649 6478.673828
2.920000 -8.840000 1.080000 -0.283672 60.333237 3640.179932
2.920000 -8.840000 1.120000 -5.318530 39.664192 1601.534912
2.920000 -8.840000 1.160000 3.358592 36.332314 1331.317139
2.920000 -8.840000 1.200000 0.767446 49.063751 2407.840576
2.920000 -8.800000 0.800000 -38.703945 4.154722 1515.257080
2.920000 -8.800000 0.840000 -25.571415 -24.552114 1256.703613
2.920000 -8.800000 0.880000 5.858076 -32.638985 1099.620361
2.920000 -8.800000 0.920000 32.037800 -14.565395 1238.571411
2.920000 -8.800000 0.960000 36.212250 14.394512 1518.529053
2.920000 -8.800000 1.000000 21.416275 34.080311 1620.124390
2.920000 -8.800000 1.040000 3.665894 37.478390 1418.068359
2.920000 -8.800000 1.080000 -5.618454 33.315125 1141.464478
2.920000 -8.800000 1.120000 -9.286495 32.908005 1169.175781
2.920000 -8.800000 1.160000 -17.561104 36.771957 1660.569214
2.920000 -8.800000 1.200000 -33.946819 35.007465 2377.909180
2.960000 -9.200000 0.800000 1.580577 -59.457680 3537.713867
2.960000 -9.200000 0.840000 18.260540 -49.264740 2760.461914
2.960000 -9.200000 0.880000 26.071533 -36.989658 2047.959717
2.960000 -9.200000 0.920000 30.174891 -26.834057 1630.590576
2.960000 -9.200000 0.960000 33.798691 -15.411773 1379.874146
2.960000 -9.200000 1.000000 32.364677 0.417315 1047.646484
2.960000 -9.200000 1.040000 19.344887 14.937983 597.367981
2.960000 -9.200000 1.080000 -2.387375 16.290056 271.065491
2.960000 -9.200000 1.120000 -18.167408 -0.405037 330.218781
2.960000 -9.200000 1.160000 -13.693790 -23.923378 759.847900
2.960000 -9.200000 1.200000 9.557863 -34.036102 1249.809082
2.960000 -9.160000 0.800000 40.993027 -42.277321 3467.800049
2.960000 -9.160000 0.840000 47.681633 -19.953098 2671.664307
2.960000 -9.160000 0.880000 42.814156 -0.332178 1833.162231
2.960000 -9.160000 0.920000 31.764065 12.922902 1175.957275
2.960000 -9.160000 0.960000 17.856014 20.351349 733.014648
2.960000 -9.160000 1.000000 1.691104 21.434082 462.279694
2.960000 -9.160000 1.040000 -13.943456 13.180824 368.154083
2.960000 -9.160000 1.080000 -21.440517 -4.499763 479.943665
2.960000 -9.160000 1.120000 -13.776705 -23.419493 738.270264
2.960000 -9.160000 1.160000 6.485373 -30.376587 964.797119
2.960000 -9.160000 1.200000 25.449924 -18.443748 987.870483
2.960000 -9.120000 0.800000 55.480522 -2.018119 3082.161133
2.960000 -9.120000 0.840000 46.497562 27.072117 2894.922852
2.960000 -9.120000 0.880000 20.698957 46.311085 2573.163330
2.960000 -9.120000 0.920000 -12.078152 46.419235 2300.627197
2.960000 -9.120000 0.960000 -37.998161 27.060051 2176.106445
2.960000 -9.120000 1.000000 -46.437263 -2.883270 2164.732666
2.960000 -9.120000 1.040000 -35.164707 -29.921547 2131.855469
2.960000 -9.120000 1.080000 -11.176773 -42.543221 1934.845947
2.960000 -9.120000 1.120000 12.863821 -36.754688 1516.385010
2.960000 -9.120000 1.160000 25.071438 -18.042168 954.096802
2.960000 -9.120000 1.200000 20.724234 1.584438 432.004303
2.960000 -9.080000 0.800000 37.858406 33.659019 2566.188477
2.960000 -9.080000 0.840000 9.213524 61.319954 3845.025635
2.960000 -9.080000 0.880000 -38.864273 63.617607 5557.631836
2.960000 -9.080000 0.920000 -81.021301 29.555859 7438.000000
2.960000 -9.080000 0.960000 -90.036591 -27.067966 8839.261719
2.960000 -9.080000 1.000000 -58.548050 -74.853470 9030.916016
2.960000 -9.080000 1.040000 -6.085915 -87.533981 7699.236328
2.960000 -9.080000 1.080000 35.407883 -63.216702 5250.069336
2.960000 -9.080000 1.120000 45.323967 -23.987823 2629.677734
2.960000 -9.080000 1.160000 27.469589 2.821993 762.541931
2.960000 -9.080000 1.200000 2.991007 4.857688 32.543255
2.960000 -9.040000 0.800000 5.490311 44.217575 1985.337524
2.960000 -9.040000 0.840000 -42.266983 58.781807 5241.798828
2.960000 -9.040000 0.880000 -98.824532 27.587536 10527.360352
2.960000 -9.040000 0.920000 -120.213028 -45.556229 16526.541016
2.960000 -9.040000 0.960000 -81.007935 -118.933128 20707.375000
2.960000 -9.040000 1.000000 -0.307369 -144.274109 20815.111328
2.960000 -9.040000 1.040000 70.875854 -107.198914 16514.994141
2.960000 -9.040000 1.080000 90.942421 -39.112465 9800.309570
2.960000 -9.040000 1.120000 60.208469 10.510473 3735.529785
2.960000 -9.040000 1.160000 15.707732 15.270215 479.912323
2.960000 -9.040000 1.200000 -4.259352 -11.011206 139.388733
2.960000 -9.000000 0.800000 -17.552135 32.334579 1353.602539
2.960000 -9.000000 0.840000 -75.449326 22.371849 6193.100098
2.960000 -9.000000 0.880000 -115.046089 -44.500023 15215.854492
2.960000 -9.000000 0.920000 -88.579224 -134.034180 25811.441406
2.960000 -9.000000 0.960000 2.864210 -181.768036 33047.820312
2.960000 -9.000000 1.000000 103.154793 -149.019806 32847.812500
2.960000 -9.000000 1.040000 146.851929 -59.006989 25047.312500
2.960000 -9.000000 1.080000 114.870041 22.756390 13712.979492
2.960000 -9.000000 1.120000 47.623802 45.585144 4346.032227
2.960000 -9.000000 1.160000 4.757472 14.003205 218.723297
2.960000 -9.000000 1.200000 12.060577 -24.585930 749.925476
2.960000 -8.960000 0.800000 -22.437418 16.953236 790.849915
2.960000 -8.960000 0.840000 -73.908554 -21.261007 5914.504883
2.960000 -8.960000 0.880000 -75.233284 -105.457687 16781.371094
2.960000 -8.960000 0.920000 0.006175 -173.192001 29995.468750
2.960000 -8.960000 0.960000 111.490662 -163.091858 39029.125000
2.960000 -8.960000 1.000000 182.309204 -73.382660 38621.660156
2.960000 -8.960000 1.040000 166.403885 33.186691 28791.609375
2.960000 -8.960000 1.080000 88.459763 84.638725 14988.843750
2.960000 -8.960000 1.120000 18.019646 62.098347 4180.912109
2.960000 -8.960000 1.160000 4.606329 9.850620 118.252991
2.960000 -8.960000 1.200000 37.530651 -12.864939 1574.056396
2.960000 -8.920000 0.800000 -19.912273 11.915575 538.479553
2.960000 -8.920000 0.840000 -48.639320 -45.655754 4450.231445
2.960000 -8.920000 0.880000 -9.997820 -118.185944 14067.873047
2.960000 -8.920000 0.920000 85.579857 -137.712234 26288.572266
2.960000 -8.920000 0.960000 171.392365 -73.808594 34823.050781
2.960000 -8.920000 1.000000 182.785583 33.901169 34559.859375
2.960000 -8.920000 1.040000 116.149712 109.640427 25511.779297
2.960000 -8.920000 1.080000 30.414543 109.537628 12923.537109
2.960000 -8.920000 1.120000 -9.633188 57.445175 3392.746582
2.960000 -8.920000 1.160000 8.762596 15.485039 316.569519
2.960000 -8.920000 1.200000 42.685608 22.034639 2307.586426
2.960000 -8.880000 0.800000 -24.300982 12.998825 759.507202
2.960000 -8.880000 0.840000 -24.093781 -45.825974 2680.530029
2.960000 -8.880000 0.880000 35.310577 -86.020462 8646.357422
2.960000 -8.880000 0.920000 114.270378 -61.047409 16784.505859
2.960000 -8.880000 0.960000 149.463150 20.793594 22771.605469
2.960000 -8.880000 1.000000 112.442108 101.271248 22899.093750
2.960000 -8.880000 1.040000 35.468361 125.439445 16993.058594
2.960000 -8.880000 1.080000 -20.816883 90.537422 8630.367188
2.960000 -8.880000 1.120000 -24.523699 42.929924 2444.390137
2.960000 -8.880000 1.160000 2.515862 28.988148 846.642273
2.960000 -8.880000 1.200000 13.757687 51.329803 2824.022705
2.960000 -8.840000 0.800000 -35.741005 6.195234 1315.800415
2.960000 -8.840000 0.840000 -14.313374 -36.968479 1571.541138
2.960000 -8.840000 0.880000 40.041962 -44.611549 3593.548828
2.960000 -8.840000 0.920000 83.087204 -2.523582 6909.852051
2.960000 -8.840000 0.960000 78.395775 59.506458 9686.916016
2.960000 -8.840000 1.000000 30.950615 95.495911 10077.409180
2.960000 -8.840000 1.040000 -19.862465 85.759613 7749.229004
2.960000 -8.840000 1.080000 -39.480843 51.677113 4229.260742
2.960000 -8.840000 1.120000 -29.095707 29.885906 1739.727539
2.960000 -8.840000 1.160000 -18.357773 34.586861 1533.258789
2.960000 -8.840000 1.200000 -30.644676 46.745045 3124.195312
2.960000 -8.800000 0.800000 -40.146759 -13.278196 1788.072754
2.960000 -8.800000 0.840000 -13.417519 -34.542271 1373.198242
2.960000 -8.800000 0.880000 20.641554 -25.801064 1091.768677
2.960000 -8.800000 0.920000 35.012222 5.935909 1261.090698
2.960000 -8.800000 0.960000 21.193634 35.527599 1711.380493
2.960000 -8.800000 1.000000 -5.666107 44.054939 1972.942383
2.960000 -8.800000 1.040000 -24.543278 34.308563 1779.449951
2.960000 -8.800000 1.080000 -29.193619 23.040398 1383.127319
2.960000 -8.800000 1.120000 -30.481907 20.541540 1351.101562
2.960000 -8.800000 1.160000 -40.166588 20.357254 2027.772461
2.960000 -8.800000 1.200000 -55.572605 9.079029 3170.743164
3.000000 -9.200000 0.800000 29.211241 -47.174446 3078.725098
3.000000 -9.200000 0.840000 42.430862 -29.341284 2661.289062
3.000000 -9.200000 0.880000 43.274273 -9.748496 1967.695923
3.000000 -9.200000 0.920000 35.819374 4.684649 1304.973511
3.000000 -9.200000 0.960000 25.322216 13.158875 814.370605
3.000000 -9.200000 1.000000 13.356136 17.032539 468.493774
3.000000 -9.200000 1.040000 0.197468 14.887070 221.663834
3.000000 -9.200000 1.080000 -9.843202 4.229017 114.773209
3.000000 -9.200000 1.120000 -9.053329 -11.772499 220.554504
3.000000 -9.200000 1.160000 5.402831 -22.098383 517.529114
3.000000 -9.200000 1.200000 24.641523 -15.901578 860.064819
3.000000 -9.160000 0.800000 53.851730 -16.178917 3161.766113
3.000000 -9.160000 0.840000 52.774414 10.142660 2888.012207
3.000000 -9.160000 0.880000 36.222229 30.382742 2235.160889
3.000000 -9.160000 0.920000 12.419689 36.719376 1502.561157
3.000000 -9.160000 0.960000 -8.719923 29.192402 928.233398
3.000000 -9.160000 1.000000 -20.897532 12.938637 604.115112
3.000000 -9.160000 1.040000 -21.866402 -5.824566 512.065063
3.000000 -9.160000 1.080000 -11.944359 -20.932116 580.821167
3.000000 -9.160000 1.120000 5.382903 -26.093393 709.840820
3.000000 -9.160000 1.160000 21.962330 -17.484474 788.050781
3.000000 -9.160000 1.200000 27.331680 1.501161 749.274231
3.000000 -9.120000 0.800000 48.759079 24.219933 2964.052734
3.000000 -9.120000 0.840000 27.873060 50.832592 3360.859863
3.000000 -9.120000 0.880000 -9.397003 57.955013 3447.087158
3.000000 -9.120000 0.920000 -43.945251 37.957500 3371.957031
3.000000 -9.120000 0.960000 -56.998947 0.415154 3249.052246
3.000000 -9.120000 1.000000 -43.134323 -34.677029 3063.066162
3.000000 -9.120000 1.040000 -12.660564 -50.612732 2721.938477
3.000000 -9.120000 1.080000 16.823462 -43.515163 2176.598389
3.000000 -9.120000 1.120000 31.717546 -22.026051 1491.149658
3.000000 -9.120000 1.160000 28.614906 0.089903 818.820923
3.000000 -9.120000 1.200000 13.480342 11.920603 323.820374
3.000000 -9.080000 0.800000 17.579065 48.272346 2639.242920
3.000000 -9.080000 0.840000 -23.526617 62.473507 4456.440430
3.000000 -9.080000 0.880000 -71.481659 39.520180 6671.472168
3.000000 -9.080000 0.920000 -92.503922 -16.568329 8831.485352
3.000000 -9.080000 0.960000 -67.917770 -74.488327 10161.333984
3.000000 -9.080000 1.000000 -11.033844 -99.159317 9954.316406
3.000000 -9.080000 1.040000 42.801277 -79.096664 8088.231445
3.000000 -9.080000 1.080000 63.901707 -33.677090 5217.574707
3.000000 -9.080000 1.120000 49.116623 4.631889 2433.896973
3.000000 -9.080000 1.160000 19.369389 15.761600 623.601257
3.000000 -9.080000 1.200000 -0.657539 3.432158 12.212070
3.000000 -9.040000 0.800000 -17.551905 43.809860 2227.373291
3.000000 -9.040000 0.840000 -69.698441 32.829750 5935.665039
3.000000 -9.040000 0.880000 -104.418167 -26.080132 11583.326172
3.000000 -9.040000 0.920000 -83.260292 -103.169937 17576.312500
3.000000 -9.040000 0.960000 -8.172295 -145.740021 21306.941406
3.000000 -9.040000 1.000000 75.373009 -122.723907 20742.248047
3.000000 -9.040000 1.040000 114.957954 -51.993469 15918.652344
3.000000 -9.040000 1.080000 94.048904 15.375525 9081.603516
3.000000 -9.040000 1.120000 42.024311 38.594906 3255.609375
3.000000 -9.040000 1.160000 4.482453 17.899721 340.492401
3.000000 -9.040000 1.200000 3.964132 -13.323717 193.235779
3.000000 -9.000000 0.800000 -35.355217 20.973537 1689.880615
3.000000 -9.000000 0.840000 -80.836853 -19.498192 6914.776367
3.000000 -9.000000 0.880000 -78.372391 -99.230545 15988.932617
3.000000 -9.000000 0.920000 -6.518125 -161.264099 26048.595703
3.000000 -9.000000 0.960000 96.861298 -151.467499 32324.513672
3.000000 -9.000000 1.000000 162.585968 -69.448486 31257.289062
3.000000 -9.000000 1.040000 149.596558 28.246843 23177.015625
3.000000 -9.000000 1.080000 79.493423 77.024109 12251.917969
3.000000 -9.000000 1.120000 13.865597 58.685028 3636.187500
3.000000 -9.000000 1.160000 -1.923726 10.732166 118.880112
3.000000 -9.000000 1.200000 25.732471 -14.409432 869.791870
3.000000 -8.960000 0.800000 -32.802193 0.668509 1076.430786
3.000000 -8.960000 0.840000 -54.278168 -59.874798 6531.110840
3.000000 -8.960000 0.880000 -8.684530 -130.673355 17150.947266
3.000000 -8.960000 0.920000 90.949081 -145.365570 29402.882812
3.000000 -8.960000 0.960000 177.174515 -76.033463 37171.894531
3.000000 -8.960000 1.000000 186.099823 35.760548 35911.960938
3.000000 -8.960000 1.040000 115.395363 113.197258 26129.708984
3.000000 -8.960000 1.080000 25.368324 111.933975 13172.766602
3.000000 -8.960000 1.120000 -17.480486 55.873581 3427.424316
3.000000 -8.960000 1.160000 1.462255 8.375637 72.289490
3.000000 -8.960000 1.200000 40.074360 10.567030 1717.616455
3.000000 -8.920000 0.800000 -24.183121 -5.664686 616.911987
3.000000 -8.920000 0.840000 -15.316587 -67.283890 4761.719238
3.000000 -8.920000 0.880000 55.767960 -104.347534 13998.473633
3.000000 -8.920000 0.920000 143.696457 -67.575027 25215.056641
3.000000 -8.920000 0.960000 177.903854 31.037964 32613.136719
3.000000 -8.920000 1.000000 128.103683 123.854630 31750.523438
3.000000 -8.920000 1.040000 33.469475 147.868439 22985.279297
3.000000 -8.920000 1.080000 -34.181301 100.794777 11327.948242
3.000000 -8.920000 1.120000 -36.417152 38.199940 2785.444336
3.000000 -8.920000 1.160000 1.667085 16.953621 290.204437
3.000000 -8.920000 1.200000 23.773186 43.106895 2423.368896
3.000000 -8.880000 0.800000 -23.710859 -4.805352 585.296265
3.000000 -8.880000 0.840000 7.441500 -50.284760 2583.933105
3.000000 -8.880000 0.880000 75.679115 -49.880798 8215.422852
3.000000 -8.880000 0.920000 124.538651 12.819008 15674.202148
3.000000 -8.880000 0.960000 107.611839 97.069572 21002.808594
3.000000 -8.880000 1.000000 33.854240 140.558807 20902.888672
3.000000 -8.880000 1.040000 -40.430408 117.055641 15336.641602
3.000000 -8.880000 1.080000 -65.102203 58.358501 7644.011719
3.000000 -8.880000 1.120000 -41.025364 19.729868 2072.348145
3.000000 -8.880000 1.160000 -12.502413 25.667377 815.124634
3.000000 -8.880000 1.200000 -18.458254 50.921371 2933.693115
3.000000 -8.840000 0.800000 -30.234671 -10.969073 1034.455933
3.000000 -8.840000 0.840000 7.495506 -34.187683 1224.980347
3.000000 -8.840000 0.880000 53.692924 -12.486313 3038.838135
3.000000 -8.840000 0.920000 65.063377 43.054462 6086.929688
3.000000 -8.840000 0.960000 27.717663 89.073914 8702.430664
3.000000 -8.840000 1.000000 -29.481628 91.024796 9154.679688
3.000000 -8.840000 1.040000 -63.832809 54.799496 7077.612305
3.000000 -8.840000 1.080000 -59.635162 17.237221 3853.474365
3.000000 -8.840000 1.120000 -39.226936 7.103744 1589.215698
3.000000 -8.840000 1.160000 -35.051727 18.028772 1553.660156
3.000000 -8.840000 1.200000 -54.390137 20.092283 3361.986816
3.000000 -8.800000 0.800000 -29.897518 -27.784027 1665.813721
3.000000 -8.800000 0.840000 1.542219 -33.957069 1155.460938
3.000000 -8.800000 0.880000 25.157917 -11.390907 762.673523
3.000000 -8.800000 0.920000 21.116360 20.751743 876.535522
3.000000 -8.800000 0.960000 -5.087227 36.727493 1374.788696
3.000000 -8.800000 1.000000 -30.664692 28.568890 1756.504761
3.000000 -8.800000 1.040000 -39.595142 10.261810 1673.080078
3.000000 -8.800000 1.080000 -36.517925 -0.671112 1334.009277
3.000000 -8.800000 1.120000 -36.886162 -2.508259 1366.880371
3.000000 -8.800000 1.160000 -46.399353 -8.555621 2226.098633
3.000000 -8.800000 1.200000 -53.561970 -28.823217 3699.662354
3.040000 -9.200000 0.800000 43.738724 -18.342442 2249.520996
3.040000 -9.200000 0.840000 47.394753 4.998503 2271.247559
3.040000 -9.200000 0.880000 35.286648 24.344707 1837.812256
3.040000 -9.200000 0.920000 15.998510 30.753654 1201.739624
3.040000 -9.200000 0.960000 0.188475 25.240608 637.123840
3.040000 -9.200000 1.000000 -7.504834 14.780834 274.795593
3.040000 -9.200000 1.040000 -8.577078 4.761933 96.242271
3.040000 -9.200000 1.080000 -5.213781 -3.346039 38.379490
3.040000 -9.200000 1.120000 2.446447 -8.283901 74.608124
3.040000 -9.200000 1.160000 12.955528 -6.332734 207.949234
3.040000 -9.200000 1.200000 19.909595 4.982282 421.215149
3.040000 -9.160000 0.800000 48.040329 14.235218 2510.514648
3.040000 -9.160000 0.840000 35.483997 39.369057 2809.036621
3.040000 -9.160000 0.880000 7.832397 49.899124 2551.269043
3.040000 -9.160000 0.920000 -19.334490 39.600842 1942.049194
3.040000 -9.160000 0.960000 -32.148659 16.033829 1290.619873
3.040000 -9.160000 1.000000 -27.564383 -7.066439 809.729736
3.040000 -9.160000 1.040000 -12.238926 -19.957041 548.074768
3.040000 -9.160000 1.080000 4.774641 -20.644905 449.009308
3.040000 -9.160000 1.120000 17.124386 -11.934245 435.670807
3.040000 -9.160000 1.160000 21.137306 1.973775 450.681488
3.040000 -9.160000 1.200000 14.849867 15.553688 462.435730
3.040000 -9.120000 0.800000 26.910210 42.255981 2509.727295
3.040000 -9.120000 0.840000 -3.756226 58.291161 3411.968506
3.040000 -9.120000 0.880000 -41.499596 46.380276 3873.346191
3.040000 -9.120000 0.920000 -61.568207 9.462433 3880.181641
3.040000 -9.120000 0.960000 -50.923027 -30.954895 3551.360352
3.040000 -9.120000 1.000000 -17.807770 -51.930214 3013.863770
3.040000 -9.120000 1.040000 16.500847 -45.675346 2358.515137
3.040000 -9.120000 1.080000 34.378128 -22.033443 1667.328369
3.040000 -9.120000 1.120000 32.099880 2.177778 1035.145020
3.040000 -9.120000 1.160000 17.592903 15.364689 545.583923
3.040000 -9.120000 1.200000 1.660887 15.404192 240.047668
3.040000 -9.080000 0.800000 -7.985323 47.489853 2319.051514
3.040000 -9.080000 0.840000 -49.899048 41.977955 4252.063477
3.040000 -9.080000 0.880000 -79.609337 -0.079334 6337.652832
3.040000 -9.080000 0.920000 -69.247429 -56.813034 8022.927734
3.040000 -9.080000 0.960000 -19.984734 -91.144943 8706.790039
3.040000 -9.080000 1.000000 37.658535 -81.372070 8039.579102
3.040000 -9.080000 1.040000 68.835442 -38.042816 6185.573730
3.040000 -9.080000 1.080000 61.290989 7.040245 3806.150146
3.040000 -9.080000 1.120000 30.896919 27.584885 1715.545410
3.040000 -9.080000 1.160000 4.151129 20.655743 443.891571
3.040000 -9.080000 1.200000 -3.689404 2.528196 20.003483
3.040000 -9.040000 0.800000 -34.720341 27.939875 1986.138672
3.040000 -9.040000 0.840000 -71.829681 -4.670724 5181.318359
3.040000 -9.040000 0.880000 -71.478462 -67.410957 9653.408203
3.040000 -9.040000 0.920000 -18.262468 -116.916306 14002.940430
3.040000 -9.040000 0.960000 59.391411 -113.129227 16325.561523
3.040000 -9.040000 1.000000 110.885529 -55.486519 15374.354492
3.040000 -9.040000 1.040000 105.927734 15.896013 11473.368164
3.040000 -9.040000 1.080000 58.228134 54.841202 6398.073242
3.040000 -9.040000 1.120000 9.827313 46.524895 2261.142090
3.040000 -9.040000 1.160000 -6.708489 14.103236 243.905090
3.040000 -9.040000 1.200000 7.759602 -7.551632 117.238564
3.040000 -9.000000 0.800000 -38.916149 -0.286001 1514.548462
3.040000 -9.000000 0.840000 -54.091423 -52.137711 5644.222656
3.040000 -9.000000 0.880000 -14.485693 -110.237671 12362.178711
3.040000 -9.000000 0.920000 67.835571 -121.761780 19427.595703
3.040000 -9.000000 0.960000 138.528610 -65.512192 23482.023438
3.040000 -9.000000 1.000000 147.046341 24.925951 22243.929688
3.040000 -9.000000 1.040000 91.409332 88.681274 16220.035156
3.040000 -9.000000 1.080000 18.608067 90.047943 8454.891602
3.040000 -9.000000 1.120000 -18.721621 46.126385 2478.142334
3.040000 -9.000000 1.160000 -6.858514 5.473699 77.000587
3.040000 -9.000000 1.200000 24.177881 1.716952 587.517883
3.040000 -8.960000 0.800000 -25.371704 -17.356186 944.960571
3.040000 -8.960000 0.840000 -11.749701 -70.256584 5074.043457
3.040000 -8.960000 0.880000 54.206223 -98.650482 12670.232422
3.040000 -8.960000 0.920000 131.644882 -61.671291 21133.722656
3.040000 -8.960000 0.960000 159.527679 28.177887 26243.074219
3.040000 -8.960000 1.000000 112.747002 110.964005 25024.898438
3.040000 -8.960000 1.040000 26.563667 131.587936 18021.013672
3.040000 -8.960000 1.080000 -35.414867 87.998581 8997.962891
3.040000 -8.960000 1.120000 -38.265572 28.997738 2305.122803
3.040000 -8.960000 1.160000 -2.486923 5.826653 40.134666
3.040000 -8.960000 1.200000 22.588757 26.633104 1219.574219
3.040000 -8.920000 0.800000 -11.879310 -17.399139 443.848022
3.040000 -8.920000 0.840000 22.791899 -54.410847 3480.010986
3.040000 -8.920000 0.880000 88.509407 -45.908394 9941.496094
3.040000 -8.920000 0.920000 131.106598 21.028477 17631.136719
3.040000 -8.920000 0.960000 107.554039 104.991814 22591.152344
3.040000 -8.920000 1.000000 29.012081 144.963806 21856.207031
3.040000 -8.920000 1.040000 -47.404835 116.195175 15748.537109
3.040000 -8.920000 1.080000 -71.082779 51.662857 7721.812012
3.040000 -8.920000 1.120000 -42.490429 8.301750 1874.355591
3.040000 -8.920000 1.160000 -6.760458 13.021049 215.251526
3.040000 -8.920000 1.200000 -5.769918 42.171165 1811.699219
3.040000 -8.880000 0.800000 -10.802247 -12.168904 264.770752
3.040000 -8.880000 0.840000 29.445866 -27.729233 1635.969360
3.040000 -8.880000 0.880000 73.922028 3.970253 5480.229004
3.040000 -8.880000 0.920000 76.740433 68.529465 10585.381836
3.040000 -8.880000 0.960000 25.175877 116.741394 14262.377930
3.040000 -8.880000 1.000000 -45.322311 110.434952 14249.990234
3.040000 -8.880000 1.040000 -83.917114 58.721916 10490.345703
3.040000 -8.880000 1.080000 -72.015320 7.577501 5243.624512
3.040000 -8.880000 1.120000 -37.528320 -5.935119 1443.600464
3.040000 -8.880000 1.160000 -22.871332 12.489532 679.086243
3.040000 -8.880000 1.200000 -41.607628 25.633263 2388.258789
3.040000 -8.840000 0.800000 -16.879818 -16.783302 566.607483
3.040000 -8.840000 0.840000 17.125141 -16.674139 571.297363
3.040000 -8.840000 0.880000 37.546227 17.307453 1709.267090
3.040000 -8.840000 0.920000 19.550434 58.363907 3788.565186
3.040000 -8.840000 0.960000 -26.501141 70.585754 5684.659180
3.040000 -8.840000 1.000000 -64.802628 44.187370 6151.904297
3.040000 -8.840000 1.040000 -69.543236 3.828251 4850.916992
3.040000 -8.840000 1.080000 -48.682587 -18.126488 2698.563721
3.040000 -8.840000 1.120000 -31.889095 -14.221773 1219.173218
3.040000 -8.840000 1.160000 -37.166748 -6.189098 1419.672119
3.040000 -8.840000 1.200000 -52.557068 -18.125086 3090.764160
3.040000 -8.800000 0.800000 -14.070251 -32.204185 1235.081543
3.040000 -8.800000 0.840000 10.797386 -25.118742 747.534729
3.040000 -8.800000 0.880000 18.210926 -0.635980 332.042297
3.040000 -8.800000 0.920000 2.220596 18.631678 352.070465
3.040000 -8.800000 0.960000 -21.513206 17.016953 752.394714
3.040000 -8.800000 1.000000 -33.544731 -0.033264 1125.250122
3.040000 -8.800000 1.040000 -30.354414 -15.147285 1150.830688
3.040000 -8.800000 1.080000 -24.506989 -19.707691 988.985596
3.040000 -8.800000 1.120000 -26.749918 -22.100403 1203.985840
3.040000 -8.800000 1.160000 -31.751789 -34.967567 2230.906738
3.040000 -8.800000 1.200000 -24.166159 -57.266094 3863.408691
3.080000 -9.200000 0.800000 34.438892 12.102596 1332.510254
3.080000 -9.200000 0.840000 26.153940 32.879654 1765.100220
3.080000 -9.200000 0.880000 4.871578 41.565331 1751.409058
3.080000 -9.200000 0.920000 -15.214243 33.146519 1330.164795
3.080000 -9.200000 0.960000 -22.589235 15.721807 757.448792
3.080000 -9.200000 1.000000 -17.215982 1.741305 299.422180
3.080000 -9.200000 1.040000 -7.528315 -2.880836 64.974731
3.080000 -9.200000 1.080000 -0.775729 -0.972487 1.547487
3.080000 -9.200000 1.120000 2.225379 2.471813 11.062172
3.080000 -9.200000 1.160000 3.590336 6.383773 53.643066
3.080000 -9.200000 1.200000 2.544647 12.101053 152.910706
3.080000 -9.160000 0.800000 23.474833 32.908936 1634.065796
3.080000 -9.160000 0.840000 2.033461 48.695183 2375.355957
3.080000 -9.160000 0.880000 -26.413712 43.335518 2575.651367
3.080000 -9.160000 0.920000 -42.712093 19.130655 2190.304932
3.080000 -9.160000 0.960000 -37.769344 -7.764517 1486.811035
3.080000 -9.160000 1.000000 -18.410887 -21.777197 813.207031
3.080000 -9.160000 1.040000 1.021687 -19.360510 375.873199
3.080000 -9.160000 1.080000 11.060404 -7.876624 184.373749
3.080000 -9.160000 1.120000 11.459761 3.799292 145.760727
3.080000 -9.160000 1.160000 6.273160 11.744655 177.289459
3.080000 -9.160000 1.200000 -1.901842 15.458408 242.579391
3.080000 -9.120000 0.800000 -1.154277 41.762924 1745.474243
3.080000 -9.120000 0.840000 -32.428288 42.724335 2876.962646
3.080000 -9.120000 0.880000 -57.103355 16.575806 3535.550537
3.080000 -9.120000 0.920000 -55.092628 -21.623135 3502.757812
3.080000 -9.120000 0.960000 -26.807426 -46.859436 2914.444824
3.080000 -9.120000 1.000000 8.301254 -45.062767 2099.563721
3.080000 -9.120000 1.040000 29.076359 -22.549788 1353.927490
3.080000 -9.120000 1.080000 28.450741 2.622499 816.322144
3.080000 -9.120000 1.120000 14.543189 16.508516 484.035461
3.080000 -9.120000 1.160000 -0.207039 17.174227 294.996948
3.080000 -9.120000 1.200000 -8.975587 10.535503 191.557983
3.080000 -9.080000 0.800000 -26.239799 30.861958 1640.987549
3.080000 -9.080000 0.840000 -55.769958 10.797215 3226.868164
3.080000 -9.080000 0.880000 -60.447029 -32.030899 4679.821777
3.080000 -9.080000 0.920000 -29.099813 -68.197693 5497.724609
3.080000 -9.080000 0.960000 20.188120 -70.881912 5431.805664
3.080000 -9.080000 1.000000 55.305458 -38.845585 4567.672852
3.080000 -9.080000 1.040000 56.903713 3.969091 3253.786133
3.080000 -9.080000 1.080000 31.900776 30.064962 1921.561523
3.080000 -9.080000 1.120000 3.443740 29.755466 897.247070
3.080000 -9.080000 1.160000 -10.191027 13.985605 299.454163
3.080000 -9.080000 1.200000 -7.578541 0.030549 57.435215
3.080000 -9.040000 0.800000 -36.259087 6.150773 1352.553345
3.080000 -9.040000 0.840000 -49.437626 -30.455770 3371.632812
3.080000 -9.040000 0.880000 -24.520432 -72.521095 5860.560547
3.080000 -9.040000 0.920000 30.467133 -83.858253 7960.452637
3.080000 -9.040000 0.960000 79.381828 -49.845768 8786.075195
3.080000 -9.040000 1.000000 88.725494 8.216201 7939.719238
3.080000 -9.040000 1.040000 56.094986 51.363609 5784.868164
3.080000 -9.040000 1.080000 10.039085 56.015926 3238.567139
3.080000 -9.040000 1.120000 -16.652355 30.848450 1228.927734
3.080000 -9.040000 1.160000 -13.682921 4.130201 204.280899
3.080000 -9.040000 1.200000 3.559458 -3.228248 23.091326
3.080000 -9.000000 0.800000 -26.503565 -15.718770 949.518677
3.080000 -9.000000 0.840000 -15.995252 -54.169300 3190.161133
3.080000 -9.000000 0.880000 31.448088 -74.737762 6574.715332
3.080000 -9.000000 0.920000 86.738319 -49.202705 9944.442383
3.080000 -9.000000 0.960000 107.493469 13.424055 11735.050781
3.080000 -9.000000 1.000000 76.302216 71.809509 10978.633789
3.080000 -9.000000 1.040000 16.832014 87.889091 8007.809082
3.080000 -9.000000 1.080000 -27.722351 59.137989 4265.830566
3.080000 -9.000000 1.120000 -32.452957 17.417955 1356.579590
3.080000 -9.000000 1.160000 -8.907517 -2.371588 84.968292
3.080000 -9.000000 1.200000 11.132740 7.735393 183.774200
3.080000 -8.960000 0.800000 -8.040763 -21.364944 521.114746
3.080000 -8.960000 0.840000 20.353470 -46.384834 2565.816406
3.080000 -8.960000 0.880000 69.674561 -36.716377 6202.636719
3.080000 -8.960000 0.920000 99.819221 15.571163 10206.337891
3.080000 -8.960000 0.960000 79.967987 78.913063 12622.150391
3.080000 -8.960000 1.000000 19.359411 108.170715 12075.690430
3.080000 -8.960000 1.040000 -39.233582 85.223671 8802.347656
3.080000 -8.960000 1.080000 -57.718262 34.508495 4522.233887
3.080000 -8.960000 1.120000 -35.351135 -1.247653 1251.259399
3.080000 -8.960000 1.160000 -4.958566 -0.270739 24.660673
3.080000 -8.960000 1.200000 1.083035 22.154526 491.995972
3.080000 -8.920000 0.800000 2.324901 -13.039607 175.436523
3.080000 -8.920000 0.840000 34.644333 -19.301674 1572.784424
3.080000 -8.920000 0.880000 66.661194 11.211475 4569.412109
3.080000 -8.920000 0.920000 63.051624 64.935501 8192.126953
3.080000 -8.920000 0.960000 15.897387 101.797668 10615.492188
3.080000 -8.920000 1.000000 -44.290482 91.930061 10412.782227
3.080000 -8.920000 1.040000 -75.377449 44.344208 7648.168457
3.080000 -8.920000 1.080000 -62.167442 -1.774399 3867.939209
3.080000 -8.920000 1.120000 -28.289467 -14.385251 1007.229370
3.080000 -8.920000 1.160000 -10.551920 3.077223 120.812317
3.080000 -8.920000 1.200000 -22.955408 19.530155 908.377686
3.080000 -8.880000 0.800000 -1.338989 -6.090454 38.886524
3.080000 -8.880000 0.840000 24.076906 0.445831 579.896179
3.080000 -8.880000 0.880000 34.311718 33.502220 2299.692871
3.080000 -8.880000 0.920000 9.800526 67.894180 4705.669922
3.080000 -8.880000 0.960000 -37.157818 71.922760 6553.586914
3.080000 -8.880000 1.000000 -72.045464 39.098793 6719.264648
3.080000 -8.880000 1.040000 -71.066483 -4.799862 5073.483398
3.080000 -8.880000 1.080000 -43.438808 -27.122677 2622.569580
3.080000 -8.880000 1.120000 -20.137463 -19.842779 799.253296
3.080000 -8.880000 1.160000 -21.575432 -4.737534 487.943481
3.080000 -8.880000 1.200000 -38.261929 -8.219075 1531.528442
3.080000 -8.840000 0.800000 -7.910832 -12.497000 218.756271
3.080000 -8.840000 0.840000 9.261206 -1.949018 89.568604
3.080000 -8.840000 0.880000 7.168827 21.767414 525.212402
3.080000 -8.840000 0.920000 -17.584793 34.599094 1506.322266
3.080000 -8.840000 0.960000 -45.214417 21.464811 2505.081543
3.080000 -8.840000 1.000000 -52.902271 -7.944210 2861.760742
3.080000 -8.840000 1.040000 -38.030533 -29.805004 2334.659668
3.080000 -8.840000 1.080000 -19.285307 -31.417545 1358.985229
3.080000 -8.840000 1.120000 -14.948524 -23.342831 768.346130
3.080000 -8.840000 1.160000 -22.791683 -25.593433 1174.484619
3.080000 -8.840000 1.200000 -23.577843 -43.930923 2485.840820
3.080000 -8.800000 0.800000 -1.174219 -26.977943 729.188232
3.080000 -8.800000 0.840000 11.710840 -15.494104 377.211060
3.080000 -8.800000 0.880000 8.169159 -0.223953 66.785316
3.080000 -8.800000 0.920000 -6.049555 3.324184 47.647316
3.080000 -8.800000 0.960000 -15.722865 -6.676010 291.777588
3.080000 -8.800000 1.000000 -13.514065 -18.562725 527.204712
3.080000 -8.800000 1.040000 -6.584354 -22.521757 550.583252
3.080000 -8.800000 1.080000 -5.339449 -22.240606 523.154297
3.080000 -8.800000 1.120000 -8.620619 -28.909901 910.097412
3.080000 -8.800000 1.160000 -3.728874 -44.977798 2036.906860
3.080000 -8.800000 1.200000 17.967487 -57.678413 3649.629883
3.120000 -9.200000 0.800000 7.746305 24.392687 655.008423
3.120000 -9.200000 0.840000 -6.660884 34.977283 1267.777832
3.120000 -9.200000 0.880000 -25.583836 30.289818 1572.005737
3.120000 -9.200000 0.920000 -34.781181 13.024708 1379.373657
3.120000 -9.200000 0.960000 -28.860611 -3.868027 847.896484
3.120000 -9.200000 1.000000 -15.194297 -9.560338 322.266724
3.120000 -9.200000 1.040000 -5.506353 -4.416921 49.829117
3.120000 -9.200000 1.080000 -4.714233 2.824825 30.203636
3.120000 -9.200000 1.120000 -8.522263 5.248766 100.178505
3.120000 -9.200000 1.160000 -10.718199 3.678210 128.409012
3.120000 -9.200000 1.200000 -10.618484 2.774874 120.452133
3.120000 -9.160000 0.800000 -5.159466 28.094357 815.912964
3.120000 -9.160000 0.840000 -26.088266 31.212179 1654.797852
3.120000 -9.160000 0.880000 -43.532719 15.204815 2126.283936
3.120000 -9.160000 0.920000 -43.201920 -9.290741 1952.723755
3.120000 -9.160000 0.960000 -25.953575 -25.023607 1299.769043
3.120000 -9.160000 1.000000 -5.550562 -23.590565 587.323486
3.120000 -9.160000 1.040000 4.899688 -10.909821 143.031128
3.120000 -9.160000 1.080000 3.373856 1.047631 12.480433
3.120000 -9.160000 1.120000 -3.056052 5.854472 43.614296
3.120000 -9.160000 1.160000 -7.897185 5.595485 93.674980
3.120000 -9.160000 1.200000 -10.816576 4.461832 136.906250
3.120000 -9.120000 0.800000 -19.505352 22.723257 896.805176
3.120000 -9.120000 0.840000 -41.156212 13.248613 1869.359497
3.120000 -9.120000 0.880000 -48.069695 -13.114107 2482.675293
3.120000 -9.120000 0.920000 -31.839188 -37.259041 2401.969971
3.120000 -9.120000 0.960000 -3.435198 -41.766651 1756.253662
3.120000 -9.120000 1.000000 17.549683 -25.735975 970.331787
3.120000 -9.120000 1.040000 20.079851 -3.315738 414.194519
3.120000 -9.120000 1.080000 8.651051 10.494368 184.972427
3.120000 -9.120000 1.120000 -4.506186 11.620847 155.349792
3.120000 -9.120000 1.160000 -11.533010 6.077467 169.945938
3.120000 -9.120000 1.200000 -13.067152 0.684627 171.219177
3.120000 -9.080000 0.800000 -27.740931 8.296873 838.397339
3.120000 -9.080000 0.840000 -40.494354 -12.855343 1805.052612
3.120000 -9.080000 0.880000 -29.890947 -40.392654 2525.035156
3.120000 -9.080000 0.920000 0.663764 -51.512993 2654.029053
3.120000 -9.080000 0.960000 30.163555 -36.201046 2220.355957
3.120000 -9.080000 1.000000 38.766994 -5.697361 1535.339844
3.120000 -9.080000 1.040000 24.226925 18.555944 931.266968
3.120000 -9.080000 1.080000 1.166937 23.527588 554.909119
3.120000 -9.080000 1.120000 -13.777919 12.994307 358.683044
3.120000 -9.080000 1.160000 -15.305399 0.108471 234.266998
3.120000 -9.080000 1.200000 -9.758535 -5.892820 129.954346
3.120000 -9.040000 0.800000 -23.875656 -8.100533 635.665588
3.120000 -9.040000 0.840000 -21.219948 -32.036819 1476.644043
3.120000 -9.040000 0.880000 4.394351 -47.563175 2281.565918
3.120000 -9.040000 0.920000 36.864761 -37.056267 2732.177490
3.120000 -9.040000 0.960000 51.723751 -4.257768 2693.475098
3.120000 -9.040000 1.000000 38.000359 28.434978 2252.575195
3.120000 -9.040000 1.040000 7.306467 39.657501 1626.101807
3.120000 -9.040000 1.080000 -17.640694 26.623398 1019.999390
3.120000 -9.040000 1.120000 -22.871284 4.745667 545.617004
3.120000 -9.040000 1.160000 -12.621593 -8.178711 226.195908
3.120000 -9.040000 1.200000 -1.604286 -6.850490 49.502941
3.120000 -9.000000 0.800000 -10.258589 -16.061289 363.203644
3.120000 -9.000000 0.840000 5.128978 -31.511745 1019.296509
3.120000 -9.000000 0.880000 33.269505 -27.751089 1876.982910
3.120000 -9.000000 0.920000 51.571442 0.323252 2659.718018
3.120000 -9.000000 0.960000 42.320633 35.584530 3057.294922
3.120000 -9.000000 1.000000 9.770412 52.936241 2897.706543
3.120000 -9.000000 1.040000 -23.090443 41.465546 2252.560059
3.120000 -9.000000 1.080000 -34.861816 13.290235 1391.976562
3.120000 -9.000000 1.120000 -23.472046 -8.646779 625.703735
3.120000 -9.000000 1.160000 -5.260920 -11.154421 152.098373
3.120000 -9.000000 1.200000 1.958547 -0.186108 3.870543
3.120000 -8.960000 0.800000 2.260902 -11.305666 132.929764
3.120000 -8.960000 0.840000 20.278744 -13.412260 591.116150
3.120000 -8.960000 0.880000 37.323055 4.729410 1415.377808
3.120000 -8.960000 0.920000 33.961426 35.065910 2382.996582
3.120000 -8.960000 0.960000 6.243116 55.086380 3073.485840
3.120000 -8.960000 1.000000 -28.429831 48.154957 3127.155273
3.120000 -8.960000 1.040000 -46.090775 19.332832 2498.117920
3.120000 -8.960000 1.080000 -37.538464 -9.131048 1492.512207
3.120000 -8.960000 1.120000 -15.516875 -18.131901 569.539246
3.120000 -8.960000 1.160000 -1.402613 -8.002842 66.012802
3.120000 -8.960000 1.200000 -5.221947 4.364264 46.315536
3.120000 -8.920000 0.800000 3.853936 -1.271378 16.469225
3.120000 -8.920000 0.840000 15.692589 5.385611 275.262146
3.120000 -8.920000 0.880000 17.325111 25.130329 931.692932
3.120000 -8.920000 0.920000 -0.844933 42.834332 1835.493774
3.120000 -8.920000 0.960000 -30.020256 40.879410 2572.341797
3.120000 -8.920000 1.000000 -49.383575 17.073093 2730.228027
3.120000 -8.920000 1.040000 -45.363541 -11.947393 2200.591064
3.120000 -8.920000 1.080000 -24.435247 -25.946865 1270.321045
3.120000 -8.920000 1.120000 -6.348271 -19.796215 432.190674
3.120000 -8.920000 1.160000 -4.849129 -6.940839 71.689301
3.120000 -8.920000 1.200000 -15.387397 -4.811534 259.922852
3.120000 -8.880000 0.800000 -3.547336 1.261639 14.175325
3.120000 -8.880000 0.840000 1.394203 8.772734 78.904655
3.120000 -8.880000 0.880000 -5.689600 20.645363 458.602570
3.120000 -8.880000 0.920000 -24.262735 22.423965 1091.514526
3.120000 -8.880000 0.960000 -40.247116 7.080881 1669.969238
3.120000 -8.880000 1.000000 -39.741821 -16.262220 1843.872192
3.120000 -8.880000 1.040000 -23.508253 -30.667873 1493.156372
3.120000 -8.880000 1.080000 -6.354933 -28.351566 844.196533
3.120000 -8.880000 1.120000 -1.790292 -18.152876 332.732056
3.120000 -8.880000 1.160000 -8.292535 -15.501904 309.075134
3.120000 -8.880000 1.200000 -11.757929 -25.784464 803.087463
3.120000 -8.840000 0.800000 -6.791773 -7.964299 109.558243
3.120000 -8.840000 0.840000 -3.710241 -2.305969 19.083382
3.120000 -8.840000 0.880000 -10.371464 2.258132 112.666420
3.120000 -8.840000 0.920000 -20.139088 -3.558052 418.242584
3.120000 -8.840000 0.960000 -21.423603 -17.497145 765.120850
3.120000 -8.840000 1.000000 -11.222425 -27.867493 902.539978
3.120000 -8.840000 1.040000 1.121559 -26.935989 726.805420
3.120000 -8.840000 1.080000 4.751206 -20.040518 424.196320
3.120000 -8.840000 1.120000 0.352863 -19.439478 378.017822
3.120000 -8.840000 1.160000 0.063321 -29.478851 869.006714
3.120000 -8.840000 1.200000 13.646572 -40.172215 1800.035645
3.120000 -8.800000 0.800000 4.772082 -17.984104 346.200775
3.120000 -8.800000 0.840000 8.329350 -10.397104 177.477859
3.120000 -8.800000 0.880000 4.288456 -6.814358 64.826324
3.120000 -8.800000 0.920000 1.380750 -10.704197 116.486305
3.120000 -8.800000 0.960000 5.271342 -15.465685 266.974457
3.120000 -8.800000 1.000000 11.384537 -14.119083 328.956177
3.120000 -8.800000 1.040000 11.532412 -9.447620 222.254059
3.120000 -8.800000 1.080000 6.221488 -11.255268 165.387970
3.120000 -8.800000 1.120000 6.702374 -22.997831 573.822083
3.120000 -8.800000 1.160000 22.448158 -34.096729 1666.506714
3.120000 -8.800000 1.200000 47.799576 -28.856405 3117.491699
3.160000 -9.200000 0.800000 -15.204483 11.821632 370.927307
3.160000 -9.200000 0.840000 -25.660301 12.591038 816.985291
3.160000 -9.200000 0.880000 -33.603527 2.858495 1137.368042
3.160000 -9.200000 0.920000 -31.067434 -10.480713 1075.030884
3.160000 -9.200000 0.960000 -19.838024 -17.150244 687.678101
3.160000 -9.200000 1.000000 -9.335039 -13.500964 269.418976
3.160000 -9.200000 1.040000 -7.039402 -5.438626 79.131836
3.160000 -9.200000 1.080000 -11.623842 -1.619819 137.737518
3.160000 -9.200000 1.120000 -15.669143 -4.661183 267.248657
3.160000 -9.200000 1.160000 -14.210171 -9.680500 295.641052
3.160000 -9.200000 1.200000 -9.428259 -10.942509 208.630554
3.160000 -9.160000 0.800000 -17.854391 4.783057 341.656891
3.160000 -9.160000 0.840000 -29.495972 1.298987 871.699707
3.160000 -9.160000 0.880000 -33.551277 -12.472679 1281.255981
3.160000 -9.160000 0.920000 -24.626175 -25.268202 1244.930420
3.160000 -9.160000 0.960000 -9.407544 -26.925200 813.468262
3.160000 -9.160000 1.000000 0.586808 -17.840595 318.631165
3.160000 -9.160000 1.040000 0.208918 -7.210109 52.029316
3.160000 -9.160000 1.080000 -5.849873 -3.005275 43.252697
3.160000 -9.160000 1.120000 -9.832535 -4.930954 120.993057
3.160000 -9.160000 1.160000 -9.346080 -7.189019 139.031204
3.160000 -9.160000 1.200000 -8.170795 -6.468358 108.601562
3.160000 -9.120000 0.800000 -17.062258 -1.396592 293.071106
3.160000 -9.120000 0.840000 -26.412737 -10.077381 799.186279
3.160000 -9.120000 0.880000 -23.769709 -24.778316 1178.963989
3.160000 -9.120000 0.920000 -9.409677 -32.374683 1136.662109
3.160000 -9.120000 0.960000 5.635348 -26.429939 730.298828
3.160000 -9.120000 1.000000 10.655275 -12.547553 270.975983
3.160000 -9.120000 1.040000 4.730305 -1.718399 25.328684
3.160000 -9.120000 1.080000 -4.439512 0.296503 19.797178
3.160000 -9.120000 1.120000 -9.529302 -3.466559 102.824615
3.160000 -9.120000 1.160000 -9.977769 -6.887211 146.989548
3.160000 -9.120000 1.200000 -9.793356 -7.927630 158.757141
3.160000 -9.080000 0.800000 -13.938728 -6.181275 232.496307
3.160000 -9.080000 0.840000 -17.417435 -17.296093 602.521851
3.160000 -9.080000 0.880000 -8.612801 -27.790020 846.465576
3.160000 -9.080000 0.920000 6.363062 -27.154510 777.855957
3.160000 -9.080000 0.960000 15.561871 -15.060278 468.983765
3.160000 -9.080000 1.000000 12.488416 -1.006095 156.972748
3.160000 -9.080000 1.040000 1.219364 5.077916 27.272081
3.160000 -9.080000 1.080000 -8.826456 1.321578 79.652893
3.160000 -9.080000 1.120000 -11.896860 -6.399663 182.490967
3.160000 -9.080000 1.160000 -9.595039 -11.620176 227.093292
3.160000 -9.080000 1.200000 -6.831426 -13.000398 215.678726
3.160000 -9.040000 0.800000 -8.699488 -8.582941 149.347961
3.160000 -9.040000 0.840000 -6.457844 -17.020330 331.395386
3.160000 -9.040000 0.880000 3.605952 -20.062122 415.491638
3.160000 -9.040000 0.920000 13.022854 -13.023546 339.207489
3.160000 -9.040000 0.960000 13.299273 -0.700006 177.360687
3.160000 -9.040000 1.000000 3.855641 7.228214 67.113045
3.160000 -9.040000 1.040000 -7.822926 5.061425 86.816185
3.160000 -9.040000 1.080000 -13.325412 -4.413743 197.047729
3.160000 -9.040000 1.120000 -10.409718 -13.433817 288.829651
3.160000 -9.040000 1.160000 -3.658667 -16.553997 287.420654
3.160000 -9.040000 1.200000 0.881074 -14.538492 212.144043
3.160000 -9.000000 0.800000 -3.179168 -6.825457 56.693977
3.160000 -9.000000 0.840000 0.287724 -9.723760 94.634285
3.160000 -9.000000 0.880000 5.714112 -7.352208 86.706039
3.160000 -9.000000 0.920000 6.877439 -0.266312 47.370098
3.160000 -9.000000 0.960000 0.991410 5.585560 32.181374
3.160000 -9.000000 1.000000 -8.220760 4.389242 86.846352
3.160000 -9.000000 1.040000 -13.646416 -4.002508 202.244720
3.160000 -9.000000 1.080000 -11.083875 -13.798059 313.238708
3.160000 -9.000000 1.120000 -2.804511 -18.376509 345.561340
3.160000 -9.000000 1.160000 4.748443 -15.902817 275.447296
3.160000 -9.000000 1.200000 6.744582 -10.427002 154.211761
3.160000 -8.960000 0.800000 -1.337987 -1.658850 4.541991
3.160000 -8.960000 0.840000 -1.284764 -1.305555 3.355094
3.160000 -8.960000 0.880000 -2.229590 0.489202 5.210389
3.160000 -8.960000 0.920000 -5.868509 1.500632 36.691296
3.160000 -8.960000 0.960000 -10.701010 -1.248465 116.070274
3.160000 -8.960000 1.000000 -12.803861 -8.084833 229.303375
3.160000 -8.960000 1.040000 -9.342543 -15.571569 329.756866
3.160000 -8.960000 1.080000 -1.501860 -19.029854 364.390930
3.160000 -8.960000 1.120000 6.059799 -16.530910 309.992157
3.160000 -8.960000 1.160000 8.969034 -10.729057 195.556244
3.160000 -8.960000 1.200000 6.829861 -6.703656 91.585999
3.160000 -8.920000 0.800000 -4.968932 1.829699 28.038086
3.160000 -8.920000 0.840000 -8.374603 0.666677 70.578438
3.160000 -8.920000 0.880000 -11.766971 -2.534069 144.883102
3.160000 -8.920000 0.920000 -13.422400 -8.354240 249.954147
3.160000 -8.920000 0.960000 -11.144495 -15.291865 358.040894
3.160000 -8.920000 1.000000 -4.653328 -20.036392 423.110474
3.160000 -8.920000 1.040000 3.335411 -19.965239 409.735718
3.160000 -8.920000 1.080000 8.847390 -15.586176 321.205200
3.160000 -8.920000 1.120000 9.808467 -10.397101 204.305740
3.160000 -8.920000 1.160000 7.765518 -8.090738 125.763321
3.160000 -8.920000 1.200000 6.490650 -9.544135 133.219055
3.160000 -8.880000 0.800000 -9.434095 -1.327435 90.764244
3.160000 -8.880000 0.840000 -12.183650 -5.564053 179.400009
3.160000 -8.880000 0.880000 -12.784413 -12.514162 320.045471
3.160000 -8.880000 0.920000 -8.403730 -20.275612 481.723114
3.160000 -8.880000 0.960000 0.986033 -24.236319 588.371399
3.160000 -8.880000 1.000000 10.855234 -21.164080 565.754395
3.160000 -8.880000 1.040000 15.336321 -13.182182 408.972656
3.160000 -8.880000 1.080000 12.852209 -6.749279 210.732056
3.160000 -8.880000 1.120000 8.165558 -6.828283 113.301788
3.160000 -8.880000 1.160000 8.128153 -11.921844 208.197235
3.160000 -8.880000 1.200000 15.017392 -15.302036 459.674377
3.160000 -8.840000 0.800000 -6.622044 -8.777387 120.893982
3.160000 -8.840000 0.840000 -6.135200 -12.408554 191.612885
3.160000 -8.840000 0.880000 -3.155609 -18.263273 343.505005
3.160000 -8.840000 0.920000 5.292243 -22.647324 540.909058
3.160000 -8.840000 0.960000 16.376625 -19.916845 664.874573
3.160000 -8.840000 1.000000 22.318880 -9.863853 595.428040
3.160000 -8.840000 1.040000 18.475046 -0.236342 341.383179
3.160000 -8.840000 1.080000 9.828745 0.160717 96.630058
3.160000 -8.840000 1.120000 7.484909 -8.676628 131.307739
3.160000 -8.840000 1.160000 17.404871 -16.276974 567.869385
3.160000 -8.840000 1.200000 33.110374 -11.476051 1227.996582
3.160000 -8.800000 0.800000 5.574902 -10.236379 135.862976
3.160000 -8.800000 0.840000 5.889767 -9.122832 117.915421
3.160000 -8.800000 0.880000 8.138706 -11.731854 203.874954
3.160000 -8.800000 0.920000 15.704929 -12.300766 397.953644
3.160000 -8.800000 0.960000 23.196251 -5.188867 564.990356
3.160000 -8.800000 1.000000 22.060642 5.923771 521.763000
3.160000 -8.800000 1.040000 12.241268 10.025417 250.357635
3.160000 -8.800000 1.080000 5.295174 1.520938 30.352116
3.160000 -8.800000 1.120000 13.020182 -10.692882 283.862854
3.160000 -8.800000 1.160000 32.935780 -10.048402 1185.735962
3.160000 -8.800000 1.200000 47.700836 10.231595 2380.055420
3.200000 -9.200000 0.800000 -16.482243 -11.791754 410.709778
3.200000 -9.200000 0.840000 -17.750107 -12.189558 463.651611
3.200000 -9.200000 0.880000 -17.253651 -15.542583 539.260376
3.200000 -9.200000 0.920000 -13.151913 -18.220657 504.965149
3.200000 -9.200000 0.960000 -8.023333 -17.031027 354.429749
3.200000 -9.200000 1.000000 -5.985097 -12.970747 204.061676
3.200000 -9.200000 1.040000 -7.992542 -10.320737 170.398346
3.200000 -9.200000 1.080000 -10.577021 -11.961187 254.943375
3.200000 -9.200000 1.120000 -9.508252 -16.122637 350.346283
3.200000 -9.200000 1.160000 -4.357272 -18.213612 350.721466
3.200000 -9.200000 1.200000 1.088276 -15.716284 248.185913
3.200000 -9.160000 0.800000 -6.407569 -17.099516 333.450378
3.200000 -9.160000 0.840000 -8.860910 -16.303232 344.311096
3.200000 -9.160000 0.880000 -8.816794 -18.989637 438.342194
3.200000 -9.160000 0.920000 -4.992614 -20.513741 445.739746
3.200000 -9.160000 0.960000 -0.876605 -18.090223 328.024597
3.200000 -9.160000 1.000000 -0.198749 -13.750052 189.103455
3.200000 -9.160000 1.040000 -2.556571 -11.534595 139.582947
3.200000 -9.160000 1.080000 -4.248477 -12.580383 176.315598
3.200000 -9.160000 1.120000 -2.970923 -13.999159 204.802841
3.200000 -9.160000 1.160000 -0.583894 -12.724947 162.265198
3.200000 -9.160000 1.200000 -0.615621 -9.488537 90.411324
3.200000 -9.120000 0.800000 2.299154 -12.838039 170.101379
3.200000 -9.120000 0.840000 -2.177059 -12.079943 150.664612
3.200000 -9.120000 0.880000 -3.575711 -14.972259 236.954239
3.200000 -9.120000 0.920000 -1.270046 -16.858397 285.818542
3.200000 -9.120000 0.960000 1.439621 -15.541534 243.611801
3.200000 -9.120000 1.000000 1.729105 -12.836889 167.775528
3.200000 -9.120000 1.040000 0.138683 -11.515404 132.623749
3.200000 -9.120000 1.080000 -1.003729 -11.908400 142.817459
3.200000 -9.120000 1.120000 -0.962976 -12.190979 149.547287
3.200000 -9.120000 1.160000 -1.319173 -11.476353 133.446884
3.200000 -9.120000 1.200000 -3.270376 -11.375221 140.091019
3.200000 -9.080000 0.800000 3.629981 -4.888830 37.077419
3.200000 -9.080000 0.840000 -2.818355 -5.496032 38.149490
3.200000 -9.080000 0.880000 -5.731272 -10.299039 138.917694
3.200000 -9.080000 0.920000 -4.107356 -14.838955 237.064957
3.200000 -9.080000 0.960000 -0.533175 -16.300430 265.988312
3.200000 -9.080000 1.000000 1.958048 -15.160309 233.668915
3.200000 -9.080000 1.040000 2.379034 -13.582714 190.149933
3.200000 -9.080000 1.080000 1.652969 -13.042013 172.826401
3.200000 -9.080000 1.120000 0.925530 -13.606633 185.997086
3.200000 -9.080000 1.160000 0.631150 -14.859442 221.201355
3.200000 -9.080000 1.200000 0.973969 -16.662485 278.587006
3.200000 -9.040000 0.800000 -0.939713 -0.153548 0.906638
3.200000 -9.040000 0.840000 -8.781959 -3.290025 87.947060
3.200000 -9.040000 0.880000 -11.775495 -11.643768 274.239624
3.200000 -9.040000 0.920000 -7.950314 -19.697956 451.216949
3.200000 -9.040000 0.960000 -0.308688 -22.769386 518.540222
3.200000 -9.040000 1.000000 6.033129 -20.487343 456.129852
3.200000 -9.040000 1.040000 8.166114 -16.391800 335.376526
3.200000 -9.040000 1.080000 7.247302 -14.306380 257.195892
3.200000 -9.040000 1.120000 6.578732 -15.096933 271.197113
3.200000 -9.040000 1.160000 8.182673 -16.691105 345.549133
3.200000 -9.040000 1.200000 11.274287 -16.748505 407.621979
3.200000 -9.000000 0.800000 -6.171502 -0.589793 38.435291
3.200000 -9.000000 0.840000 -14.167627 -7.302335 254.045761
3.200000 -9.000000 0.880000 -14.544622 -19.474152 590.788635
3.200000 -9.000000 0.920000 -5.526431 -29.120371 878.537415
3.200000 -9.000000 0.960000 7.406089 -30.044065 957.496033
3.200000 -9.000000 1.000000 16.311020 -23.139200 801.471985
3.200000 -9.000000 1.040000 17.767401 -14.972742 539.863525
3.200000 -9.000000 1.080000 15.133747 -11.217821 354.869812
3.200000 -9.000000 1.120000 14.121798 -11.725845 336.920624
3.200000 -9.000000 1.160000 16.725975 -11.991758 423.560486
3.200000 -9.000000 1.200000 19.898680 -8.891061 475.008423
3.200000 -8.960000 0.800000 -8.749043 -3.822318 91.155861
3.200000 -8.960000 0.840000 -14.676107 -14.335531 420.895569
3.200000 -8.960000 0.880000 -9.918472 -28.329954 900.962402
3.200000 -8.960000 0.920000 4.957276 -35.635044 1294.430908
3.200000 -8.960000 0.960000 20.985367 -30.709192 1383.440186
3.200000 -8.960000 1.000000 28.640877 -17.698280 1133.528931
3.200000 -8.960000 1.040000 26.182144 -6.224511 724.249207
3.200000 -8.960000 1.080000 20.105927 -2.229891 409.220703
3.200000 -8.960000 1.120000 17.685110 -3.345292 323.954102
3.200000 -8.960000 1.160000 19.813824 -3.085423 402.107452
3.200000 -8.960000 1.200000 21.521290 1.370712 465.044769
3.200000 -8.920000 0.800000 -8.527111 -7.319738 126.290192
3.200000 -8.920000 0.840000 -10.050574 -19.847458 494.935608
3.200000 -8.920000 0.880000 0.217200 -32.020168 1025.338257
3.200000 -8.920000 0.920000 18.378899 -33.662933 1470.977051
3.200000 -8.920000 0.960000 33.191025 -21.962845 1584.010742
3.200000 -8.920000 1.000000 35.791855 -4.623428 1302.432983
3.200000 -8.920000 1.040000 27.476496 7.067829 804.912048
3.200000 -8.920000 1.080000 17.663767 8.379850 382.230560
3.200000 -8.920000 1.120000 14.362076 4.317699 224.911758
3.200000 -8.920000 1.160000 17.080744 3.145760 301.647614
3.200000 -8.920000 1.200000 19.096518 7.615528 422.673218
3.200000 -8.880000 0.800000 -5.898350 -9.960458 134.001251
3.200000 -8.880000 0.840000 -2.789820 -20.873280 443.476898
3.200000 -8.880000 0.880000 10.292555 -28.301136 906.890991
3.200000 -8.880000 0.920000 27.572147 -23.955088 1334.069580
3.200000 -8.880000 0.960000 37.725357 -7.875571 1485.227173
3.200000 -8.880000 1.000000 33.889008 10.015907 1248.783203
3.200000 -8.880000 1.040000 20.432734 18.228321 749.768311
3.200000 -8.880000 1.080000 9.144957 14.094191 282.276428
3.200000 -8.880000 1.120000 8.186217 5.780814 100.431961
3.200000 -8.880000 1.160000 14.866514 3.821465 235.616837
3.200000 -8.880000 1.200000 19.302280 10.815617 489.555603
3.200000 -8.840000 0.800000 -0.804585 -9.994408 100.535538
3.200000 -8.840000 0.840000 3.653784 -16.489956 285.268768
3.200000 -8.840000 0.880000 15.386341 -19.486097 616.447449
3.200000 -8.840000 0.920000 29.029360 -11.977287 986.159180
3.200000 -8.840000 0.960000 34.032200 4.819800 1181.421143
3.200000 -8.840000 1.000000 25.202293 20.022064 1036.038574
3.200000 -8.840000 1.040000 9.537918 22.557701 599.821777
3.200000 -8.840000 1.080000 0.794319 12.578257 158.843475
3.200000 -8.840000 1.120000 6.094351 2.299874 42.430538
3.200000 -8.840000 1.160000 18.302553 4.223344 352.820099
3.200000 -8.840000 1.200000 22.812967 18.306297 855.552002
3.200000 -8.800000 0.800000 4.543737 -4.391080 39.927139
3.200000 -8.800000 0.840000 5.467471 -7.800348 90.738663
3.200000 -8.800000 0.880000 13.635707 -10.123741 288.422638
3.200000 -8.800000 0.920000 24.251404 -2.997130 597.113403
3.200000 -8.800000 0.960000 26.125572 12.331387 834.608643
3.200000 -8.800000 1.000000 14.931736 23.774958 788.205322
3.200000 -8.800000 1.040000 0.403110 20.902088 437.059784
3.200000 -8.800000 1.080000 -2.465981 7.834842 67.465813
3.200000 -8.800000 1.120000 9.910221 0.952430 99.119598
3.200000 -8.800000 1.160000 23.813721 11.915754 709.078491
3.200000 -8.800000 1.200000 21.251663 33.768646 1591.954590
