#kx 	ky 	kz 	real 	imag 	intensity
4.800000 0.800000 4.800000 -29.345181 9.570620 952.736389
4.800000 0.800000 4.840000 -28.322182 -1.849019 805.564880
4.800000 0.800000 4.880000 -22.253609 -10.546196 606.445374
4.800000 0.800000 4.920000 -13.602678 -15.171564 415.209229
4.800000 0.800000 4.960000 -4.206774 -15.634792 262.143677
4.800000 0.800000 5.000000 4.473215 -11.907625 161.801193
4.800000 0.800000 5.040000 10.478720 -4.312269 128.399231
4.800000 0.800000 5.080000 11.791178 5.421059 168.419754
4.800000 0.800000 5.120000 7.858883 14.255116 264.970337
4.800000 0.800000 5.160000 0.304298 19.531054 381.554657
4.800000 0.800000 5.200000 -8.277777 20.466259 487.389343
4.800000 0.840000 4.800000 -28.111240 -12.394873 943.874695
4.800000 0.840000 4.840000 -21.061590 -17.739813 758.291504
4.800000 0.840000 4.880000 -13.288130 -19.675259 563.690186
4.800000 0.840000 4.920000 -5.805039 -17.995884 357.550323
4.800000 0.840000 4.960000 -0.737303 -12.760235 163.367203
4.800000 0.840000 5.000000 -0.385077 -6.300003 39.838322
4.800000 0.840000 5.040000 -4.221111 -2.764025 25.457615
4.800000 0.840000 5.080000 -7.910269 -4.330259 81.323502
4.800000 0.840000 5.120000 -6.915451 -8.094837 113.349854
4.800000 0.840000 5.160000 -1.654612 -8.098183 68.318306
4.800000 0.840000 5.200000 1.718052 -1.612885 5.553099
4.800000 0.880000 4.800000 -11.263472 -27.667007 892.329102
4.800000 0.880000 4.840000 -3.878201 -24.799488 630.055054
4.800000 0.880000 4.880000 0.752758 -20.334457 414.056793
4.800000 0.880000 4.920000 2.324988 -14.400770 212.787750
4.800000 0.880000 4.960000 -1.139438 -8.992363 82.160912
4.800000 0.880000 5.000000 -8.758163 -9.271154 162.659729
4.800000 0.880000 5.040000 -13.616028 -18.324587 521.186707
4.800000 0.880000 5.080000 -7.410782 -30.836752 1005.824951
4.800000 0.880000 5.120000 9.999943 -34.752686 1307.748047
4.800000 0.880000 5.160000 26.952450 -22.064714 1213.286133
4.800000 0.880000 5.200000 28.517658 1.385372 815.176086
4.800000 0.920000 4.800000 11.171000 -26.173418 809.839050
4.800000 0.920000 4.840000 13.348436 -17.417727 481.557953
4.800000 0.920000 4.880000 11.203896 -10.467581 235.097534
4.800000 0.920000 4.920000 5.035006 -6.151882 63.196934
4.800000 0.920000 4.960000 -4.433174 -8.311501 88.734070
4.800000 0.920000 5.000000 -10.609182 -20.667938 539.718384
4.800000 0.920000 5.040000 -3.194238 -38.581486 1498.734131
4.800000 0.920000 5.080000 20.786043 -47.360291 2675.056641
4.800000 0.920000 5.120000 48.735508 -33.416245 3491.794922
4.800000 0.920000 5.160000 59.109306 0.656019 3494.340576
4.800000 0.920000 5.200000 39.999947 33.639618 2731.619629
4.800000 0.960000 4.800000 24.618555 -9.426179 694.926086
4.800000 0.960000 4.840000 19.182476 -0.175331 367.998108
4.800000 0.960000 4.880000 10.450422 3.486525 121.367188
4.800000 0.960000 4.920000 0.337068 0.322324 0.217508
4.800000 0.960000 4.960000 -6.340038 -12.168900 188.278214
4.800000 0.960000 5.000000 -0.270496 -31.082874 966.218262
4.800000 0.960000 5.040000 23.858955 -43.117142 2428.337646
4.800000 0.960000 5.080000 56.421165 -32.019703 4208.609375
4.800000 0.960000 5.120000 74.370094 4.883464 5554.759277
4.800000 0.960000 5.160000 59.014534 48.136497 5799.837891
4.800000 0.960000 5.200000 14.989650 68.132843 4866.773926
4.800000 1.000000 4.800000 21.207266 10.312904 556.104126
4.800000 1.000000 4.840000 10.046377 14.601976 314.147400
4.800000 1.000000 4.880000 -0.732203 10.870807 118.710556
4.800000 1.000000 4.920000 -7.186872 -0.623507 52.039886
4.800000 1.000000 4.960000 -2.927392 -17.450817 313.100616
4.800000 1.000000 5.000000 17.178268 -29.764084 1180.993652
4.800000 1.000000 5.040000 47.447922 -22.820295 2772.071045
4.800000 1.000000 5.080000 68.359055 9.771623 4768.444824
4.800000 1.000000 5.120000 59.042980 54.242813 6428.356445
4.800000 1.000000 5.160000 17.082239 81.835907 6988.918457
4.800000 1.000000 5.200000 -34.185516 70.911263 6197.056641
4.800000 1.040000 4.800000 5.506889 19.855333 424.560089
4.800000 1.040000 4.840000 -6.440802 16.555206 315.558777
4.800000 1.040000 4.880000 -12.935116 5.929930 202.481293
4.800000 1.040000 4.920000 -9.923146 -8.201937 165.740601
4.800000 1.040000 4.960000 5.366241 -18.587170 374.279419
4.800000 1.040000 5.000000 29.272154 -14.533562 1068.083374
4.800000 1.040000 5.040000 47.809452 10.385400 2393.600098
4.800000 1.040000 5.080000 43.128300 48.068417 4170.623047
4.800000 1.040000 5.120000 8.989538 75.762314 5820.740234
4.800000 1.040000 5.160000 -38.941795 71.468582 6624.221680
4.800000 1.040000 5.200000 -71.129211 33.415833 6175.982422
4.800000 1.080000 4.800000 -10.277349 15.113384 334.038300
4.800000 1.080000 4.840000 -17.866003 5.550742 350.004791
4.800000 1.080000 4.880000 -16.074587 -6.969872 306.971466
4.800000 1.080000 4.920000 -4.327583 -15.415962 256.379852
4.800000 1.080000 4.960000 13.213585 -12.492180 330.653381
4.800000 1.080000 5.000000 26.489475 5.512167 732.076294
4.800000 1.080000 5.040000 23.115265 33.026733 1625.080566
4.800000 1.080000 5.080000 -2.255970 54.273800 2950.734619
4.800000 1.080000 5.120000 -39.865494 52.249573 4319.275391
4.800000 1.080000 5.160000 -67.970482 22.842331 5141.758301
4.800000 1.080000 5.200000 -68.017448 -18.751127 4977.978027
4.800000 1.120000 4.800000 -16.846409 2.568516 290.398743
4.800000 1.120000 4.840000 -17.347651 -9.195272 385.494019
4.800000 1.120000 4.880000 -8.137691 -17.464977 371.247437
4.800000 1.120000 4.920000 5.559177 -15.497173 271.066833
4.800000 1.120000 4.960000 14.539975 -1.931768 215.142609
4.800000 1.120000 5.000000 10.323718 17.103001 399.091797
4.800000 1.120000 5.040000 -8.945820 29.838297 970.351685
4.800000 1.120000 5.080000 -35.119034 25.545050 1885.896118
4.800000 1.120000 5.120000 -53.298580 2.737004 2848.229980
4.800000 1.120000 5.160000 -51.481056 -27.707008 3417.977295
4.800000 1.120000 5.200000 -29.931290 -48.783123 3275.675293
4.800000 1.160000 4.800000 -14.176539 -8.315124 270.115540
4.800000 1.160000 4.840000 -8.114250 -18.038010 391.210846
4.800000 1.160000 4.880000 3.900718 -18.732897 366.137024
4.800000 1.160000 4.920000 12.007797 -8.360882 214.091537
4.800000 1.160000 4.960000 7.961512 6.152034 101.233192
4.800000 1.160000 5.000000 -8.007846 13.318514 241.508408
4.800000 1.160000 5.040000 -26.399647 5.588212 728.169434
4.800000 1.160000 5.080000 -34.802204 -14.525888 1422.194824
4.800000 1.160000 5.120000 -26.957275 -35.678612 1999.658081
4.800000 1.160000 5.160000 -7.473209 -45.729954 2147.077637
4.800000 1.160000 5.200000 11.633120 -40.502888 1775.813354
4.800000 1.200000 4.800000 -8.576260 -13.639212 259.580322
4.800000 1.200000 4.840000 1.592657 -18.938417 361.200226
4.800000 1.200000 4.880000 11.660362 -12.894801 302.239929
4.800000 1.200000 4.920000 11.195414 -0.368237 125.472885
4.800000 1.200000 4.960000 -1.524518 6.345629 42.591160
4.800000 1.200000 5.000000 -16.564590 -1.585835 276.900513
4.800000 1.200000 5.040000 -20.284740 -20.779375 843.253174
4.800000 1.200000 5.080000 -7.418537 -37.604332 1469.120483
4.800000 1.200000 5.120000 13.823638 -39.619530 1760.800171
4.800000 1.200000 5.160000 28.545639 -26.268448 1504.884888
4.800000 1.200000 5.200000 27.812111 -9.164446 857.500549
4.840000 0.800000 4.800000 -40.697433 2.298120 1661.562500
4.840000 0.800000 4.840000 -35.450050 -12.603533 1415.555054
4.840000 0.800000 4.880000 -23.333790 -21.805698 1019.954224
4.840000 0.800000 4.920000 -9.434353 -22.994608 617.759033
4.840000 0.800000 4.960000 1.703802 -17.613365 313.133575
4.840000 0.800000 5.000000 8.007469 -8.778831 141.187424
4.840000 0.800000 5.040000 9.436720 0.802696 89.695999
4.840000 0.800000 5.080000 6.655710 9.362968 131.963654
4.840000 0.800000 5.120000 0.437408 15.487640 240.058334
4.840000 0.800000 5.160000 -7.956795 17.832542 381.310150
4.840000 0.800000 5.200000 -16.514750 15.600376 516.108643
4.840000 0.840000 4.800000 -27.734634 -24.210018 1355.334961
4.840000 0.840000 4.840000 -12.224693 -28.586338 966.621826
4.840000 0.840000 4.880000 2.232179 -21.954857 486.998383
4.840000 0.840000 4.920000 7.569992 -8.114436 123.148849
4.840000 0.840000 4.960000 1.404402 3.619040 15.069798
4.840000 0.840000 5.000000 -10.164986 5.317638 131.604218
4.840000 0.840000 5.040000 -17.009359 -2.848839 297.434174
4.840000 0.840000 5.080000 -13.441095 -12.506843 337.084167
4.840000 0.840000 5.120000 -3.206654 -14.322237 215.409103
4.840000 0.840000 5.160000 3.845377 -6.324772 54.789665
4.840000 0.840000 5.200000 0.673135 4.263119 18.627291
4.840000 0.880000 4.800000 1.354626 -32.339752 1047.694580
4.840000 0.880000 4.840000 17.111267 -19.700523 680.906128
4.840000 0.880000 4.880000 19.506363 2.436461 386.434540
4.840000 0.880000 4.920000 3.154339 20.368074 424.808319
4.840000 0.880000 4.960000 -23.245974 19.067200 903.933411
4.840000 0.880000 5.000000 -40.222290 -4.140999 1634.980469
4.840000 0.880000 5.040000 -32.515476 -34.045467 2216.350098
4.840000 0.880000 5.080000 -3.331526 -47.922813 2307.695068
4.840000 0.880000 5.120000 26.378164 -34.360287 1876.436768
4.840000 0.880000 5.160000 34.661194 -3.654869 1214.756348
4.840000 0.880000 5.200000 16.940479 20.518833 708.002319
4.840000 0.920000 4.800000 25.916075 -15.565511 913.928101
4.840000 0.920000 4.840000 28.521355 10.623035 926.316528
4.840000 0.920000 4.880000 8.335766 34.720642 1275.007935
4.840000 0.920000 4.920000 -28.532234 36.371338 2136.962646
4.840000 0.920000 4.960000 -58.202629 6.031391 3423.923828
4.840000 0.920000 5.000000 -54.954308 -41.351021 4729.882812
4.840000 0.920000 5.040000 -14.395254 -72.930710 5526.111816
4.840000 0.920000 5.080000 38.304108 -63.378487 5484.037109
4.840000 0.920000 5.120000 66.125587 -17.549864 4680.590820
4.840000 0.920000 5.160000 50.324116 31.578772 3529.735352
4.840000 0.920000 5.200000 5.911598 49.638760 2498.953369
4.840000 0.960000 4.800000 27.959879 12.963364 949.803589
4.840000 0.960000 4.840000 10.419574 39.073662 1635.318604
4.840000 0.960000 4.880000 -28.009398 46.354034 2933.222900
4.840000 0.960000 4.920000 -66.305222 18.750473 4747.962402
4.840000 0.960000 4.960000 -73.250839 -35.862457 6651.801270
4.840000 0.960000 5.000000 -33.599232 -83.292542 8066.555664
4.840000 0.960000 5.040000 33.031311 -86.550797 8582.108398
4.840000 0.960000 5.080000 82.087669 -37.850105 8171.015625
4.840000 0.960000 5.120000 78.633965 30.882751 7137.044434
4.840000 0.960000 5.160000 26.874434 71.797882 5877.171387
4.840000 0.960000 5.200000 -33.040855 59.761803 4663.171387
4.840000 1.000000 4.800000 7.521504 31.004482 1017.850952
4.840000 1.000000 4.840000 -24.134247 41.957645 2342.905762
4.840000 1.000000 4.880000 -62.270290 23.312338 4421.054199
4.840000 1.000000 4.920000 -78.326408 -25.913771 6806.549805
4.840000 1.000000 4.960000 -49.676003 -79.297348 8755.774414
4.840000 1.000000 5.000000 15.899690 -97.094162 9680.076172
4.840000 1.000000 5.040000 78.033554 -58.622910 9525.880859
4.840000 1.000000 5.080000 92.206436 15.515217 8742.749023
4.840000 1.000000 5.120000 46.845589 75.271729 7860.342285
4.840000 1.000000 5.160000 -24.942677 80.340858 7076.790527
4.840000 1.000000 5.200000 -71.769119 32.653069 6217.029297
4.840000 1.040000 4.800000 -17.866997 25.964983 993.409912
4.840000 1.040000 4.840000 -47.969090 16.463650 2572.085205
4.840000 1.040000 4.880000 -66.624649 -19.200117 4807.488281
4.840000 1.040000 4.920000 -51.614525 -66.037498 7025.010254
4.840000 1.040000 4.960000 -0.134033 -91.604263 8391.358398
4.840000 1.040000 5.000000 60.342937 -69.755959 8507.164062
4.840000 1.040000 5.040000 87.685036 -6.392256 7729.526367
4.840000 1.040000 5.080000 58.654491 58.670963 6882.631348
4.840000 1.040000 5.120000 -8.893132 80.483963 6556.756348
4.840000 1.040000 5.160000 -67.641899 45.386955 6635.402344
4.840000 1.040000 5.200000 -78.467232 -17.682991 6469.794434
4.840000 1.080000 4.800000 -28.958967 4.458083 858.496277
4.840000 1.080000 4.840000 -43.715561 -17.067722 2202.357422
4.840000 1.080000 4.880000 -37.981037 -49.596874 3902.409180
4.840000 1.080000 4.920000 -5.224751 -72.688080 5310.854980
4.840000 1.080000 4.960000 40.587769 -64.443848 5800.375977
4.840000 1.080000 5.000000 69.409203 -21.328276 5272.532715
4.840000 1.080000 5.040000 56.931862 32.868042 4321.544922
4.840000 1.080000 5.080000 6.850494 61.336498 3809.095215
4.840000 1.080000 5.120000 -48.002930 43.051193 4157.686523
4.840000 1.080000 5.160000 -69.988968 -8.817334 4976.201172
4.840000 1.080000 5.200000 -46.608711 -56.684208 5385.471680
4.840000 1.120000 4.800000 -20.720608 -15.597623 672.629456
4.840000 1.120000 4.840000 -18.094975 -34.167385 1494.838257
4.840000 1.120000 4.880000 -0.039997 -48.321793 2334.997314
4.840000 1.120000 4.920000 26.895164 -45.453308 2789.353027
4.840000 1.120000 4.960000 46.301929 -21.465982 2604.656982
4.840000 1.120000 5.000000 42.209824 12.316364 1933.362061
4.840000 1.120000 5.040000 12.831324 33.948544 1317.146484
4.840000 1.120000 5.080000 -24.614853 26.660410 1316.668457
4.840000 1.120000 5.120000 -44.791611 -6.610123 2049.981934
4.840000 1.120000 5.160000 -33.736710 -43.607399 3039.770752
4.840000 1.120000 5.200000 -0.277470 -59.562557 3547.775146
4.840000 1.160000 4.800000 -3.901217 -21.738901 487.799316
4.840000 1.160000 4.840000 6.730410 -27.695438 812.335693
4.840000 1.160000 4.880000 19.756226 -23.914213 962.197998
4.840000 1.160000 4.920000 26.727909 -10.971050 834.745056
4.840000 1.160000 4.960000 21.872271 3.987068 494.292908
4.840000 1.160000 5.000000 6.653301 11.088699 167.225677
4.840000 1.160000 5.040000 -10.002262 4.312593 118.643707
4.840000 1.160000 5.080000 -16.954533 -13.543856 470.892212
4.840000 1.160000 5.120000 -8.684967 -31.796715 1086.459717
4.840000 1.160000 5.160000 10.219589 -39.009071 1626.147705
4.840000 1.160000 5.200000 28.039762 -31.319138 1767.116699
4.840000 1.200000 4.800000 7.613501 -16.198183 320.346527
4.840000 1.200000 4.840000 15.040293 -11.083813 349.061310
4.840000 1.200000 4.880000 14.879417 -1.617632 224.013794
4.840000 1.200000 4.920000 6.210175 3.704733 52.291313
4.840000 1.200000 4.960000 -4.189865 -1.004951 18.564898
4.840000 1.200000 5.000000 -7.228035 -13.621514 237.790146
4.840000 1.200000 5.040000 0.907898 -25.405491 646.263245
4.840000 1.200000 5.080000 15.585845 -28.010273 1027.493896
4.840000 1.200000 5.120000 27.579056 -20.013599 1161.148438
4.840000 1.200000 5.160000 30.382790 -7.555602 980.200989
4.840000 1.200000 5.200000 24.838043 0.988239 617.905029
4.880000 0.800000 4.800000 -44.937565 -15.832182 2270.042725
4.880000 0.800000 4.840000 -32.547539 -30.367338 1981.517578
4.880000 0.800000 4.880000 -14.419465 -34.860046 1423.143799
4.880000 0.800000 4.920000 1.380516 -28.767710 829.486938
4.880000 0.800000 4.960000 9.637352 -17.092800 385.042358
4.880000 0.800000 5.000000 10.461500 -5.785351 142.913269
4.880000 0.800000 5.040000 7.131597 2.218876 55.783081
4.880000 0.800000 5.080000 2.368277 7.170380 57.023079
4.880000 0.800000 5.120000 -3.169338 9.961012 109.266464
4.880000 0.800000 5.160000 -9.504470 10.241940 195.232269
4.880000 0.800000 5.200000 -15.476599 7.035646 289.025452
4.880000 0.840000 4.800000 -16.886507 -36.280441 1601.424561
4.880000 0.840000 4.840000 4.789183 -30.789051 970.901917
4.880000 0.840000 4.880000 15.653172 -10.594511 357.265442
4.880000 0.840000 4.920000 7.136810 10.123123 153.411682
4.880000 0.840000 4.960000 -13.689152 15.308777 421.751526
4.880000 0.840000 5.000000 -29.137829 1.520741 851.325684
4.880000 0.840000 5.040000 -26.359856 -18.556118 1039.171509
4.880000 0.840000 5.080000 -8.656269 -27.482580 830.223206
4.880000 0.840000 5.120000 8.111980 -18.617706 412.423218
4.880000 0.840000 5.160000 10.340069 -1.196434 108.348480
4.880000 0.840000 5.200000 -1.615358 9.213085 87.490318
4.880000 0.880000 4.800000 17.196522 -27.020559 1025.830933
4.880000 0.880000 4.840000 28.718430 3.523839 837.165588
4.880000 0.880000 4.880000 9.704002 37.065624 1468.028076
4.880000 0.880000 4.920000 -33.587910 44.681198 3124.557129
4.880000 0.880000 4.960000 -70.636169 13.350670 5167.708496
4.880000 0.880000 5.000000 -70.707664 -38.337643 6469.348633
4.880000 0.880000 5.040000 -30.667820 -72.842934 6246.607910
4.880000 0.880000 5.080000 20.415348 -65.169205 4663.812012
4.880000 0.880000 5.120000 45.663696 -24.192513 2670.450684
4.880000 0.880000 5.160000 31.452435 16.193542 1251.486450
4.880000 0.880000 5.200000 -3.457056 27.285086 756.427124
4.880000 0.920000 4.800000 30.191725 5.418198 940.897095
4.880000 0.920000 4.840000 12.582451 47.041389 2371.210449
4.880000 0.920000 4.880000 -41.712811 64.437531 5892.153809
4.880000 0.920000 4.920000 -100.184845 29.592716 10912.731445
4.880000 0.920000 4.960000 -115.247955 -46.013489 15399.332031
4.880000 0.920000 5.000000 -66.142609 -112.802132 17099.166016
4.880000 0.920000 5.040000 18.012566 -121.777603 15154.236328
4.880000 0.920000 5.080000 79.095490 -66.958740 10739.569336
4.880000 0.920000 5.120000 78.021637 8.740059 6163.764648
4.880000 0.920000 5.160000 26.058868 50.520042 3231.339355
4.880000 0.920000 5.200000 -28.874792 37.187515 2216.664795
4.880000 0.960000 4.800000 11.746084 34.261734 1311.836914
4.880000 0.960000 4.840000 -36.304989 60.765705 5010.523438
4.880000 0.960000 4.880000 -103.448952 36.921432 12064.877930
4.880000 0.960000 4.920000 -137.301544 -42.649940 20670.732422
4.880000 0.960000 4.960000 -97.539261 -132.900757 27176.519531
4.880000 0.960000 5.000000 2.439285 -168.447968 28380.666016
4.880000 0.960000 5.040000 98.397217 -118.917679 23823.425781
4.880000 0.960000 5.080000 125.673470 -18.343685 16130.312500
4.880000 0.960000 5.120000 72.902794 61.444111 9090.196289
4.880000 0.960000 5.160000 -10.603283 70.543411 5088.802734
4.880000 0.960000 5.200000 -59.926891 19.144012 3957.725586
4.880000 1.000000 4.800000 -21.897297 35.662399 1751.298340
4.880000 1.000000 4.840000 -79.699203 28.426327 7160.019043
4.880000 1.000000 4.880000 -123.818344 -34.410324 16515.052734
4.880000 1.000000 4.920000 -104.976662 -126.397629 26996.460938
4.880000 1.000000 4.960000 -14.207366 -183.763214 33970.765625
4.880000 1.000000 5.000000 97.930626 -156.218750 33994.703125
4.880000 1.000000 5.040000 156.065399 -54.379967 27313.589844
4.880000 1.000000 5.080000 121.971527 53.232533 17710.755859
4.880000 1.000000 5.120000 27.322775 95.043884 9779.874023
4.880000 1.000000 5.160000 -54.086990 54.434059 5888.469727
4.880000 1.000000 5.200000 -68.962425 -21.692554 5226.382812
4.880000 1.040000 4.800000 -42.361778 9.535046 1885.437378
4.880000 1.040000 4.840000 -82.041664 -26.949280 7457.098145
4.880000 1.040000 4.880000 -82.311310 -98.654945 16507.949219
4.880000 1.040000 4.920000 -19.169397 -160.105484 26001.230469
4.880000 1.040000 4.960000 81.729675 -157.753571 31565.929688
4.880000 1.040000 5.000000 155.766464 -78.406944 30410.839844
4.880000 1.040000 5.040000 149.687805 31.555559 23402.193359
4.880000 1.040000 5.080000 68.125465 99.243156 14490.283203
4.880000 1.040000 5.120000 -28.034334 84.227272 7880.157227
4.880000 1.040000 5.160000 -71.988800 10.305071 5288.581543
4.880000 1.040000 5.200000 -44.668335 -58.508377 5418.490234
4.880000 1.080000 4.800000 -34.241966 -21.616436 1639.782471
4.880000 1.080000 4.840000 -42.446198 -63.409012 5822.382812
4.880000 1.080000 4.880000 -9.559820 -110.020203 12195.835938
4.880000 1.080000 4.920000 59.788956 -121.794357 18408.583984
4.880000 1.080000 4.960000 125.697235 -75.238838 21460.677734
4.880000 1.080000 5.000000 140.215561 10.358326 19767.699219
4.880000 1.080000 5.040000 88.107132 81.497185 14404.658203
4.880000 1.080000 5.080000 3.632278 91.558289 8396.113281
4.880000 1.080000 5.120000 -54.989281 39.283211 4566.991699
4.880000 1.080000 5.160000 -52.458435 -30.781670 3699.398682
4.880000 1.080000 5.200000 -2.751495 -66.589127 4441.682617
4.880000 1.120000 4.800000 -7.014010 -34.039562 1207.888062
4.880000 1.120000 4.840000 6.126295 -57.762882 3374.082031
4.880000 1.120000 4.880000 41.026619 -68.186646 6332.602051
4.880000 1.120000 4.920000 81.100655 -47.837219 8865.715820
4.880000 1.120000 4.960000 98.263275 0.781075 9656.281250
4.880000 1.120000 5.000000 74.972008 51.157913 8237.933594
4.880000 1.120000 5.040000 21.829414 70.391571 5431.496582
4.880000 1.120000 5.080000 -27.156342 45.658382 2822.154785
4.880000 1.120000 5.120000 -40.314144 -3.917683 1640.578491
4.880000 1.120000 5.160000 -13.404448 -42.061573 1948.855103
4.880000 1.120000 5.200000 28.319101 -44.475784 2780.066895
4.880000 1.160000 4.800000 16.447163 -23.082142 803.294434
4.880000 1.160000 4.840000 28.809471 -23.799440 1396.399048
4.880000 1.160000 4.880000 41.621975 -14.715958 1948.948242
4.880000 1.160000 4.920000 46.741436 3.159569 2194.744629
4.880000 1.160000 4.960000 38.354546 22.154671 1961.900635
4.880000 1.160000 5.000000 18.318924 31.365685 1319.389160
4.880000 1.160000 5.040000 -2.943840 24.127338 590.794678
4.880000 1.160000 5.080000 -12.532997 4.118980 174.042023
4.880000 1.160000 5.120000 -4.536795 -15.841251 271.527771
4.880000 1.160000 5.160000 14.887892 -22.737293 738.633789
4.880000 1.160000 5.200000 31.879789 -13.165328 1189.646851
4.880000 1.200000 4.800000 21.841171 -3.767460 491.230530
4.880000 1.200000 4.840000 19.421335 5.209381 404.325928
4.880000 1.200000 4.880000 10.645488 8.942593 193.296371
4.880000 1.200000 4.920000 2.608973 4.173111 24.221594
4.880000 1.200000 4.960000 1.912781 -4.910006 27.766884
4.880000 1.200000 5.000000 8.706032 -10.697591 190.233429
4.880000 1.200000 5.040000 17.100628 -9.093620 375.125427
4.880000 1.200000 5.080000 21.006973 -2.547626 447.783325
4.880000 1.200000 5.120000 19.378431 3.232714 385.974030
4.880000 1.200000 5.160000 15.973911 4.933004 279.500366
4.880000 1.200000 5.200000 14.827063 3.986259 235.732040
4.920000 0.800000 4.800000 -33.238979 -34.572769 2300.105957
4.920000 0.800000 4.840000 -15.329348 -42.861092 2072.062012
4.920000 0.800000 4.880000 3.626976 -38.888130 1525.441528
4.920000 0.800000 4.920000 15.302238 -26.041832 912.335510
4.920000 0.800000 4.960000 17.212227 -12.008450 440.463623
4.920000 0.800000 5.000000 12.971357 -2.488075 174.446640
4.920000 0.800000 5.040000 7.730167 1.966812 63.623840
4.920000 0.800000 5.080000 3.835781 4.031338 30.964901
4.920000 0.800000 5.120000 0.468616 5.661758 32.275108
4.920000 0.800000 5.160000 -3.597927 6.395788 53.851185
4.920000 0.800000 5.200000 -7.763878 4.860758 83.904762
4.920000 0.840000 4.800000 2.127682 -37.485550 1409.693481
4.920000 0.840000 4.840000 19.333515 -18.463249 714.676392
4.920000 0.840000 4.880000 14.829285 8.384529 290.208008
4.920000 0.840000 4.920000 -10.034794 21.032402 543.059021
4.920000 0.840000 4.960000 -35.048912 7.820343 1289.583984
4.920000 0.840000 5.000000 -38.658535 -20.630920 1920.117188
4.920000 0.840000 5.040000 -17.640720 -40.366676 1940.663574
4.920000 0.840000 5.080000 10.204987 -35.643066 1374.569946
4.920000 0.840000 5.120000 22.778555 -12.285347 669.792297
4.920000 0.840000 5.160000 13.188850 9.320972 260.826294
4.920000 0.840000 5.200000 -6.290741 13.623760 225.180267
4.920000 0.880000 4.800000 25.585892 -10.055941 755.759827
4.920000 0.880000 4.840000 16.224255 30.719803 1206.932739
4.920000 0.880000 4.880000 -30.463188 52.355392 3669.093018
4.920000 0.880000 4.920000 -84.576065 26.051414 7831.787109
4.920000 0.880000 4.960000 -101.229019 -38.791161 11752.068359
4.920000 0.880000 5.000000 -61.126129 -97.126053 13169.873047
4.920000 0.880000 5.040000 9.350746 -105.681992 11256.120117
4.920000 0.880000 5.080000 59.584740 -60.756214 7241.659180
4.920000 0.880000 5.120000 58.203953 -0.311852 3387.797363
4.920000 0.880000 5.160000 17.592798 30.983702 1269.496338
4.920000 0.880000 5.200000 -22.111979 19.559319 871.506592
4.920000 0.920000 4.800000 16.114918 24.961578 882.770996
4.920000 0.920000 4.840000 -33.143349 59.426849 4630.032227
4.920000 0.920000 4.880000 -108.173843 38.345337 13171.945312
4.920000 0.920000 4.920000 -148.743195 -46.409752 24278.402344
4.920000 0.920000 4.960000 -108.977783 -144.627975 32793.410156
4.920000 0.920000 5.000000 -4.128799 -184.532043 34069.121094
4.920000 0.920000 5.040000 96.018646 -135.004181 27445.708984
4.920000 0.920000 5.080000 124.824951 -34.273407 16755.935547
4.920000 0.920000 5.120000 74.416718 43.378735 7419.562500
4.920000 0.920000 5.160000 -2.481969 51.465492 2654.856934
4.920000 0.920000 5.200000 -43.641415 5.613976 1936.089844
4.920000 0.960000 4.800000 -18.663565 36.484711 1679.462769
4.920000 0.960000 4.840000 -92.399918 33.652664 9670.247070
4.920000 0.960000 4.880000 -152.804077 -43.269272 25221.316406
4.920000 0.960000 4.920000 -133.173874 -160.879913 43617.625000
4.920000 0.960000 4.960000 -21.161694 -236.194550 56235.683594
4.920000 0.960000 5.000000 118.286736 -205.637100 56278.367188
4.920000 0.960000 5.040000 191.499329 -84.472641 43807.617188
4.920000 0.960000 5.080000 154.827087 42.228943 25754.710938
4.920000 0.960000 5.120000 50.038033 91.324020 10843.881836
4.920000 0.960000 5.160000 -36.302231 49.218826 3740.344727
4.920000 0.960000 5.200000 -48.996944 -26.154606 3084.764160
4.920000 1.000000 4.800000 -48.204765 13.547831 2507.243164
4.920000 1.000000 4.840000 -110.475906 -34.178169 13373.073242
4.920000 1.000000 4.880000 -116.988144 -139.294754 33089.253906
4.920000 1.000000 4.920000 -28.296791 -233.266235 55213.843750
4.920000 1.000000 4.960000 118.295097 -235.082367 69257.453125
4.920000 1.000000 5.000000 227.871613 -125.486046 67672.218750
4.920000 1.000000 5.040000 225.026062 27.830055 51411.242188
4.920000 1.000000 5.080000 119.115273 123.029266 29324.648438
4.920000 1.000000 5.120000 -4.556416 108.561607 11806.383789
4.920000 1.000000 5.160000 -59.500008 21.216919 3990.408691
4.920000 1.000000 5.200000 -28.022591 -54.904060 3799.721436
4.920000 1.040000 4.800000 -46.567825 -24.551981 2771.362061
4.920000 1.040000 4.840000 -68.775818 -93.359909 13446.185547
4.920000 1.040000 4.880000 -18.944387 -177.851364 31989.998047
4.920000 1.040000 4.920000 98.907440 -205.519043 52020.757812
4.920000 1.040000 4.960000 215.521118 -132.247833 63938.843750
4.920000 1.040000 5.000000 247.443146 9.910294 61326.324219
4.920000 1.040000 5.040000 169.005310 130.776520 45665.292969
4.920000 1.040000 5.080000 37.506344 154.774689 25361.931641
4.920000 1.040000 5.120000 -54.413620 82.713768 9802.409180
4.920000 1.040000 5.160000 -55.776550 -14.213211 3313.039062
4.920000 1.040000 5.200000 7.070401 -60.187958 3672.580811
4.920000 1.080000 4.800000 -15.406897 -46.284012 2379.582275
4.920000 1.080000 4.840000 1.198584 -100.177567 10036.981445
4.920000 1.080000 4.880000 71.380341 -133.181732 22832.525391
4.920000 1.080000 4.920000 161.890457 -99.761482 36160.875000
4.920000 1.080000 4.960000 208.717545 0.076096 43563.015625
4.920000 1.080000 5.000000 169.837296 110.392365 41031.179688
4.920000 1.080000 5.040000 65.284538 160.274429 29949.962891
4.920000 1.080000 5.080000 -35.360893 122.222572 16188.750000
4.920000 1.080000 5.120000 -69.429504 34.391537 6003.233887
4.920000 1.080000 5.160000 -30.601242 -33.878391 2084.181396
4.920000 1.080000 5.200000 32.716187 -40.612877 2719.754639
4.920000 1.120000 4.800000 19.315283 -36.324959 1692.582764
4.920000 1.120000 4.840000 47.396828 -56.232681 5408.573730
4.920000 1.120000 4.880000 95.107300 -47.219959 11275.123047
4.920000 1.120000 4.920000 130.661102 2.714722 17079.693359
4.920000 1.120000 4.960000 121.135307 72.781334 19970.884766
4.920000 1.120000 5.000000 62.428413 120.218430 18349.777344
4.920000 1.120000 5.040000 -12.401390 113.561661 13050.045898
4.920000 1.120000 5.080000 -57.103485 59.532890 6804.973145
4.920000 1.120000 5.120000 -48.833649 -1.693752 2387.594238
4.920000 1.120000 5.160000 -4.842117 -29.423759 889.203735
4.920000 1.120000 5.200000 35.047764 -13.973913 1423.615967
4.920000 1.160000 4.800000 32.447662 -7.070339 1102.840576
4.920000 1.160000 4.840000 44.166428 -2.952061 1959.388062
4.920000 1.160000 4.880000 54.274460 12.435745 3100.364746
4.920000 1.160000 4.920000 52.615105 36.303825 4086.316895
4.920000 1.160000 4.960000 33.731934 57.276768 4418.471680
4.920000 1.160000 5.000000 3.346619 62.025810 3858.401123
4.920000 1.160000 5.040000 -23.254475 45.621578 2622.098877
4.920000 1.160000 5.080000 -31.464140 16.933800 1276.745728
4.920000 1.160000 5.120000 -18.466303 -6.738314 386.409210
4.920000 1.160000 5.160000 4.386171 -12.257019 169.473007
4.920000 1.160000 5.200000 20.458143 -0.075329 418.541290
4.920000 1.200000 4.800000 21.225748 16.257313 714.832642
4.920000 1.200000 4.840000 10.694021 19.884626 509.760468
4.920000 1.200000 4.880000 1.408367 14.431381 210.248276
4.920000 1.200000 4.920000 0.660339 5.046108 25.899258
4.920000 1.200000 4.960000 7.572067 0.893815 58.135105
4.920000 1.200000 5.000000 13.620789 5.761047 218.715546
4.920000 1.200000 5.040000 11.328691 13.987869 323.999756
4.920000 1.200000 5.080000 2.100660 16.230934 267.856018
4.920000 1.200000 5.120000 -5.073303 9.212757 110.613297
4.920000 1.200000 5.160000 -2.839501 -0.706703 8.562198
4.920000 1.200000 5.200000 6.915789 -3.849022 62.643105
4.960000 0.800000 4.800000 -10.073732 -39.070763 1628.004639
4.960000 0.800000 4.840000 6.709896 -38.503586 1527.548828
4.960000 0.800000 4.880000 19.585449 -28.360254 1187.893799
4.960000 0.800000 4.920000 23.830872 -14.490250 777.877808
4.960000 0.800000 4.960000 20.742123 -3.341568 441.401733
4.960000 0.800000 5.000000 15.088917 2.558502 234.221344
4.960000 0.800000 5.040000 10.612404 4.891937 136.554169
4.960000 0.800000 5.080000 7.836971 6.521582 103.949142
4.960000 0.800000 5.120000 5.212351 8.672884 102.387520
4.960000 0.800000 5.160000 1.495994 10.575191 114.072678
4.960000 0.800000 5.200000 -3.069798 10.910027 128.452332
4.960000 0.840000 4.800000 16.527416 -23.314405 816.717041
4.960000 0.840000 4.840000 18.743214 1.567196 353.764160
4.960000 0.840000 4.880000 -2.319252 19.576836 388.631439
4.960000 0.840000 4.920000 -31.301266 12.244972 1129.708618
4.960000 0.840000 4.960000 -42.894524 -17.317734 2139.843994
4.960000 0.840000 5.000000 -25.313759 -45.469898 2708.298096
4.960000 0.840000 5.040000 8.297546 -48.966850 2466.601807
4.960000 0.840000 5.080000 31.742290 -25.608818 1663.384521
4.960000 0.840000 5.120000 29.111950 5.085495 873.367859
4.960000 0.840000 5.160000 7.093168 20.675560 477.791809
4.960000 0.840000 5.200000 -14.120617 14.919167 421.973328
4.960000 0.880000 4.800000 17.474407 8.480766 377.278320
4.960000 0.880000 4.840000 -16.395948 38.625038 1760.720703
4.960000 0.880000 4.880000 -73.105820 27.270699 6088.151855
4.960000 0.880000 4.920000 -105.704399 -33.567314 12300.184570
4.960000 0.880000 4.960000 -78.223213 -105.850945 17323.292969
4.960000 0.880000 5.000000 -2.117126 -135.076660 18250.187500
4.960000 0.880000 5.040000 70.063522 -98.455399 14602.363281
4.960000 0.880000 5.080000 89.549599 -25.359444 8662.232422
4.960000 0.880000 5.120000 52.273384 29.664640 3612.497559
4.960000 0.880000 5.160000 -2.299492 34.599098 1202.385376
4.960000 0.880000 5.200000 -30.454815 2.879424 935.786804
4.960000 0.920000 4.800000 -10.214392 26.656708 814.913879
4.960000 0.920000 4.840000 -77.249908 28.311790 6769.105957
4.960000 0.920000 4.880000 -134.697357 -39.717453 19720.855469
4.960000 0.920000 4.920000 -118.866348 -146.988312 35734.773438
4.960000 0.920000 4.960000 -17.920067 -216.028778 46989.562500
4.960000 0.920000 5.000000 107.675827 -188.581223 47156.960938
4.960000 0.920000 5.040000 172.588470 -80.153122 36211.300781
4.960000 0.920000 5.080000 139.509567 31.332436 20444.640625
4.960000 0.920000 5.120000 48.472496 73.089699 7691.686523
4.960000 0.920000 5.160000 -23.791063 36.876827 1925.915039
4.960000 0.920000 5.200000 -32.626102 -24.103230 1645.428223
4.960000 0.960000 4.800000 -42.136906 12.031326 1920.271606
4.960000 0.960000 4.840000 -110.395203 -35.211170 13426.926758
4.960000 0.960000 4.880000 -120.256554 -146.914825 36045.605469
4.960000 0.960000 4.920000 -27.166519 -248.327713 62404.671875
4.960000 0.960000 4.960000 128.413727 -251.286682 79635.078125
4.960000 0.960000 5.000000 244.132629 -136.104477 78125.171875
4.960000 0.960000 5.040000 241.217163 23.548065 58740.230469
4.960000 0.960000 5.080000 132.728485 120.926773 32240.136719
4.960000 0.960000 5.120000 9.313597 106.182800 11361.530273
4.960000 0.960000 5.160000 -42.706638 21.656231 2292.849365
4.960000 0.960000 5.200000 -11.554584 -46.868568 2330.170898
4.960000 1.000000 4.800000 -48.149467 -24.941311 2940.440430
4.960000 1.000000 4.840000 -79.570786 -107.694412 17929.597656
4.960000 1.000000 4.880000 -21.152786 -213.532776 46043.687500
4.960000 1.000000 4.920000 123.564857 -250.002899 77769.726562
4.960000 1.000000 4.960000 267.518127 -161.386993 97611.703125
4.960000 1.000000 5.000000 307.286560 11.374321 94554.406250
4.960000 1.000000 5.040000 213.698929 156.790375 70250.453125
4.960000 1.000000 5.080000 59.176376 185.518494 37918.957031
4.960000 1.000000 5.120000 -45.757847 103.471451 12800.121094
4.960000 1.000000 5.160000 -46.301117 -2.242329 2148.821533
4.960000 1.000000 5.200000 20.236273 -46.721260 2592.383057
4.960000 1.040000 4.800000 -20.486225 -52.951553 3223.552246
4.960000 1.040000 4.840000 -1.936222 -132.449249 17546.550781
4.960000 1.040000 4.880000 97.955643 -184.661499 43695.179688
4.960000 1.040000 4.920000 230.514740 -139.512238 72600.710938
4.960000 1.040000 4.960000 300.256897 3.521164 90166.601562
4.960000 1.040000 5.000000 246.172729 161.573685 86707.062500
4.960000 1.040000 5.040000 99.670380 232.634552 64053.019531
4.960000 1.040000 5.080000 -38.718033 181.183044 34326.382812
4.960000 1.040000 5.120000 -84.177826 65.099007 11323.787109
4.960000 1.040000 5.160000 -34.713882 -20.114777 1609.657837
4.960000 1.040000 5.200000 39.655689 -24.355072 2165.743164
4.960000 1.080000 4.800000 19.162977 -48.483627 2717.881836
4.960000 1.080000 4.840000 65.798615 -91.739273 12745.550781
4.960000 1.080000 4.880000 154.592224 -82.458374 30698.138672
4.960000 1.080000 4.920000 224.065063 5.431076 50234.648438
4.960000 1.080000 4.960000 210.386475 132.763977 61888.742188
4.960000 1.080000 5.000000 106.639824 218.961655 59316.257812
4.960000 1.080000 5.040000 -24.551216 207.971313 43854.828125
4.960000 1.080000 5.080000 -100.693100 116.086502 23615.175781
4.960000 1.080000 5.120000 -86.891724 16.471668 7821.487793
4.960000 1.080000 5.160000 -19.153049 -24.580315 971.031189
4.960000 1.080000 5.200000 34.978943 0.528944 1223.806274
4.960000 1.120000 4.800000 40.237186 -16.475080 1890.459473
4.960000 1.120000 4.840000 78.459557 -21.384527 6613.199707
4.960000 1.120000 4.880000 121.078674 15.006580 14885.242188
4.960000 1.120000 4.920000 127.561401 86.495468 23753.376953
4.960000 1.120000 4.960000 76.553329 152.123718 29002.037109
4.960000 1.120000 5.000000 -10.559174 166.544434 27848.544922
4.960000 1.120000 5.040000 -82.678032 118.445900 20865.087891
4.960000 1.120000 5.080000 -99.347778 41.346146 11579.485352
4.960000 1.120000 5.120000 -62.340473 -14.014162 4082.731445
4.960000 1.120000 5.160000 -10.376833 -20.467701 526.605469
4.960000 1.120000 5.200000 16.245394 8.253273 332.029327
4.960000 1.160000 4.800000 30.795849 16.499655 1220.622925
4.960000 1.160000 4.840000 40.403374 24.745232 2244.759033
4.960000 1.160000 4.880000 43.445877 45.498459 3957.654053
4.960000 1.160000 4.920000 29.035492 70.278290 5782.097656
4.960000 1.160000 4.960000 -3.136795 83.136810 6921.568359
4.960000 1.160000 5.000000 -39.703163 72.348694 6810.674805
4.960000 1.160000 5.040000 -61.774605 40.567749 5461.844238
4.960000 1.160000 5.080000 -58.620140 4.252602 3454.405518
4.960000 1.160000 5.120000 -35.533028 -17.845261 1581.049438
4.960000 1.160000 5.160000 -9.375445 -17.822887 405.554291
4.960000 1.160000 5.200000 4.208509 -2.807743 25.594973
4.960000 1.200000 4.800000 5.340578 28.160034 821.509338
4.960000 1.200000 4.840000 -5.196743 23.507446 579.606201
4.960000 1.200000 4.880000 -8.631905 13.430704 254.893585
4.960000 1.200000 4.920000 -3.340065 6.844316 58.000702
4.960000 1.200000 4.960000 2.957512 9.943062 107.611359
4.960000 1.200000 5.000000 0.362856 18.553444 344.361938
4.960000 1.200000 5.040000 -12.323000 21.058983 595.337036
4.960000 1.200000 5.080000 -24.735619 10.055588 712.965698
4.960000 1.200000 5.120000 -24.240841 -8.898212 666.796509
4.960000 1.200000 5.160000 -8.752916 -21.213753 526.636841
4.960000 1.200000 5.200000 10.035275 -16.809942 383.280884
5.000000 0.800000 4.800000 8.149384 -24.337776 658.739807
5.000000 0.800000 4.840000 17.115135 -19.197128 661.457581
5.000000 0.800000 4.880000 21.716118 -10.435719 580.494019
5.000000 0.800000 4.920000 21.625687 -1.676476 470.480896
5.000000 0.800000 4.960000 18.629082 5.037170 372.415771
5.000000 0.800000 5.000000 14.542061 9.503143 301.781250
5.000000 0.800000 5.040000 10.356636 12.285295 258.188385
5.000000 0.800000 5.080000 6.486923 14.036455 239.102249
5.000000 0.800000 5.120000 2.852020 15.454388 246.972122
5.000000 0.800000 5.160000 -1.307230 16.861948 286.034149
5.000000 0.800000 5.200000 -6.896749 17.439201 351.690887
5.000000 0.840000 4.800000 14.153563 -3.221798 210.703308
5.000000 0.840000 4.840000 1.534035 13.178894 176.036499
5.000000 0.840000 4.880000 -23.094650 11.530037 666.304626
5.000000 0.840000 4.920000 -38.054451 -12.457954 1603.341797
5.000000 0.840000 4.960000 -27.029541 -41.659519 2466.111572
5.000000 0.840000 5.000000 4.522285 -51.982933 2722.676514
5.000000 0.840000 5.040000 33.329018 -34.125160 2275.350098
5.000000 0.840000 5.080000 38.720787 -1.549568 1501.700439
5.000000 0.840000 5.120000 19.743231 22.301067 887.132812
5.000000 0.840000 5.160000 -6.567782 24.256916 631.533691
5.000000 0.840000 5.200000 -22.090836 9.999769 588.000366
5.000000 0.880000 4.800000 -3.242054 13.178526 184.184448
5.000000 0.880000 4.840000 -45.378452 16.170559 2320.690918
5.000000 0.880000 4.880000 -82.383911 -26.119057 7469.313965
5.000000 0.880000 4.920000 -72.259750 -93.831764 14025.872070
5.000000 0.880000 4.960000 -7.771469 -136.368408 18656.738281
5.000000 0.880000 5.000000 71.181122 -116.770119 18702.011719
5.000000 0.880000 5.040000 109.918686 -46.484818 14242.955078
5.000000 0.880000 5.080000 86.114578 23.867886 7985.396484
5.000000 0.880000 5.120000 26.768551 48.874020 3105.225098
5.000000 0.880000 5.160000 -19.587811 25.003355 1008.850098
5.000000 0.880000 5.200000 -26.319931 -13.626772 878.427673
5.000000 0.920000 4.800000 -29.118721 5.141052 874.330322
5.000000 0.920000 4.840000 -82.446312 -30.114672 7704.288086
5.000000 0.920000 4.880000 -90.426872 -117.187576 21909.947266
5.000000 0.920000 4.920000 -16.944969 -196.205475 38783.722656
5.000000 0.920000 4.960000 105.198761 -196.925354 49846.375000
5.000000 0.920000 5.000000 194.336548 -104.962593 48783.839844
5.000000 0.920000 5.040000 189.403793 19.938248 36271.332031
5.000000 0.920000 5.080000 103.084770 93.970383 19456.902344
5.000000 0.920000 5.120000 7.669447 80.522949 6542.765625
5.000000 0.920000 5.160000 -31.102299 15.173315 1197.582520
5.000000 0.920000 5.200000 -7.348406 -35.611237 1322.159180
5.000000 0.960000 4.800000 -37.329929 -24.699074 2003.567871
5.000000 0.960000 4.840000 -66.986771 -98.653267 14219.694336
5.000000 0.960000 4.880000 -13.975220 -195.476288 38406.289062
5.000000 0.960000 4.920000 119.089256 -228.392044 66345.179688
5.000000 0.960000 4.960000 250.675385 -145.667847 84057.265625
5.000000 0.960000 5.000000 285.088928 13.308926 81452.820312
5.000000 0.960000 5.040000 197.552948 144.722519 59971.773438
5.000000 0.960000 5.080000 57.163254 168.255966 31577.707031
5.000000 0.960000 5.120000 -35.182880 93.091560 9903.874023
5.000000 0.960000 5.160000 -33.469448 0.643577 1120.618164
5.000000 0.960000 5.200000 24.148275 -34.699692 1787.207764
5.000000 1.000000 4.800000 -15.607029 -51.619087 2908.109619
5.000000 1.000000 4.840000 1.757900 -135.072723 18247.730469
5.000000 1.000000 4.880000 106.955681 -191.153595 47979.210938
5.000000 1.000000 4.920000 247.783112 -143.059036 81862.359375
5.000000 1.000000 4.960000 320.834991 9.443622 103024.273438
5.000000 1.000000 5.000000 261.634247 176.123413 99471.937500
5.000000 1.000000 5.040000 106.487701 248.466599 73075.281250
5.000000 1.000000 5.080000 -36.292435 192.315704 38302.472656
5.000000 1.000000 5.120000 -79.873459 72.850052 11686.899414
5.000000 1.000000 5.160000 -28.018549 -9.822884 881.528076
5.000000 1.000000 5.200000 42.706856 -9.245071 1909.346802
5.000000 1.040000 4.800000 21.509953 -51.126472 3076.594238
5.000000 1.040000 4.840000 77.212303 -106.979126 17406.273438
5.000000 1.040000 4.880000 188.292191 -97.408150 44942.296875
5.000000 1.040000 4.920000 275.659454 12.102259 76134.593750
5.000000 1.040000 4.960000 257.683472 170.821747 95580.843750
5.000000 1.040000 5.000000 127.563362 275.885162 92385.039062
5.000000 1.040000 5.040000 -33.176380 259.022827 68193.500000
5.000000 1.040000 5.080000 -122.124657 145.452454 36070.847656
5.000000 1.040000 5.120000 -101.597122 28.590202 11139.375000
5.000000 1.040000 5.160000 -22.250519 -13.832047 686.411133
5.000000 1.040000 5.200000 33.126572 18.908674 1454.907715
5.000000 1.080000 4.800000 45.356110 -21.819147 2533.251953
5.000000 1.080000 4.840000 105.852188 -34.588848 12401.074219
5.000000 1.080000 4.880000 175.904404 20.093834 31346.121094
5.000000 1.080000 4.920000 187.853882 132.299637 52792.273438
5.000000 1.080000 4.960000 107.679497 233.943497 66324.429688
5.000000 1.080000 5.000000 -26.986176 252.611984 64541.070312
5.000000 1.080000 5.040000 -133.091232 175.051208 48356.203125
5.000000 1.080000 5.080000 -151.032776 59.450474 26345.257812
5.000000 1.080000 5.120000 -91.975296 -15.636761 8703.962891
5.000000 1.080000 5.160000 -20.612633 -16.810192 707.463135
5.000000 1.080000 5.200000 6.359087 24.959249 663.402100
5.000000 1.120000 4.800000 39.200317 13.755488 1725.878418
5.000000 1.120000 4.840000 74.381912 28.057461 6319.890137
5.000000 1.120000 4.880000 92.115692 81.830383 15181.511719
5.000000 1.120000 4.920000 59.253040 147.512894 25270.976562
5.000000 1.120000 4.960000 -20.725609 177.325989 31874.056641
5.000000 1.120000 5.000000 -104.571342 143.661148 31573.691406
5.000000 1.120000 5.040000 -142.728027 64.645493 24550.328125
5.000000 1.120000 5.080000 -119.554192 -10.049347 14394.194336
5.000000 1.120000 5.120000 -63.490364 -40.124191 5640.977051
5.000000 1.120000 5.160000 -19.380421 -24.497347 975.720703
5.000000 1.120000 5.200000 -10.740049 5.394222 144.446289
5.000000 1.160000 4.800000 12.048962 30.593636 1081.147949
5.000000 1.160000 4.840000 17.768280 42.259766 2101.599609
5.000000 1.160000 4.880000 10.006214 63.220951 4097.013184
5.000000 1.160000 4.920000 -16.996986 78.436935 6441.250488
5.000000 1.160000 4.960000 -54.075874 72.594513 8194.164062
5.000000 1.160000 5.000000 -82.345993 42.762436 8609.488281
5.000000 1.160000 5.040000 -86.786346 1.673370 7534.670410
5.000000 1.160000 5.080000 -66.909973 -31.198330 5450.280273
5.000000 1.160000 5.120000 -36.104973 -43.084995 3159.885742
5.000000 1.160000 5.160000 -11.218632 -35.134670 1360.302734
5.000000 1.160000 5.200000 -1.513378 -18.937449 360.917267
5.000000 1.200000 4.800000 -12.458845 23.216225 694.215942
5.000000 1.200000 4.840000 -17.449919 15.401529 541.706787
5.000000 1.200000 4.880000 -15.977730 7.173403 306.745575
5.000000 1.200000 4.920000 -10.678612 5.043579 139.470428
5.000000 1.200000 4.960000 -9.860569 9.650429 190.361603
5.000000 1.200000 5.000000 -18.695488 12.639236 509.271576
5.000000 1.200000 5.040000 -31.525410 3.931194 1009.305725
5.000000 1.200000 5.080000 -34.865868 -16.786221 1497.406006
5.000000 1.200000 5.120000 -20.229069 -36.704372 1756.426147
5.000000 1.200000 5.160000 5.725796 -40.145355 1644.434326
5.000000 1.200000 5.200000 25.039026 -23.639759 1185.791016
5.040000 0.800000 4.800000 7.159021 -1.895678 54.845181
5.040000 0.800000 4.840000 7.950251 -0.681665 63.671154
5.040000 0.800000 4.880000 9.606741 0.424175 92.469398
5.040000 0.800000 4.920000 12.132044 3.484421 159.327682
5.040000 0.800000 4.960000 12.883961 9.399303 254.343353
5.040000 0.800000 5.000000 9.454269 15.773728 338.193726
5.040000 0.800000 5.040000 2.870438 19.010635 369.643677
5.040000 0.800000 5.080000 -3.207184 18.309120 345.509918
5.040000 0.800000 5.120000 -6.652042 16.481182 315.879028
5.040000 0.800000 5.160000 -9.354548 16.249598 351.556976
5.040000 0.800000 5.200000 -14.592508 16.369061 480.887451
5.040000 0.840000 4.800000 -3.674202 6.051529 50.120762
5.040000 0.840000 4.840000 -18.738934 5.310184 379.345703
5.040000 0.840000 4.880000 -29.847212 -11.510094 1023.338318
5.040000 0.840000 4.920000 -22.632008 -34.827545 1725.165649
5.040000 0.840000 4.960000 2.513359 -45.875412 2110.870361
5.040000 0.840000 5.000000 29.049759 -33.844143 1989.314453
5.040000 0.840000 5.040000 38.265503 -5.995285 1500.192139
5.040000 0.840000 5.080000 25.020515 18.765854 978.183472
5.040000 0.840000 5.120000 0.582382 25.964783 674.509094
5.040000 0.840000 5.160000 -18.646965 15.872460 599.644287
5.040000 0.840000 5.200000 -24.558050 -0.192270 603.134827
5.040000 0.880000 4.800000 -19.874628 -2.023506 399.095428
5.040000 0.880000 4.840000 -46.421135 -22.520683 2662.103027
5.040000 0.880000 4.880000 -47.283035 -69.731445 7098.160156
5.040000 0.880000 4.920000 -4.214836 -109.881500 12091.708984
5.040000 0.880000 4.960000 62.568535 -105.527267 15050.825195
5.040000 0.880000 5.000000 107.837700 -51.608757 14292.433594
5.040000 0.880000 5.040000 100.252167 17.058037 10341.473633
5.040000 0.880000 5.080000 49.514820 55.137825 5491.897461
5.040000 0.880000 5.120000 -3.993532 44.880833 2030.237427
5.040000 0.880000 5.160000 -25.724581 7.125135 712.521606
5.040000 0.880000 5.200000 -13.854687 -22.653976 705.154968
5.040000 0.920000 4.800000 -22.974138 -25.148453 1160.255737
5.040000 0.920000 4.840000 -40.060352 -73.473854 7003.239258
5.040000 0.920000 4.880000 -2.067284 -136.251343 18568.701172
5.040000 0.920000 4.920000 88.492393 -154.688583 31759.462891
5.040000 0.920000 4.960000 175.416718 -94.960388 39788.500000
5.040000 0.920000 5.000000 194.410095 14.127045 37994.859375
5.040000 0.920000 5.040000 131.056488 101.267372 27430.882812
5.040000 0.920000 5.080000 34.455330 113.496811 14068.696289
5.040000 0.920000 5.120000 -27.012379 59.709831 4294.932617
5.040000 0.920000 5.160000 -24.343075 -3.684867 606.163513
5.040000 0.920000 5.200000 14.642608 -27.620077 977.274597
5.040000 0.960000 4.800000 -3.242570 -45.233284 2056.564209
5.040000 0.960000 4.840000 11.095833 -107.640869 11709.673828
5.040000 0.960000 4.880000 93.874069 -149.031387 31022.695312
5.040000 0.960000 4.920000 203.807404 -108.173691 53239.003906
5.040000 0.960000 4.960000 258.437805 14.400684 66997.484375
5.040000 0.960000 5.000000 207.520660 145.641113 64276.156250
5.040000 0.960000 5.040000 82.275192 199.416565 46536.171875
5.040000 0.960000 5.080000 -29.727154 151.044189 23698.050781
5.040000 0.960000 5.120000 -60.920010 55.224079 6760.946289
5.040000 0.960000 5.160000 -17.788914 -8.219002 383.997437
5.040000 0.960000 5.200000 36.727993 -5.472364 1378.892212
5.040000 1.000000 4.800000 28.492908 -42.728485 2637.569336
5.040000 1.000000 4.840000 77.209961 -91.134277 14266.833984
5.040000 1.000000 4.880000 176.780579 -81.130867 37833.589844
5.040000 1.000000 4.920000 254.481110 19.981493 65159.898438
5.040000 1.000000 4.960000 234.881134 164.965210 82382.671875
5.040000 1.000000 5.000000 113.085449 258.298523 79506.445312
5.040000 1.000000 5.040000 -33.646538 238.446167 57988.664062
5.040000 1.000000 5.080000 -111.019920 132.067871 29767.343750
5.040000 1.000000 5.120000 -87.903633 27.350956 8475.124023
5.040000 1.000000 5.160000 -15.252294 -6.345200 272.894012
5.040000 1.000000 5.200000 30.311945 26.201267 1605.320435
5.040000 1.040000 4.800000 48.704994 -15.650803 2617.124023
5.040000 1.040000 4.840000 111.061234 -29.618471 13211.851562
5.040000 1.040000 4.880000 184.998993 28.451775 35034.132812
5.040000 1.040000 4.920000 196.267639 148.519547 60579.039062
5.040000 1.040000 4.960000 108.003654 255.698746 77046.640625
5.040000 1.040000 5.000000 -36.853073 271.413940 75023.671875
5.040000 1.040000 5.040000 -146.740997 184.288422 55495.140625
5.040000 1.040000 5.080000 -159.525269 61.218712 29196.041016
5.040000 1.040000 5.120000 -92.945503 -12.775463 8802.079102
5.040000 1.040000 5.160000 -20.552839 -7.183039 474.015228
5.040000 1.040000 5.200000 -0.459492 37.694168 1421.061523
5.040000 1.080000 4.800000 42.164059 17.318300 2077.731445
5.040000 1.080000 4.840000 89.932793 34.412758 9272.145508
5.040000 1.080000 4.880000 114.812195 105.952103 24407.687500
5.040000 1.080000 4.920000 70.326591 193.392960 42346.664062
5.040000 1.080000 4.960000 -37.145500 230.052704 54304.035156
5.040000 1.080000 5.000000 -145.597504 180.186996 53665.984375
5.040000 1.080000 5.040000 -187.955490 73.628319 40748.394531
5.040000 1.080000 5.080000 -148.995270 -19.002209 22560.673828
5.040000 1.080000 5.120000 -74.514267 -47.124992 7773.140625
5.040000 1.080000 5.160000 -25.970161 -18.844187 1029.552612
5.040000 1.080000 5.200000 -26.772217 16.711878 996.038452
5.040000 1.120000 4.800000 15.564650 33.451385 1361.253540
5.040000 1.120000 4.840000 35.053864 59.132545 4725.431152
5.040000 1.120000 4.880000 22.725151 107.142685 11995.987305
5.040000 1.120000 4.920000 -33.680786 140.101593 20762.851562
5.040000 1.120000 4.960000 -108.175491 123.474945 26948.000000
5.040000 1.120000 5.000000 -155.021515 57.897430 27383.783203
5.040000 1.120000 5.040000 -146.855408 -19.126137 21932.320312
5.040000 1.120000 5.080000 -96.685944 -64.419067 13497.988281
5.040000 1.120000 5.120000 -43.843559 -63.657780 5974.570801
5.040000 1.120000 5.160000 -19.073454 -37.679554 1783.545410
5.040000 1.120000 5.200000 -22.436161 -18.055645 829.387634
5.040000 1.160000 4.800000 -9.729645 26.046879 773.105835
5.040000 1.160000 4.840000 -10.113272 38.824184 1609.595581
5.040000 1.160000 4.880000 -27.362720 51.950027 3447.523926
5.040000 1.160000 4.920000 -57.079891 49.599216 5718.196289
5.040000 1.160000 4.960000 -83.120132 25.274673 7547.765625
5.040000 1.160000 5.000000 -89.889160 -12.467705 8235.504883
5.040000 1.160000 5.040000 -73.699303 -46.629005 7605.851562
5.040000 1.160000 5.080000 -43.953815 -63.986389 6026.195801
5.040000 1.160000 5.120000 -14.879864 -62.482895 4125.522461
5.040000 1.160000 5.160000 3.813154 -49.344765 2449.445801
5.040000 1.160000 5.200000 10.381237 -34.151955 1274.125977
5.040000 1.200000 4.800000 -18.168976 8.192300 397.225464
5.040000 1.200000 4.840000 -19.887596 3.281002 406.281464
5.040000 1.200000 4.880000 -18.725210 -2.032673 354.765228
5.040000 1.200000 4.920000 -16.260204 -4.180756 281.872986
5.040000 1.200000 4.960000 -17.509129 -4.008316 322.636169
5.040000 1.200000 5.000000 -23.765034 -8.231117 632.528137
5.040000 1.200000 5.040000 -27.731216 -22.247581 1263.975342
5.040000 1.200000 5.080000 -18.796074 -41.358925 2063.853027
5.040000 1.200000 5.120000 5.096781 -51.532242 2681.549316
5.040000 1.200000 5.160000 31.691177 -41.735779 2746.206055
5.040000 1.200000 5.200000 43.175613 -16.317270 2130.386719
5.080000 0.800000 4.800000 -11.520807 9.329055 219.760269
5.080000 0.800000 4.840000 -11.800529 1.300762 140.944489
5.080000 0.800000 4.880000 -4.703518 -4.130104 39.180840
5.080000 0.800000 4.920000 4.498360 -1.024746 21.285343
5.080000 0.800000 4.960000 7.388412 8.955400 134.787842
5.080000 0.800000 5.000000 1.031609 17.488888 306.925415
5.080000 0.800000 5.040000 -8.950357 17.998806 404.065918
5.080000 0.800000 5.080000 -14.586388 12.170303 360.878998
5.080000 0.800000 5.120000 -14.085533 7.263902 251.166504
5.080000 0.800000 5.160000 -13.030276 7.317754 223.337616
5.080000 0.800000 5.200000 -16.942467 8.486279 359.064087
5.080000 0.840000 4.800000 -21.551374 -4.059145 480.938385
5.080000 0.840000 4.840000 -24.630514 -16.753513 887.342407
5.080000 0.840000 4.880000 -15.961441 -32.129814 1287.092529
5.080000 0.840000 4.920000 4.041466 -38.124069 1469.778198
5.080000 0.840000 4.960000 24.042923 -27.636803 1341.854980
5.080000 0.840000 5.000000 31.000532 -5.897850 995.817627
5.080000 0.840000 5.040000 21.194016 13.582073 633.658997
5.080000 0.840000 5.080000 2.509609 20.179138 413.495758
5.080000 0.840000 5.120000 -13.254915 13.524130 358.594849
5.080000 0.840000 5.160000 -19.743893 1.138350 391.117126
5.080000 0.840000 5.200000 -18.488285 -9.587156 433.730255
5.080000 0.880000 4.800000 -16.998955 -25.892992 959.411499
5.080000 0.880000 4.840000 -17.180239 -48.407555 2638.451904
5.080000 0.880000 4.880000 6.828815 -72.338036 5279.424316
5.080000 0.880000 4.920000 49.979412 -72.622391 7771.953125
5.080000 0.880000 4.960000 85.401413 -38.461136 8772.660156
5.080000 0.880000 5.000000 86.734322 13.063225 7693.490723
5.080000 0.880000 5.040000 52.150364 49.411114 5161.118652
5.080000 0.880000 5.080000 6.502098 49.900219 2532.309082
5.080000 0.880000 5.120000 -20.390131 21.855791 893.433044
5.080000 0.880000 5.160000 -18.083305 -8.824689 404.881042
5.080000 0.880000 5.200000 -0.034872 -21.879614 478.718719
5.080000 0.920000 4.800000 6.410348 -39.697609 1616.992676
5.080000 0.920000 4.840000 19.265532 -69.363411 5182.443359
5.080000 0.920000 4.880000 66.981216 -85.602913 11814.341797
5.080000 0.920000 4.920000 125.812378 -56.265965 18994.613281
5.080000 0.920000 4.960000 150.488876 15.841324 22897.849609
5.080000 0.920000 5.000000 115.495865 88.369568 21148.476562
5.080000 0.920000 5.040000 41.338089 113.949158 14693.248047
5.080000 0.920000 5.080000 -21.550083 81.514069 7108.949707
5.080000 0.920000 5.120000 -36.423683 24.309278 1917.625732
5.080000 0.920000 5.160000 -9.267862 -12.336605 238.085083
5.080000 0.920000 5.200000 23.200859 -10.833469 655.643921
5.080000 0.960000 4.800000 35.968185 -30.805187 2242.669922
5.080000 0.960000 4.840000 66.796425 -55.575356 7550.382324
5.080000 0.960000 4.880000 128.384201 -44.127159 18429.710938
5.080000 0.960000 4.920000 174.276108 24.693947 30981.953125
5.080000 0.960000 4.960000 155.852142 119.551086 38582.351562
5.080000 0.960000 5.000000 71.386703 177.455078 36586.367188
5.080000 0.960000 5.040000 -26.410492 159.010834 25981.958984
5.080000 0.960000 5.080000 -74.813904 84.376167 12716.457031
5.080000 0.960000 5.120000 -55.108452 14.066660 3234.812256
5.080000 0.960000 5.160000 -4.032646 -6.209997 54.826302
5.080000 0.960000 5.200000 26.164537 17.725985 998.793579
5.080000 1.000000 4.800000 50.497330 -1.228766 2551.489990
5.080000 1.000000 4.840000 92.140808 -8.044281 8554.639648
5.080000 1.000000 4.880000 142.893799 36.481075 21749.507812
5.080000 1.000000 4.920000 147.098709 126.286911 37586.414062
5.080000 1.000000 4.960000 76.570312 204.780563 47798.089844
5.080000 1.000000 5.000000 -35.137100 212.034271 46193.148438
5.080000 1.000000 5.040000 -116.832428 140.788284 33471.156250
5.080000 1.000000 5.080000 -121.589462 44.955914 16805.031250
5.080000 1.000000 5.120000 -66.231445 -8.999332 4467.592285
5.080000 1.000000 5.160000 -10.513945 0.051741 110.545708
5.080000 1.000000 5.200000 1.111765 36.697323 1347.929443
5.080000 1.040000 4.800000 38.680611 29.698631 2378.198486
5.080000 1.040000 4.840000 75.563019 43.956131 7641.911621
5.080000 1.040000 4.880000 94.378761 104.900803 19911.529297
5.080000 1.040000 4.920000 52.855659 179.680786 35078.906250
5.080000 1.040000 4.960000 -43.710045 208.427505 45352.589844
5.080000 1.040000 5.000000 -138.661407 159.390472 44632.308594
5.080000 1.040000 5.040000 -171.304749 61.699738 33152.175781
5.080000 1.040000 5.080000 -130.536926 -18.702848 17389.685547
5.080000 1.040000 5.120000 -62.036747 -37.346306 5243.304688
5.080000 1.040000 5.160000 -22.999870 -6.660517 573.356506
5.080000 1.040000 5.200000 -30.758821 24.166954 1530.146729
5.080000 1.080000 4.800000 9.750313 41.277817 1798.926758
5.080000 1.080000 4.840000 29.390535 66.805504 5326.779297
5.080000 1.080000 4.880000 15.576077 117.285660 13998.540039
5.080000 1.080000 4.920000 -46.475182 151.070892 24982.355469
5.080000 1.080000 4.960000 -126.980721 129.114288 32794.601562
5.080000 1.080000 5.000000 -173.433899 53.924221 32987.136719
5.080000 1.080000 5.040000 -156.773636 -29.064089 25422.693359
5.080000 1.080000 5.080000 -96.791710 -70.735367 14372.126953
5.080000 1.080000 5.120000 -42.027725 -59.958633 5361.367676
5.080000 1.080000 5.160000 -25.102581 -27.706703 1397.801025
5.080000 1.080000 5.200000 -37.822021 -12.446634 1585.423950
5.080000 1.120000 4.800000 -14.619739 29.351959 1075.274292
5.080000 1.120000 4.840000 -12.916006 51.257912 2794.196777
5.080000 1.120000 4.880000 -40.260899 74.590271 7184.648438
5.080000 1.120000 4.920000 -88.861526 70.308838 12839.703125
5.080000 1.120000 4.960000 -127.770126 27.799568 17098.021484
5.080000 1.120000 5.000000 -129.144867 -32.958061 17764.630859
5.080000 1.120000 5.040000 -92.653961 -77.627708 14610.818359
5.080000 1.120000 5.080000 -44.499435 -86.519302 9465.789062
5.080000 1.120000 5.120000 -13.086644 -68.443878 4855.824707
5.080000 1.120000 5.160000 -5.990816 -47.903366 2330.622314
5.080000 1.120000 5.200000 -9.389997 -40.840019 1756.079224
5.080000 1.160000 4.800000 -19.938831 8.723595 473.658112
5.080000 1.160000 4.840000 -26.646664 17.923325 1031.290283
5.080000 1.160000 4.880000 -45.304951 17.902393 2373.034180
5.080000 1.160000 4.920000 -63.677933 0.850990 4055.603271
5.080000 1.160000 4.960000 -68.114586 -27.922249 5419.248535
5.080000 1.160000 5.000000 -54.500290 -54.918327 5986.304199
5.080000 1.160000 5.040000 -29.812553 -69.433418 5709.788086
5.080000 1.160000 5.080000 -4.624004 -69.849289 4900.304688
5.080000 1.160000 5.120000 14.605059 -61.030556 3938.036621
5.080000 1.160000 5.160000 26.718153 -48.136642 3030.995850
5.080000 1.160000 5.200000 32.264427 -34.095173 2203.474121
5.080000 1.200000 4.800000 -10.827498 -2.312509 122.582420
5.080000 1.200000 4.840000 -15.134901 -4.862955 252.713562
5.080000 1.200000 4.880000 -16.076172 -11.719955 395.800659
5.080000 1.200000 4.920000 -12.649300 -17.479904 465.551819
5.080000 1.200000 4.960000 -9.306694 -20.299332 498.677429
5.080000 1.200000 5.000000 -8.298645 -24.592337 673.650513
5.080000 1.200000 5.040000 -4.422195 -34.147743 1185.624146
5.080000 1.200000 5.080000 9.710033 -44.002262 2030.483887
5.080000 1.200000 5.120000 32.763252 -42.512375 2880.732666
5.080000 1.200000 5.160000 51.622799 -23.696701 3226.447021
5.080000 1.200000 5.200000 52.312630 3.412041 2748.253418
5.120000 0.800000 4.800000 -31.329437 -0.117326 981.547424
5.120000 0.800000 4.840000 -24.129066 -14.417969 790.089661
5.120000 0.800000 4.880000 -7.985800 -18.636660 411.098083
5.120000 0.800000 4.920000 4.985214 -9.045197 106.667961
5.120000 0.800000 4.960000 4.856730 5.764162 56.813385
5.120000 0.800000 5.000000 -6.253633 12.899727 205.510895
5.120000 0.800000 5.040000 -16.637108 7.827457 338.062439
5.120000 0.800000 5.080000 -17.278095 -1.914183 302.196655
5.120000 0.800000 5.120000 -10.634013 -5.741562 146.047775
5.120000 0.800000 5.160000 -6.600564 -1.643784 46.269466
5.120000 0.800000 5.200000 -10.645599 2.402543 119.101006
5.120000 0.840000 4.800000 -23.592403 -25.313282 1197.363770
5.120000 0.840000 4.840000 -10.819532 -35.463467 1374.719727
5.120000 0.840000 4.880000 7.865355 -35.246490 1304.178833
5.120000 0.840000 4.920000 22.392429 -22.191774 993.895752
5.120000 0.840000 4.960000 24.115019 -3.394314 593.055481
5.120000 0.840000 5.000000 13.450077 9.870079 278.323029
5.120000 0.840000 5.040000 -0.847836 11.476545 132.429916
5.120000 0.840000 5.080000 -9.804905 4.456972 116.000763
5.120000 0.840000 5.120000 -11.242672 -3.702185 140.103851
5.120000 0.840000 5.160000 -9.110559 -8.621990 157.341003
5.120000 0.840000 5.200000 -7.281542 -11.541523 186.227615
5.120000 0.880000 4.800000 4.565442 -38.643684 1514.177612
5.120000 0.880000 4.840000 19.631659 -43.051090 2238.798340
5.120000 0.880000 4.880000 40.540703 -37.134617 3022.528320
5.120000 0.880000 4.920000 56.497810 -15.957767 3446.653076
5.120000 0.880000 4.960000 55.086014 13.308323 3211.580566
5.120000 0.880000 5.000000 34.262726 34.684372 2376.939941
5.120000 0.880000 5.040000 5.962261 36.072052 1336.741577
5.120000 0.880000 5.080000 -12.941399 19.346092 541.751099
5.120000 0.880000 5.120000 -14.025310 -1.776872 199.866577
5.120000 0.880000 5.160000 -2.600221 -13.787096 196.845169
5.120000 0.880000 5.200000 9.249076 -13.679223 272.666534
5.120000 0.920000 4.800000 36.856396 -25.438200 2005.495850
5.120000 0.920000 4.840000 51.440186 -24.489407 3245.823730
5.120000 0.920000 4.880000 72.315857 -10.027257 5330.128906
5.120000 0.920000 4.920000 82.631294 23.315939 7371.563477
5.120000 0.920000 4.960000 66.078468 61.450592 8142.539062
5.120000 0.920000 5.000000 25.438198 79.776329 7011.364746
5.120000 0.920000 5.040000 -15.847382 65.160492 4497.029297
5.120000 0.920000 5.080000 -32.630608 29.128220 1913.209717
5.120000 0.920000 5.120000 -19.643385 -1.674526 388.666626
5.120000 0.920000 5.160000 5.403880 -8.887534 108.190186
5.120000 0.920000 5.200000 19.848984 3.194656 404.187988
5.120000 0.960000 4.800000 49.661255 9.461937 2555.768555
5.120000 0.960000 4.840000 62.041542 14.650803 4063.798828
5.120000 0.960000 4.880000 77.047150 38.654701 7430.449219
5.120000 0.960000 4.920000 71.088272 79.867256 11432.321289
5.120000 0.960000 4.960000 31.752298 112.905884 13755.946289
5.120000 0.960000 5.000000 -24.340767 110.139862 12723.261719
5.120000 0.960000 5.040000 -62.284573 69.509682 8710.963867
5.120000 0.960000 5.080000 -59.732746 19.349701 3942.411865
5.120000 0.960000 5.120000 -27.172773 -6.351902 778.706299
5.120000 0.960000 5.160000 3.093710 1.940051 13.334839
5.120000 0.960000 5.200000 8.012477 23.708698 626.302124
5.120000 1.000000 4.800000 32.179607 42.853714 2871.967773
5.120000 1.000000 4.840000 41.240265 51.146019 4316.674805
5.120000 1.000000 4.880000 43.908974 80.239502 8366.375000
5.120000 1.000000 4.920000 17.166233 115.857056 13717.537109
5.120000 1.000000 4.960000 -37.713367 126.224892 17355.021484
5.120000 1.000000 5.000000 -89.653534 93.408997 16762.996094
5.120000 1.000000 5.040000 -104.032158 34.478657 12011.466797
5.120000 1.000000 5.080000 -75.339691 -11.345057 5804.779297
5.120000 1.000000 5.120000 -32.527565 -18.124437 1386.537720
5.120000 1.000000 5.160000 -10.977608 4.394512 139.819611
5.120000 1.000000 5.200000 -19.700968 23.758514 952.595093
5.120000 1.040000 4.800000 -2.936258 51.735920 2685.227051
5.120000 1.040000 4.840000 1.783144 61.840744 3827.457275
5.120000 1.040000 4.880000 -9.590057 86.983368 7658.075684
5.120000 1.040000 4.920000 -49.105999 103.109322 13042.931641
5.120000 1.040000 4.960000 -99.531670 84.400726 17030.035156
5.120000 1.040000 5.000000 -126.355782 31.779259 16975.705078
5.120000 1.040000 5.040000 -110.124542 -23.668030 12687.590820
5.120000 1.040000 5.080000 -65.960526 -47.974186 6652.313477
5.120000 1.040000 5.120000 -29.445036 -35.228519 2108.058594
5.120000 1.040000 5.160000 -22.902447 -10.641325 637.759888
5.120000 1.040000 5.200000 -36.620113 -3.282991 1351.810791
5.120000 1.080000 4.800000 -29.813963 33.028252 1979.737793
5.120000 1.080000 4.840000 -30.256908 43.025478 2766.672363
5.120000 1.080000 4.880000 -50.133362 56.033524 5653.109863
5.120000 1.080000 4.920000 -85.956055 49.176643 9806.785156
5.120000 1.080000 4.960000 -113.463020 12.760742 13036.694336
5.120000 1.080000 5.000000 -109.536240 -36.663292 13342.384766
5.120000 1.080000 5.040000 -75.079163 -69.557045 10475.063477
5.120000 1.080000 5.080000 -34.845123 -70.279617 6153.407227
5.120000 1.080000 5.120000 -14.031363 -50.292641 2726.228760
5.120000 1.080000 5.160000 -15.729453 -34.540890 1440.488770
5.120000 1.080000 5.200000 -21.871426 -36.099678 1781.546021
5.120000 1.120000 4.800000 -31.870792 5.594097 1047.041382
5.120000 1.120000 4.840000 -37.415096 12.735951 1562.093872
5.120000 1.120000 4.880000 -56.104313 11.644632 3283.291260
5.120000 1.120000 4.920000 -74.828903 -8.467968 5671.071289
5.120000 1.120000 4.960000 -76.147896 -41.777496 7543.861328
5.120000 1.120000 5.000000 -54.986252 -69.828026 7899.440918
5.120000 1.120000 5.040000 -23.474283 -78.097633 6650.282227
5.120000 1.120000 5.080000 0.770668 -68.195847 4651.267090
5.120000 1.120000 5.120000 10.424901 -53.863403 3009.944580
5.120000 1.120000 5.160000 12.277010 -46.150948 2280.634766
5.120000 1.120000 5.200000 16.779753 -43.901752 2208.924072
5.120000 1.160000 4.800000 -15.514710 -7.814327 301.769958
5.120000 1.160000 4.840000 -24.256653 -6.555775 631.363403
5.120000 1.160000 4.880000 -33.887318 -16.772320 1429.661011
5.120000 1.160000 4.920000 -33.921120 -34.876377 2367.003906
5.120000 1.160000 4.960000 -21.732988 -50.487137 3021.273682
5.120000 1.160000 5.000000 -3.807087 -56.410461 3196.634033
5.120000 1.160000 5.040000 11.967947 -53.848083 3042.847900
5.120000 1.160000 5.080000 23.499357 -48.167114 2872.290527
5.120000 1.160000 5.120000 33.526299 -41.510784 2847.157715
5.120000 1.160000 5.160000 42.985729 -31.411057 2834.427490
5.120000 1.160000 5.200000 47.960331 -16.466055 2571.324219
5.120000 1.200000 4.800000 -1.914127 -1.429681 5.707870
5.120000 1.200000 4.840000 -9.652712 -7.790078 153.860168
5.120000 1.200000 4.880000 -8.053354 -19.104141 429.824707
5.120000 1.200000 4.920000 1.575233 -25.259357 640.516541
5.120000 1.200000 4.960000 10.470875 -23.712484 671.921143
5.120000 1.200000 5.000000 14.004120 -21.113646 641.901428
5.120000 1.200000 5.040000 17.390631 -23.223751 841.776611
5.120000 1.200000 5.080000 28.174484 -25.778688 1458.342285
5.120000 1.200000 5.120000 44.413696 -18.384638 2310.571289
5.120000 1.200000 5.160000 53.681831 2.164219 2886.422852
5.120000 1.200000 5.200000 45.832779 25.022678 2726.778076
5.160000 0.800000 4.800000 -35.578583 -22.046680 1751.891724
5.160000 0.800000 4.840000 -18.606586 -33.914356 1496.388672
5.160000 0.800000 4.880000 2.052699 -29.799131 892.201782
5.160000 0.800000 4.920000 11.871319 -12.937963 308.319092
5.160000 0.800000 4.960000 5.588927 2.468930 37.331726
5.160000 0.800000 5.000000 -7.706760 4.645070 80.970833
5.160000 0.800000 5.040000 -13.891285 -4.715131 215.200272
5.160000 0.800000 5.080000 -7.859409 -13.217335 236.468246
5.160000 0.800000 5.120000 2.328196 -11.222981 131.375809
5.160000 0.800000 5.160000 5.126183 -1.488509 28.493410
5.160000 0.800000 5.200000 -1.910663 4.897418 27.635342
5.160000 0.840000 4.800000 -8.041550 -40.238750 1683.823486
5.160000 0.840000 4.840000 11.227240 -37.179943 1508.399048
5.160000 0.840000 4.880000 23.900810 -21.605965 1038.066406
5.160000 0.840000 4.920000 22.280304 -2.640834 503.385956
5.160000 0.840000 4.960000 9.172059 7.738314 144.008179
5.160000 0.840000 5.000000 -4.293564 4.875862 42.208721
5.160000 0.840000 5.040000 -8.564984 -5.119796 99.571266
5.160000 0.840000 5.080000 -3.571566 -11.986538 156.433167
5.160000 0.840000 5.120000 2.963546 -11.075211 131.442886
5.160000 0.840000 5.160000 4.361320 -6.425843 60.312569
5.160000 0.840000 5.200000 1.401305 -4.821419 25.209740
5.160000 0.880000 4.800000 27.690142 -30.087086 1671.976685
5.160000 0.880000 4.840000 36.789188 -14.881222 1574.895142
5.160000 0.880000 4.880000 35.542370 2.927854 1271.832397
5.160000 0.880000 4.920000 24.381672 15.926799 848.128845
5.160000 0.880000 4.960000 9.014601 18.841948 436.282013
5.160000 0.880000 5.000000 -2.776499 12.022233 152.243027
5.160000 0.880000 5.040000 -6.079399 1.123364 38.221043
5.160000 0.880000 5.080000 -1.714826 -7.015823 52.162407
5.160000 0.880000 5.120000 5.301567 -9.008209 109.254448
5.160000 0.880000 5.160000 10.102602 -6.340767 142.267899
5.160000 0.880000 5.200000 11.336432 -2.887623 136.853043
5.160000 0.920000 4.800000 44.649193 6.428421 2034.875000
5.160000 0.920000 4.840000 37.782455 22.016357 1912.233887
5.160000 0.920000 4.880000 25.648428 31.715782 1663.732666
5.160000 0.920000 4.920000 11.500628 34.824131 1344.984497
5.160000 0.920000 4.960000 -1.974822 31.112366 971.879211
5.160000 0.920000 5.000000 -11.249851 21.101727 571.842041
5.160000 0.920000 5.040000 -12.656859 8.084652 225.557678
5.160000 0.920000 5.080000 -5.660053 -1.837426 35.412338
5.160000 0.920000 5.120000 5.045923 -3.571707 38.218430
5.160000 0.920000 5.160000 12.187160 2.422058 154.393219
5.160000 0.920000 5.200000 11.841154 10.016659 240.546387
5.160000 0.960000 4.800000 27.421450 44.705887 2750.552246
5.160000 0.960000 4.840000 10.193611 48.985382 2503.477295
5.160000 0.960000 4.880000 -3.587553 46.464207 2171.793213
5.160000 0.960000 4.920000 -14.321464 41.369537 1916.542969
5.160000 0.960000 4.960000 -23.673140 33.311485 1670.072510
5.160000 0.960000 5.000000 -29.169880 20.528307 1272.293213
5.160000 0.960000 5.040000 -26.022131 6.027822 713.485962
5.160000 0.960000 5.080000 -14.225517 -2.355936 207.915771
5.160000 0.960000 5.120000 -1.582692 0.573322 2.833613
5.160000 0.960000 5.160000 2.485149 10.742346 121.573959
5.160000 0.960000 5.200000 -3.526229 17.620710 322.923737
5.160000 1.000000 4.800000 -12.772720 56.654285 3372.850342
5.160000 1.000000 4.840000 -28.293537 47.175964 3026.095703
5.160000 1.000000 4.880000 -35.698902 36.496212 2606.385254
5.160000 1.000000 4.920000 -40.414764 27.778286 2404.986328
5.160000 1.000000 4.960000 -44.825073 17.466839 2314.377686
5.160000 1.000000 5.000000 -44.624256 3.460271 2003.297729
5.160000 1.000000 5.040000 -35.411255 -8.955967 1334.166382
5.160000 1.000000 5.080000 -20.862070 -11.657482 571.122864
5.160000 1.000000 5.120000 -11.350920 -3.710542 142.611511
5.160000 1.000000 5.160000 -13.346729 5.572344 209.186188
5.160000 1.000000 5.200000 -21.559422 5.602428 496.195862
5.160000 1.040000 4.800000 -46.208641 34.874542 3351.472168
5.160000 1.040000 4.840000 -51.845345 19.338978 3061.935791
5.160000 1.040000 4.880000 -51.590111 7.875143 2723.557373
5.160000 1.040000 4.920000 -51.293388 -0.979404 2631.970947
5.160000 1.040000 4.960000 -50.234623 -11.699045 2660.385010
5.160000 1.040000 5.000000 -43.464012 -23.421005 2437.663818
5.160000 1.040000 5.040000 -30.377293 -29.516693 1794.015137
5.160000 1.040000 5.080000 -18.099012 -25.869040 996.781494
5.160000 1.040000 5.120000 -14.533694 -17.480682 516.802490
5.160000 1.040000 5.160000 -18.840790 -14.366035 561.358337
5.160000 1.040000 5.200000 -21.195496 -20.432602 866.740234
5.160000 1.080000 4.800000 -50.070324 -0.838094 2507.739746
5.160000 1.080000 4.840000 -47.756371 -12.722172 2442.524658
5.160000 1.080000 4.880000 -44.137970 -21.131863 2394.716064
5.160000 1.080000 4.920000 -40.421249 -29.271456 2490.695557
5.160000 1.080000 4.960000 -33.678097 -37.929138 2572.833740
5.160000 1.080000 5.000000 -22.466915 -43.321831 2381.543213
5.160000 1.080000 5.040000 -10.697735 -41.859436 1866.653931
5.160000 1.080000 5.080000 -4.217381 -35.732700 1294.612183
5.160000 1.080000 5.120000 -3.801704 -31.711987 1020.103027
5.160000 1.080000 5.160000 -3.329650 -33.634895 1142.392700
5.160000 1.080000 5.200000 3.694371 -37.213070 1398.461060
5.160000 1.120000 4.800000 -27.856829 -21.582754 1241.818237
5.160000 1.120000 4.840000 -25.907097 -27.420553 1423.064453
5.160000 1.120000 4.880000 -22.713516 -34.716373 1721.130371
5.160000 1.120000 4.920000 -15.484209 -42.118271 2013.709473
5.160000 1.120000 4.960000 -4.388964 -45.575394 2096.379395
5.160000 1.120000 5.000000 6.264441 -42.961468 1884.930908
5.160000 1.120000 5.040000 12.186759 -37.215324 1533.497437
5.160000 1.120000 5.080000 14.050943 -33.633114 1328.615479
5.160000 1.120000 5.120000 17.058262 -33.808346 1433.988525
5.160000 1.120000 5.160000 24.964142 -33.277439 1730.596313
5.160000 1.120000 5.200000 35.011452 -26.092798 1906.635864
5.160000 1.160000 4.800000 -4.388231 -15.347904 254.814743
5.160000 1.160000 4.840000 -7.761646 -21.420780 519.092957
5.160000 1.160000 4.880000 -3.686489 -31.144993 983.600769
5.160000 1.160000 4.920000 7.926842 -36.068455 1363.768311
5.160000 1.160000 4.960000 19.617790 -32.151897 1418.602173
5.160000 1.160000 5.000000 24.610302 -24.089226 1185.957764
5.160000 1.160000 5.040000 24.298458 -19.632689 975.857483
5.160000 1.160000 5.080000 26.217205 -20.306627 1099.700928
5.160000 1.160000 5.120000 34.585266 -19.361170 1570.995483
5.160000 1.160000 5.160000 44.377220 -9.687791 2063.190918
5.160000 1.160000 5.200000 46.098938 7.203424 2177.001465
5.160000 1.200000 4.800000 -1.386618 3.757772 16.043560
5.160000 1.200000 4.840000 -5.835358 -9.678596 127.726631
5.160000 1.200000 4.880000 3.787647 -21.108765 459.926239
5.160000 1.200000 4.920000 18.515419 -20.144590 748.625244
5.160000 1.200000 4.960000 25.811501 -9.870031 763.651123
5.160000 1.200000 5.000000 23.453537 -2.013771 554.123718
5.160000 1.200000 5.040000 20.886005 -2.522740 442.589447
5.160000 1.200000 5.080000 26.703905 -4.538553 733.697021
5.160000 1.200000 5.120000 37.165726 2.903607 1389.722046
5.160000 1.200000 5.160000 39.630898 20.644285 1996.794556
5.160000 1.200000 5.200000 27.311689 36.677544 2091.170654
5.200000 0.800000 4.800000 -21.959141 -39.085281 2009.863037
5.200000 0.800000 4.840000 -0.968803 -42.061180 1770.081421
5.200000 0.800000 4.880000 16.193884 -29.626364 1139.963379
5.200000 0.800000 4.920000 18.868374 -10.761283 471.820740
5.200000 0.800000 4.960000 8.599417 0.595712 74.304840
5.200000 0.800000 5.000000 -2.330663 -1.615749 8.042635
5.200000 0.800000 5.040000 -2.892354 -10.310433 114.670753
5.200000 0.800000 5.080000 6.221410 -13.026064 208.384293
5.200000 0.800000 5.120000 14.200644 -4.655721 223.334045
5.200000 0.800000 5.160000 11.759405 7.903069 200.742126
5.200000 0.800000 5.200000 0.517081 13.525311 183.201431
5.200000 0.840000 4.800000 12.007078 -38.544193 1629.824707
5.200000 0.840000 4.840000 24.963377 -24.275097 1212.450439
5.200000 0.840000 4.880000 24.143230 -5.668672 615.029419
5.200000 0.840000 4.920000 11.331825 4.970235 153.113495
5.200000 0.840000 4.960000 -2.377674 1.828317 8.996074
5.200000 0.840000 5.000000 -6.077969 -9.459034 126.415024
5.200000 0.840000 5.040000 1.603290 -17.216358 298.973511
5.200000 0.840000 5.080000 12.149174 -14.358032 353.755493
5.200000 0.840000 5.120000 15.782422 -4.098701 265.884186
5.200000 0.840000 5.160000 10.369034 4.354175 126.475700
5.200000 0.840000 5.200000 2.148480 5.101933 30.645683
5.200000 0.880000 4.800000 35.022034 -9.077155 1308.937622
5.200000 0.880000 4.840000 27.126797 10.044560 836.756287
5.200000 0.880000 4.880000 8.551945 17.088650 365.157715
5.200000 0.880000 4.920000 -7.638256 8.457035 129.864395
5.200000 0.880000 4.960000 -10.831688 -7.909072 179.878876
5.200000 0.880000 5.000000 -0.859107 -19.403084 377.217743
5.200000 0.880000 5.040000 13.084560 -18.839439 526.130188
5.200000 0.880000 5.080000 20.874718 -8.980986 516.411926
5.200000 0.880000 5.120000 19.256184 1.613020 373.402435
5.200000 0.880000 5.160000 12.540060 6.514078 199.686325
5.200000 0.880000 5.200000 7.058293 5.719185 82.528580
5.200000 0.920000 4.800000 26.048946 30.102943 1584.734863
5.200000 0.920000 4.840000 -0.379499 34.997185 1224.947021
5.200000 0.920000 4.880000 -21.500423 19.197697 830.819763
5.200000 0.920000 4.920000 -23.908663 -5.604473 603.034241
5.200000 0.920000 4.960000 -8.560291 -22.515717 580.236084
5.200000 0.920000 5.000000 11.793477 -22.667633 652.907715
5.200000 0.920000 5.040000 24.015720 -10.097048 678.705200
5.200000 0.920000 5.080000 23.943123 4.312550 591.871216
5.200000 0.920000 5.120000 16.463795 12.489923 427.054749
5.200000 0.920000 5.160000 8.764755 13.634777 262.728088
5.200000 0.920000 5.200000 4.407558 11.474615 151.093353
5.200000 0.960000 4.800000 -11.455194 48.907719 2523.186279
5.200000 0.960000 4.840000 -39.168144 29.470097 2402.630127
5.200000 0.960000 4.880000 -44.063675 -3.818913 1956.191528
5.200000 0.960000 4.920000 -24.436560 -28.910038 1432.935791
5.200000 0.960000 4.960000 4.254483 -31.820305 1030.632446
5.200000 0.960000 5.000000 23.408840 -15.775692 796.846252
5.200000 0.960000 5.040000 25.239494 4.795511 660.028992
5.200000 0.960000 5.080000 15.142540 17.452213 533.876282
5.200000 0.960000 5.120000 3.373743 19.459850 390.067902
5.200000 0.960000 5.160000 -3.826895 15.404734 251.950943
5.200000 0.960000 5.200000 -6.093723 10.401525 145.325195
5.200000 1.000000 4.800000 -50.108772 32.065479 3539.083984
5.200000 1.000000 4.840000 -60.636814 -4.053901 3693.257324
5.200000 1.000000 4.880000 -42.206619 -36.851959 3139.465576
5.200000 1.000000 4.920000 -7.913786 -46.248184 2201.522461
5.200000 1.000000 4.960000 19.722618 -30.319214 1308.236328
5.200000 1.000000 5.000000 26.669334 -3.973831 727.044739
5.200000 1.000000 5.040000 15.423653 15.184504 468.458221
5.200000 1.000000 5.080000 -1.356981 19.592865 385.721771
5.200000 1.000000 5.120000 -12.737423 13.145956 335.058105
5.200000 1.000000 5.160000 -15.599773 3.872402 258.348419
5.200000 1.000000 5.200000 -12.401587 -2.821584 161.760681
5.200000 1.040000 4.800000 -61.358383 -6.783821 3810.871338
5.200000 1.040000 4.840000 -50.072685 -40.986870 4187.197266
5.200000 1.040000 4.880000 -17.889805 -57.703331 3649.719482
5.200000 1.040000 4.920000 14.983736 -47.797173 2509.082275
5.200000 1.040000 4.960000 29.747604 -20.830318 1318.822144
5.200000 1.040000 5.000000 22.292107 4.313868 515.547485
5.200000 1.040000 5.040000 3.145998 14.182135 211.030258
5.200000 1.040000 5.080000 -13.138451 8.233135 240.403397
5.200000 1.040000 5.120000 -18.359268 -4.792264 360.028503
5.200000 1.040000 5.160000 -13.200649 -15.359252 410.163757
5.200000 1.040000 5.200000 -3.254969 -18.506485 353.084808
5.200000 1.080000 4.800000 -40.224388 -36.835457 2974.852051
5.200000 1.080000 4.840000 -18.688896 -55.859451 3469.553223
5.200000 1.080000 4.880000 10.802916 -55.342827 3179.531250
5.200000 1.080000 4.920000 31.266008 -35.751095 2255.704102
5.200000 1.080000 4.960000 32.385384 -10.111843 1151.062500
5.200000 1.080000 5.000000 17.234926 6.071442 333.905090
5.200000 1.080000 5.040000 -1.413019 5.582575 33.161770
5.200000 1.080000 5.080000 -10.996475 -7.096841 171.287628
5.200000 1.080000 5.120000 -7.097968 -20.844902 484.891113
5.200000 1.080000 5.160000 5.515319 -26.149757 714.228577
5.200000 1.080000 5.200000 17.757523 -20.417149 732.189575
5.200000 1.120000 4.800000 -8.756986 -37.528816 1485.096802
5.200000 1.120000 4.840000 7.643745 -43.752037 1972.667603
5.200000 1.120000 4.880000 25.933273 -37.340981 2066.883545
5.200000 1.120000 4.920000 35.605034 -20.141594 1673.402222
5.200000 1.120000 4.960000 30.998251 -2.064677 965.154419
5.200000 1.120000 5.000000 16.383255 5.770023 301.704193
5.200000 1.120000 5.040000 3.338336 -0.318542 11.245956
5.200000 1.120000 5.080000 1.918953 -13.464851 184.984589
5.200000 1.120000 5.120000 12.774448 -21.647482 631.799988
5.200000 1.120000 5.160000 26.922705 -17.305225 1024.302856
5.200000 1.120000 5.200000 33.367199 -2.978716 1122.242798
5.200000 1.160000 4.800000 5.255238 -15.953897 282.144348
5.200000 1.160000 4.840000 11.974081 -22.179144 635.293030
5.200000 1.160000 4.880000 24.019577 -20.635893 1002.780151
5.200000 1.160000 4.920000 31.928947 -9.289980 1105.761475
5.200000 1.160000 4.960000 28.605408 4.088946 834.988831
5.200000 1.160000 5.000000 17.333626 8.817410 378.201294
5.200000 1.160000 5.040000 9.485020 2.214822 94.871033
5.200000 1.160000 5.080000 13.343238 -6.956266 226.431625
5.200000 1.160000 5.120000 25.419069 -6.866928 693.283813
5.200000 1.160000 5.160000 33.583530 5.507813 1158.189575
5.200000 1.160000 5.200000 29.045502 21.347374 1299.351562
5.200000 1.200000 4.800000 -6.147255 2.033743 41.924850
5.200000 1.200000 4.840000 -0.230204 -12.680868 160.857407
5.200000 1.200000 4.880000 15.729549 -15.637972 491.964905
5.200000 1.200000 4.920000 27.033667 -4.375576 749.964844
5.200000 1.200000 4.960000 24.701172 9.789664 705.985413
5.200000 1.200000 5.000000 14.356326 14.280061 410.024231
5.200000 1.200000 5.040000 9.073463 8.690607 157.854385
5.200000 1.200000 5.080000 14.409426 4.339144 226.459717
5.200000 1.200000 5.120000 22.360783 10.752188 615.614136
5.200000 1.200000 5.160000 20.866087 24.564209 1038.793945
5.200000 1.200000 5.200000 7.717538 33.329124 1170.390991
