#kx 	ky 	kz 	real 	imag 	intensity
4.800000 0.800000 4.983333 -59.793571 -36.972183 4942.213867
4.800000 0.800000 4.991667 -45.103062 -20.139742 2439.895264
4.800000 0.800000 5.000000 16.783876 -80.703751 6794.793945
4.800000 0.800000 5.008333 10.820539 39.397095 1669.215210
4.800000 0.800000 5.016667 -50.020168 -39.430450 4056.777832
4.800000 0.900000 4.983333 15.231977 -14.661989 446.987061
4.800000 0.900000 4.991667 38.369812 52.283058 4205.760742
4.800000 0.900000 5.000000 -46.481606 51.420593 4804.617188
4.800000 0.900000 5.008333 -52.616322 -9.750318 2863.545898
4.800000 0.900000 5.016667 0.072189 -66.492599 4421.270996
4.800000 1.000000 4.983333 8.340790 -1.963274 73.423218
4.800000 1.000000 4.991667 -53.422501 35.049770 4082.450195
4.800000 1.000000 5.000000 -22.315693 -55.285553 3554.482666
4.800000 1.000000 5.008333 11.897339 -21.495018 603.582458
4.800000 1.000000 5.016667 77.202667 31.717466 6966.249512
4.800000 1.100000 4.983333 8.500885 18.135349 401.155945
4.800000 1.100000 4.991667 43.009224 31.876776 2865.922119
4.800000 1.100000 5.000000 -64.024567 88.209389 11880.041016
4.800000 1.100000 5.008333 -32.478397 -26.229729 1742.844971
4.800000 1.100000 5.016667 -103.686752 85.993835 18145.882812
4.800000 1.200000 4.983333 7.784679 -8.926296 140.279999
4.800000 1.200000 4.991667 -47.446617 117.645058 16091.541016
4.800000 1.200000 5.000000 -148.734756 -134.303879 40159.558594
4.800000 1.200000 5.008333 81.681358 -59.651081 10230.095703
4.800000 1.200000 5.016667 -49.448784 -104.971916 13464.285156
4.900000 0.800000 4.983333 -98.832748 16.091312 10026.842773
4.900000 0.800000 4.991667 -61.827881 -175.525055 34631.730469
4.900000 0.800000 5.000000 96.566582 42.387661 11121.818359
4.900000 0.800000 5.008333 -163.155670 -44.837421 28630.167969
4.900000 0.800000 5.016667 77.197655 -119.421417 20220.953125
4.900000 0.900000 4.983333 167.875626 -543.631287 323717.187500
4.900000 0.900000 4.991667 -243.271744 724.783997 584492.937500
4.900000 0.900000 5.000000 -1087.186035 -664.212402 1623151.625000
4.900000 0.900000 5.008333 193.199539 -895.158691 838635.125000
4.900000 0.900000 5.016667 382.816132 -463.221313 361122.187500
4.900000 1.000000 4.983333 847.318604 178.997574 749988.937500
4.900000 1.000000 4.991667 -1247.979126 -247.850769 1618881.875000
4.900000 1.000000 5.000000 770.225464 -1749.709717 3654731.250000
4.900000 1.000000 5.008333 1219.664429 39.856262 1489169.875000
4.900000 1.000000 5.016667 840.986206 389.948334 859317.500000
4.900000 1.100000 4.983333 6.288311 580.480713 336997.375000
4.900000 1.100000 4.991667 -57.271210 -725.330200 529383.875000
4.900000 1.100000 5.000000 1062.497559 201.413757 1169468.500000
4.900000 1.100000 5.008333 168.401169 702.106079 521311.875000
4.900000 1.100000 5.016667 -195.844894 570.645874 363991.937500
4.900000 1.200000 4.983333 -13.736584 128.427948 16682.431641
4.900000 1.200000 4.991667 -202.757614 -109.966850 53203.355469
4.900000 1.200000 5.000000 171.575058 -148.488159 51486.734375
4.900000 1.200000 5.008333 13.087458 130.783630 17275.638672
4.900000 1.200000 5.016667 -9.671417 -84.411972 7218.916992
5.000000 0.800000 4.983333 -120.805519 -157.675186 39455.437500
5.000000 0.800000 4.991667 210.418488 -130.907227 61412.640625
5.000000 0.800000 5.000000 -38.624222 87.375214 9126.257812
5.000000 0.800000 5.008333 31.192368 -224.307739 51286.925781
5.000000 0.800000 5.016667 202.248154 34.707226 42108.906250
5.000000 0.900000 4.983333 853.619019 75.756241 734404.437500
5.000000 0.900000 4.991667 -1091.771484 -169.386475 1220656.750000
5.000000 0.900000 5.000000 703.225098 -1753.055420 3567728.750000
5.000000 0.900000 5.008333 1392.077759 57.920258 1941235.250000
5.000000 0.900000 5.016667 796.166504 480.092407 864369.875000
5.000000 1.000000 4.983333 -59.091003 1281.343384 1645332.625000
5.000000 1.000000 4.991667 81.398010 -1872.660156 3513481.750000
5.000000 1.000000 5.000000 2790.607178 697.666870 8274227.500000
5.000000 1.000000 5.008333 255.264893 1880.965088 3603190.000000
5.000000 1.000000 5.016667 -374.163300 1366.540405 2007430.750000
5.000000 1.100000 4.983333 -856.701599 128.048874 750334.125000
5.000000 1.100000 4.991667 1121.871582 -208.997131 1302275.625000
5.000000 1.100000 5.000000 -105.534988 1730.556396 3005963.250000
5.000000 1.100000 5.008333 -1079.730225 392.402863 1319797.375000
5.000000 1.100000 5.016667 -961.997803 -104.837509 936430.625000
5.000000 1.200000 4.983333 -169.911102 -38.414154 30345.429688
5.000000 1.200000 4.991667 114.466660 -202.886642 54265.605469
5.000000 1.200000 5.000000 113.016190 102.343567 23246.865234
5.000000 1.200000 5.008333 -88.184464 -21.454401 8236.791016
5.000000 1.200000 5.016667 94.247696 -108.742043 20707.460938
5.100000 0.800000 4.983333 101.982086 -79.907845 16785.609375
5.100000 0.800000 4.991667 42.060139 138.602463 20979.697266
5.100000 0.800000 5.000000 -75.145432 -19.719988 6035.713867
5.100000 0.800000 5.008333 112.964813 -43.173557 14625.004883
5.100000 0.800000 5.016667 67.254539 168.047195 32763.031250
5.100000 0.900000 4.983333 34.788048 495.207642 246440.812500
5.100000 0.900000 4.991667 21.954590 -710.270264 504965.843750
5.100000 0.900000 5.000000 1156.417969 230.403336 1390388.250000
5.100000 0.900000 5.008333 153.625061 879.048462 796326.875000
5.100000 0.900000 5.016667 -272.884979 562.225586 390563.843750
5.100000 1.000000 4.983333 -736.608643 37.703773 544013.875000
5.100000 1.000000 4.991667 1152.461914 -71.340759 1333258.000000
5.100000 1.000000 5.000000 -141.555450 1771.599243 3158602.000000
5.100000 1.000000 5.008333 -1174.790527 376.117767 1521597.375000
5.100000 1.000000 5.016667 -864.663330 -152.585831 770925.125000
5.100000 1.100000 4.983333 -99.597343 -541.196350 302813.125000
5.100000 1.100000 4.991667 210.396667 656.623047 475420.562500
5.100000 1.100000 5.000000 -1050.175781 62.867237 1106821.375000
5.100000 1.100000 5.008333 -319.980225 -664.400879 543815.875000
5.100000 1.100000 5.016667 16.076281 -602.736023 363549.156250
5.100000 1.200000 4.983333 112.159500 -103.460114 23283.750000
5.100000 1.200000 4.991667 142.473877 81.687401 26971.636719
5.100000 1.200000 5.000000 36.497650 83.559746 8314.309570
5.100000 1.200000 5.008333 31.136703 31.569283 1966.114014
5.100000 1.200000 5.016667 102.036079 89.204155 18368.742188
5.200000 0.800000 4.983333 -50.681938 42.152256 4345.471680
5.200000 0.800000 4.991667 -64.338303 -122.194405 19070.890625
5.200000 0.800000 5.000000 35.520458 -72.722054 6550.200195
5.200000 0.800000 5.008333 86.583153 -34.709682 8701.404297
5.200000 0.800000 5.016667 -25.084681 99.709343 10571.194336
5.200000 0.900000 4.983333 62.706722 -64.929916 8148.027344
5.200000 0.900000 4.991667 108.859589 48.698208 14221.925781
5.200000 0.900000 5.000000 54.401405 45.461693 5026.278320
5.200000 0.900000 5.008333 -5.984314 94.878311 9037.706055
5.200000 0.900000 5.016667 -22.833424 -51.984108 3223.712646
5.200000 1.000000 4.983333 120.219803 64.285042 18585.367188
5.200000 1.000000 4.991667 -81.052338 42.967918 8415.723633
5.200000 1.000000 5.000000 11.931046 8.920004 221.916321
5.200000 1.000000 5.008333 -42.525375 -35.802452 3090.223145
5.200000 1.000000 5.016667 83.228607 34.100998 8089.878906
5.200000 1.100000 4.983333 82.565392 73.390251 12203.172852
5.200000 1.100000 4.991667 60.126209 -5.318003 3643.442383
5.200000 1.100000 5.000000 70.201851 74.405746 10464.515625
5.200000 1.100000 5.008333 44.235970 57.927940 5312.467285
5.200000 1.100000 5.016667 -12.463916 92.674072 8743.833008
5.200000 1.200000 4.983333 52.479588 177.857437 34387.375000
5.200000 1.200000 4.991667 -59.053215 96.348259 12770.269531
5.200000 1.200000 5.000000 -50.861633 125.518456 18341.789062
5.200000 1.200000 5.008333 -128.923553 44.182072 18573.337891
5.200000 1.200000 5.016667 -82.161362 22.041483 7236.316406
