#kx 	ky 	kz 	real 	imag 	intensity
2.800000 -1.200000 6.800000 -28.744770 4.772676 849.040222
2.800000 -1.200000 6.840000 -27.299873 -6.361153 785.747314
2.800000 -1.200000 6.880000 -19.496672 -16.165350 641.438721
2.800000 -1.200000 6.920000 -7.193135 -20.420359 468.732239
2.800000 -1.200000 6.960000 5.121315 -17.478613 331.729797
2.800000 -1.200000 7.000000 13.296303 -9.285187 263.006348
2.800000 -1.200000 7.040000 15.959944 0.364250 254.852478
2.800000 -1.200000 7.080000 14.455673 8.545419 281.990662
2.800000 -1.200000 7.120000 10.889558 14.501966 328.889465
2.800000 -1.200000 7.160000 6.280758 18.814526 393.434265
2.800000 -1.200000 7.200000 0.427145 21.694456 470.831879
2.800000 -1.160000 6.800000 -26.120825 -11.523908 815.097900
2.800000 -1.160000 6.840000 -19.650433 -15.782213 635.217773
2.800000 -1.160000 6.880000 -11.760319 -17.311289 437.985840
2.800000 -1.160000 6.920000 -3.871225 -14.695086 230.931931
2.800000 -1.160000 6.960000 0.883189 -8.176989 67.643166
2.800000 -1.160000 7.000000 0.225600 -1.073835 1.204018
2.800000 -1.160000 7.040000 -4.369286 2.244421 24.128082
2.800000 -1.160000 7.080000 -8.113611 0.399464 65.990257
2.800000 -1.160000 7.120000 -7.095823 -3.154521 60.301708
2.800000 -1.160000 7.160000 -2.320749 -3.035922 14.602699
2.800000 -1.160000 7.200000 0.713641 2.721676 7.916803
2.800000 -1.120000 6.800000 -13.262018 -22.170341 667.405151
2.800000 -1.120000 6.840000 -7.964777 -18.591980 409.099396
2.800000 -1.120000 6.880000 -5.498499 -14.335582 235.742401
2.800000 -1.120000 6.920000 -5.745613 -9.912380 131.267349
2.800000 -1.120000 6.960000 -9.454529 -6.969705 137.964905
2.800000 -1.120000 7.000000 -15.251293 -8.852407 310.967041
2.800000 -1.120000 7.040000 -17.929125 -16.964602 609.251221
2.800000 -1.120000 7.080000 -11.949186 -26.852682 863.849609
2.800000 -1.120000 7.120000 2.232952 -29.775999 891.596191
2.800000 -1.120000 7.160000 16.014599 -20.156990 662.771606
2.800000 -1.120000 7.200000 18.608631 -2.094255 350.667053
2.800000 -1.080000 6.800000 2.819524 -21.283161 460.922668
2.800000 -1.080000 6.840000 2.361218 -13.562479 189.516190
2.800000 -1.080000 6.880000 -2.472686 -9.170183 90.206436
2.800000 -1.080000 6.920000 -9.411423 -9.362941 176.239532
2.800000 -1.080000 6.960000 -15.989139 -15.538991 497.112793
2.800000 -1.080000 7.000000 -17.380383 -27.947329 1083.130859
2.800000 -1.080000 7.040000 -7.971171 -41.831959 1813.452271
2.800000 -1.080000 7.080000 12.499487 -47.186119 2382.766846
2.800000 -1.080000 7.120000 34.615978 -35.695499 2472.434570
2.800000 -1.080000 7.160000 43.732559 -9.741749 2007.438477
2.800000 -1.080000 7.200000 31.591087 16.180595 1259.808472
2.800000 -1.040000 6.800000 12.873134 -10.393025 273.732544
2.800000 -1.040000 6.840000 6.392481 -3.769901 55.075974
2.800000 -1.040000 6.880000 -2.952816 -4.109181 25.604496
2.800000 -1.040000 6.920000 -10.723673 -11.967764 258.224548
2.800000 -1.040000 6.960000 -11.985806 -26.166994 828.371155
2.800000 -1.040000 7.000000 -1.706467 -41.704002 1742.135742
2.800000 -1.040000 7.040000 20.798046 -48.758842 2809.983398
2.800000 -1.040000 7.080000 46.957146 -37.788506 3632.944824
2.800000 -1.040000 7.120000 61.039970 -8.789331 3803.130371
2.800000 -1.040000 7.160000 51.076904 24.400921 3204.255127
2.800000 -1.040000 7.200000 20.241428 41.718697 2150.165039
2.800000 -1.000000 6.800000 12.316746 2.574127 158.328354
2.800000 -1.000000 6.840000 2.963973 5.034802 34.134373
2.800000 -1.000000 6.880000 -5.921709 -1.013741 36.094307
2.800000 -1.000000 6.920000 -8.639928 -14.027065 271.406921
2.800000 -1.000000 6.960000 -0.420020 -28.988976 840.537109
2.800000 -1.000000 7.000000 19.739429 -37.011932 1759.528320
2.800000 -1.000000 7.040000 45.030014 -28.745899 2854.028809
2.800000 -1.000000 7.080000 61.184692 -2.129854 3748.103027
2.800000 -1.000000 7.120000 54.893166 31.939180 4033.370850
2.800000 -1.000000 7.160000 25.445045 53.828491 3544.956543
2.800000 -1.000000 7.200000 -11.329869 48.944710 2523.950684
2.800000 -0.960000 6.800000 4.349184 9.745987 113.899658
2.800000 -0.960000 6.840000 -4.520094 8.372419 90.528656
2.800000 -0.960000 6.880000 -9.569955 -0.674491 92.038979
2.800000 -0.960000 6.920000 -5.616830 -13.086937 202.816696
2.800000 -0.960000 6.960000 8.894235 -21.205078 528.762756
2.800000 -0.960000 7.000000 29.182573 -16.776642 1133.078247
2.800000 -0.960000 7.040000 43.992149 3.323442 1946.354492
2.800000 -0.960000 7.080000 41.293137 31.914976 2723.688965
2.800000 -0.960000 7.120000 17.842789 53.050598 3132.730957
2.800000 -0.960000 7.160000 -15.350544 52.156590 2955.948975
2.800000 -0.960000 7.200000 -38.522987 27.964741 2266.047363
2.800000 -0.920000 6.800000 -3.769259 9.386569 102.314995
2.800000 -0.920000 6.840000 -10.991223 6.040450 157.294037
2.800000 -0.920000 6.880000 -12.183294 -2.549915 154.934738
2.800000 -0.920000 6.920000 -4.726746 -10.002994 122.402008
2.800000 -0.920000 6.960000 8.434593 -9.275138 157.170547
2.800000 -0.920000 7.000000 19.188700 2.823959 376.180939
2.800000 -0.920000 7.040000 18.437809 22.009508 824.371216
2.800000 -0.920000 7.080000 2.756830 37.272526 1396.841309
2.800000 -0.920000 7.120000 -21.194031 37.468513 1853.076416
2.800000 -0.920000 7.160000 -39.364506 20.018543 1950.306396
2.800000 -0.920000 7.200000 -39.846466 -5.464177 1617.598022
2.800000 -0.880000 6.800000 -7.656474 5.855690 92.910706
2.800000 -0.880000 6.840000 -13.773778 1.355585 191.554581
2.800000 -0.880000 6.880000 -13.067988 -5.307834 198.945419
2.800000 -0.880000 6.920000 -6.738904 -7.645585 103.867798
2.800000 -0.880000 6.960000 -0.753949 -2.563955 7.142305
2.800000 -0.880000 7.000000 -1.515024 7.029013 51.702320
2.800000 -0.880000 7.040000 -10.875875 13.877392 310.866638
2.800000 -0.880000 7.080000 -24.083988 11.493052 712.128784
2.800000 -0.880000 7.120000 -32.547432 -0.687171 1059.807495
2.800000 -0.880000 7.160000 -29.917732 -16.107246 1154.514038
2.800000 -0.880000 7.200000 -17.125343 -25.284138 932.564941
2.800000 -0.840000 6.800000 -8.986784 3.770263 94.977165
2.800000 -0.840000 6.840000 -13.985065 -2.640157 202.552490
2.800000 -0.840000 6.880000 -12.665968 -7.948543 223.606079
2.800000 -0.840000 6.920000 -9.825888 -8.092170 162.031281
2.800000 -0.840000 6.960000 -11.056309 -5.270672 150.021942
2.800000 -0.840000 7.000000 -16.971109 -5.494150 318.204254
2.800000 -0.840000 7.040000 -22.337166 -12.381668 652.254700
2.800000 -0.840000 7.080000 -20.891403 -23.140526 971.934692
2.800000 -0.840000 7.120000 -11.385210 -30.532698 1061.868652
2.800000 -0.840000 7.160000 0.765439 -29.044247 844.154114
2.800000 -0.840000 7.200000 7.672082 -19.725773 447.966949
2.800000 -0.800000 6.800000 -11.901340 2.730849 149.099442
2.800000 -0.800000 6.840000 -13.918259 -6.027766 230.051895
2.800000 -0.800000 6.880000 -11.550912 -10.541194 244.540344
2.800000 -0.800000 6.920000 -11.444787 -11.164721 255.634140
2.800000 -0.800000 6.960000 -15.451626 -14.174120 439.658417
2.800000 -0.800000 7.000000 -17.758200 -23.883863 885.792603
2.800000 -0.800000 7.040000 -10.885825 -36.209782 1429.649536
2.800000 -0.800000 7.080000 5.334747 -41.132355 1720.330078
2.800000 -0.800000 7.120000 21.379272 -32.301762 1500.477051
2.800000 -0.800000 7.160000 25.537039 -14.379520 858.911011
2.800000 -0.800000 7.200000 14.568048 -0.414559 212.399872
2.840000 -1.200000 6.800000 -40.843582 -8.949808 1748.297363
2.840000 -1.200000 6.840000 -29.363398 -21.477367 1323.486450
2.840000 -1.200000 6.880000 -13.255200 -25.245068 813.013733
2.840000 -1.200000 6.920000 0.610116 -20.000237 400.381714
2.840000 -1.200000 6.960000 8.067513 -10.305130 171.280472
2.840000 -1.200000 7.000000 9.844949 -1.054083 98.034111
2.840000 -1.200000 7.040000 8.951714 6.199535 118.567413
2.840000 -1.200000 7.080000 6.752497 12.588539 204.067520
2.840000 -1.200000 7.120000 2.219955 18.525961 348.139435
2.840000 -1.200000 7.160000 -5.371517 22.033096 514.310547
2.840000 -1.200000 7.200000 -14.021658 20.724213 626.099854
2.840000 -1.160000 6.800000 -23.671087 -31.878559 1576.562988
2.840000 -1.160000 6.840000 -5.880164 -30.660069 974.616089
2.840000 -1.160000 6.880000 6.961887 -18.714283 398.692261
2.840000 -1.160000 6.920000 8.221359 -2.528937 73.986275
2.840000 -1.160000 6.960000 -1.340706 8.014296 66.026428
2.840000 -1.160000 7.000000 -13.378357 7.243362 231.446747
2.840000 -1.160000 7.040000 -18.485153 -1.696609 344.579376
2.840000 -1.160000 7.080000 -13.797449 -9.736179 285.162781
2.840000 -1.160000 7.120000 -4.766808 -9.751110 117.806595
2.840000 -1.160000 7.160000 0.218166 -2.159674 4.711787
2.840000 -1.160000 7.200000 -2.954154 6.404423 49.743660
2.840000 -1.120000 6.800000 5.206448 -35.703129 1301.820435
2.840000 -1.120000 6.840000 18.732000 -18.654680 698.884949
2.840000 -1.120000 6.880000 16.601204 4.525637 296.081360
2.840000 -1.120000 6.920000 -2.789717 19.553028 390.103455
2.840000 -1.120000 6.960000 -28.045700 14.508685 997.063232
2.840000 -1.120000 7.000000 -41.070419 -9.145063 1770.411499
2.840000 -1.120000 7.040000 -31.072052 -35.370220 2216.524902
2.840000 -1.120000 7.080000 -4.219337 -45.136497 2055.106201
2.840000 -1.120000 7.120000 20.545586 -31.579672 1419.396729
2.840000 -1.120000 7.160000 26.489962 -5.292080 729.724182
2.840000 -1.120000 7.200000 11.869574 14.838171 361.058105
2.840000 -1.080000 6.800000 27.121418 -17.598875 1045.291748
2.840000 -1.080000 6.840000 26.335472 9.106913 776.492920
2.840000 -1.080000 6.880000 3.571732 30.091419 918.250793
2.840000 -1.080000 6.920000 -31.677376 27.328331 1750.293701
2.840000 -1.080000 6.960000 -56.038132 -3.980869 3156.119629
2.840000 -1.080000 7.000000 -48.764061 -46.791222 4567.352051
2.840000 -1.080000 7.040000 -10.192617 -71.929733 5277.776367
2.840000 -1.080000 7.080000 35.431110 -60.534081 4919.738281
2.840000 -1.080000 7.120000 57.625031 -20.036013 3722.085938
2.840000 -1.080000 7.160000 43.449570 21.212914 2337.852783
2.840000 -1.080000 7.200000 6.758190 36.541100 1380.925049
2.840000 -1.040000 6.800000 28.008211 9.184826 868.820923
2.840000 -1.040000 6.840000 9.800123 33.487396 1217.448120
2.840000 -1.040000 6.880000 -27.000830 37.678215 2148.692627
2.840000 -1.040000 6.920000 -60.454567 9.181453 3739.053711
2.840000 -1.040000 6.960000 -62.914314 -41.189346 5654.773438
2.840000 -1.040000 7.000000 -24.382736 -81.414902 7222.904297
2.840000 -1.040000 7.040000 34.660904 -81.144623 7785.828125
2.840000 -1.040000 7.080000 75.619919 -37.296379 7109.392090
2.840000 -1.040000 7.120000 71.410843 21.085863 5544.122070
2.840000 -1.040000 7.160000 28.038839 54.890625 3799.157227
2.840000 -1.040000 7.200000 -21.076923 45.392387 2504.705566
2.840000 -1.000000 6.800000 9.801958 25.650099 754.005920
2.840000 -1.000000 6.840000 -19.394871 36.621239 1717.276123
2.840000 -1.000000 6.880000 -54.273247 18.918762 3303.504883
2.840000 -1.000000 6.920000 -67.454285 -26.397881 5246.928711
2.840000 -1.000000 6.960000 -40.052299 -73.528412 7010.613770
2.840000 -1.000000 7.000000 18.413250 -87.707077 8031.579102
2.840000 -1.000000 7.040000 71.804520 -53.453411 8013.156250
2.840000 -1.000000 7.080000 83.520615 9.497363 7065.892578
2.840000 -1.000000 7.120000 46.127129 59.090370 5619.383789
2.840000 -1.000000 7.160000 -11.936219 63.545113 4180.454590
2.840000 -1.000000 7.200000 -49.323563 25.711824 3093.911621
2.840000 -0.960000 6.800000 -11.825308 22.433723 643.109863
2.840000 -0.960000 6.840000 -39.944794 17.152653 1889.800049
2.840000 -0.960000 6.880000 -58.577492 -13.827147 3622.512451
2.840000 -0.960000 6.920000 -46.560322 -55.869820 5289.300293
2.840000 -0.960000 6.960000 -2.014732 -79.347198 6300.037109
2.840000 -0.960000 7.000000 50.376598 -62.013783 6383.510742
2.840000 -0.960000 7.040000 75.018005 -9.851685 5724.756836
2.840000 -0.960000 7.080000 53.513145 43.753181 4777.997559
2.840000 -0.960000 7.120000 1.097172 62.729233 3936.160400
2.840000 -0.960000 7.160000 -44.375710 36.842186 3326.550293
2.840000 -0.960000 7.200000 -52.391323 -10.766464 2860.767578
2.840000 -0.920000 6.800000 -21.393726 6.288170 497.232605
2.840000 -0.920000 6.840000 -38.695129 -8.877965 1576.131226
2.840000 -0.920000 6.880000 -38.502140 -37.425720 2883.099365
2.840000 -0.920000 6.920000 -13.402704 -60.366680 3823.768555
2.840000 -0.920000 6.960000 25.059391 -57.778214 3966.295166
2.840000 -0.920000 7.000000 51.765720 -25.912447 3351.144531
2.840000 -0.920000 7.040000 46.708496 16.591869 2456.973633
2.840000 -0.920000 7.080000 12.179913 41.091560 1836.866577
2.840000 -0.920000 7.120000 -27.246136 31.252495 1719.070312
2.840000 -0.920000 7.160000 -43.467377 -3.519016 1901.796265
2.840000 -0.920000 7.200000 -26.969189 -35.652012 1998.403076
2.840000 -0.880000 6.800000 -16.134617 -7.895640 322.666992
2.840000 -0.880000 6.840000 -21.001478 -22.692406 956.007324
2.840000 -0.880000 6.880000 -11.562876 -37.974453 1575.759155
2.840000 -0.880000 6.920000 8.246616 -41.727482 1809.189453
2.840000 -0.880000 6.960000 25.839775 -29.028301 1510.336182
2.840000 -0.880000 7.000000 28.746916 -6.897186 873.956360
2.840000 -0.880000 7.040000 14.472481 9.902477 307.511749
2.840000 -0.880000 7.080000 -6.692871 9.850303 141.822998
2.840000 -0.880000 7.120000 -19.024351 -6.100994 399.148071
2.840000 -0.880000 7.160000 -13.565348 -24.837471 800.918640
2.840000 -0.880000 7.200000 4.730230 -31.308067 1002.570129
2.840000 -0.840000 6.800000 -5.804188 -11.219707 159.570435
2.840000 -0.840000 6.840000 -3.873105 -18.977160 375.133514
2.840000 -0.840000 6.880000 2.340698 -21.851940 482.986176
2.840000 -0.840000 6.920000 7.216938 -19.479698 431.542847
2.840000 -0.840000 6.960000 7.869999 -15.797737 311.505371
2.840000 -0.840000 7.000000 5.951971 -14.718170 252.050491
2.840000 -0.840000 7.040000 5.218567 -16.725071 306.961426
2.840000 -0.840000 7.080000 7.853350 -19.046381 424.439728
2.840000 -0.840000 7.120000 12.771320 -18.447937 503.433014
2.840000 -0.840000 7.160000 16.762123 -13.858559 473.028442
2.840000 -0.840000 7.200000 16.891056 -7.017117 334.547699
2.840000 -0.800000 6.800000 -1.114847 -7.342072 55.148899
2.840000 -0.800000 6.840000 0.797160 -8.254680 68.775208
2.840000 -0.800000 6.880000 -1.520265 -7.491268 58.430302
2.840000 -0.800000 6.920000 -6.975769 -12.018545 193.106781
2.840000 -0.800000 6.960000 -7.514469 -23.784021 622.146912
2.840000 -0.800000 7.000000 3.374573 -35.404739 1264.883301
2.840000 -0.800000 7.040000 22.406937 -35.948284 1794.349976
2.840000 -0.800000 7.080000 37.449989 -21.590731 1868.661377
2.840000 -0.800000 7.120000 37.611061 -0.464262 1414.807495
2.840000 -0.800000 7.160000 22.900728 13.463989 705.722351
2.840000 -0.800000 7.200000 4.325976 11.830927 158.684891
2.880000 -1.200000 6.800000 -40.367805 -34.199375 2799.156982
2.880000 -1.200000 6.840000 -19.118774 -39.366791 1915.271729
2.880000 -1.200000 6.880000 -0.977430 -31.425922 988.544006
2.880000 -1.200000 6.920000 6.806862 -17.441374 350.534882
2.880000 -1.200000 6.960000 5.578407 -6.361610 71.588715
2.880000 -1.200000 7.000000 2.151218 -1.222965 6.123385
2.880000 -1.200000 7.040000 0.964925 1.651752 3.659366
2.880000 -1.200000 7.080000 0.235800 6.408630 41.126144
2.880000 -1.200000 7.120000 -4.173710 12.033862 162.233704
2.880000 -1.200000 7.160000 -12.402109 13.721952 342.104309
2.880000 -1.200000 7.200000 -19.510778 9.136766 464.150970
2.880000 -1.160000 6.800000 -3.991014 -49.115570 2428.267334
2.880000 -1.160000 6.840000 18.172026 -32.313923 1374.412109
2.880000 -1.160000 6.880000 22.169634 -4.652202 513.135681
2.880000 -1.160000 6.920000 5.216789 15.873478 279.182190
2.880000 -1.160000 6.960000 -19.302217 15.660717 617.833618
2.880000 -1.160000 7.000000 -32.380508 -2.475933 1054.627563
2.880000 -1.160000 7.040000 -25.513784 -21.853451 1128.526489
2.880000 -1.160000 7.080000 -7.108765 -26.830154 770.391724
2.880000 -1.160000 7.120000 6.483955 -15.720238 289.167542
2.880000 -1.160000 7.160000 5.812825 0.015230 33.789169
2.880000 -1.160000 7.200000 -5.239361 7.909785 90.015610
2.880000 -1.120000 6.800000 32.647739 -31.865482 2081.283691
2.880000 -1.120000 6.840000 38.994713 5.548582 1551.374390
2.880000 -1.120000 6.880000 12.991901 39.468513 1726.553101
2.880000 -1.120000 6.920000 -33.248657 42.742485 2932.393311
2.880000 -1.120000 6.960000 -67.656944 8.153976 4643.949219
2.880000 -1.120000 7.000000 -63.663116 -41.586811 5782.455078
2.880000 -1.120000 7.040000 -23.630304 -70.626732 5546.526367
2.880000 -1.120000 7.080000 22.370848 -59.582691 4050.552002
2.880000 -1.120000 7.120000 42.040771 -20.730873 2197.195557
2.880000 -1.120000 7.160000 26.838800 14.670130 935.533936
2.880000 -1.120000 7.200000 -4.698790 23.743481 585.831482
2.880000 -1.080000 6.800000 43.759182 6.819191 1961.367310
2.880000 -1.080000 6.840000 21.291632 49.848663 2938.222656
2.880000 -1.080000 6.880000 -35.301212 64.688553 5430.784180
2.880000 -1.080000 6.920000 -91.526970 27.968357 9159.416016
2.880000 -1.080000 6.960000 -103.160263 -44.765984 12646.033203
2.880000 -1.080000 7.000000 -54.938583 -105.122322 14068.950195
2.880000 -1.080000 7.040000 22.358696 -109.926788 12583.809570
2.880000 -1.080000 7.080000 75.155029 -57.764790 8985.048828
2.880000 -1.080000 7.120000 70.891235 10.177762 5129.154297
2.880000 -1.080000 7.160000 22.609911 45.779819 2607.000000
2.880000 -1.080000 7.200000 -26.775980 32.660831 1783.682983
2.880000 -1.040000 6.800000 22.038887 39.122608 2016.291016
2.880000 -1.040000 6.840000 -27.324863 65.585213 5048.067871
2.880000 -1.040000 6.880000 -93.243378 41.766560 10438.772461
2.880000 -1.040000 6.920000 -125.197823 -34.399963 16857.851562
2.880000 -1.040000 6.960000 -87.453270 -118.338539 21652.083984
2.880000 -1.040000 7.000000 4.503815 -149.828979 22469.007812
2.880000 -1.040000 7.040000 90.377960 -103.687302 18919.232422
2.880000 -1.040000 7.080000 112.783859 -13.350653 12898.439453
2.880000 -1.040000 7.120000 64.077126 56.212151 7265.683594
2.880000 -1.040000 7.160000 -10.252798 62.139160 3966.395020
2.880000 -1.040000 7.200000 -53.199661 15.101994 3058.274170
2.880000 -1.000000 6.800000 -14.689032 42.495045 2021.596558
2.880000 -1.000000 6.840000 -72.236298 37.693130 6638.854492
2.880000 -1.000000 6.880000 -116.542183 -21.257614 14033.965820
2.880000 -1.000000 6.920000 -101.089645 -107.900391 21861.609375
2.880000 -1.000000 6.960000 -18.791245 -162.274628 26686.166016
2.880000 -1.000000 7.000000 82.786758 -138.992218 26172.484375
2.880000 -1.000000 7.040000 135.368652 -49.099808 20735.462891
2.880000 -1.000000 7.080000 105.892281 45.223404 13258.331055
2.880000 -1.000000 7.120000 23.751211 80.964691 7119.401367
2.880000 -1.000000 7.160000 -45.744713 44.701138 4090.770508
2.880000 -1.000000 7.200000 -56.588104 -21.714537 3673.734619
2.880000 -0.960000 6.800000 -38.500870 17.809004 1799.477661
2.880000 -0.960000 6.840000 -80.315887 -14.150716 6650.884277
2.880000 -0.960000 6.880000 -85.276367 -81.752937 13955.601562
2.880000 -0.960000 6.920000 -30.407448 -141.691406 21001.068359
2.880000 -0.960000 6.960000 60.630943 -144.253998 24485.328125
2.880000 -0.960000 7.000000 129.290466 -77.368561 22701.919922
2.880000 -0.960000 7.040000 128.194336 17.756914 16749.095703
2.880000 -0.960000 7.080000 61.455940 77.340080 9758.320312
2.880000 -0.960000 7.120000 -18.203781 66.617386 4769.253418
2.880000 -0.960000 7.160000 -53.705383 6.259869 2923.454346
2.880000 -0.960000 7.200000 -29.151829 -49.089241 3259.582764
2.880000 -0.920000 6.800000 -34.565594 -13.073515 1365.697021
2.880000 -0.920000 6.840000 -48.341465 -51.977440 5038.551758
2.880000 -0.920000 6.880000 -22.880774 -98.470703 10220.009766
2.880000 -0.920000 6.920000 38.195698 -115.143448 14716.924805
2.880000 -0.920000 6.960000 99.326431 -80.032204 16270.894531
2.880000 -0.920000 7.000000 118.353905 -9.055195 14089.642578
2.880000 -0.920000 7.040000 81.442886 52.772652 9417.896484
2.880000 -0.920000 7.080000 16.170895 66.412628 4672.135254
2.880000 -0.920000 7.120000 -30.315424 30.126030 1826.602539
2.880000 -0.920000 7.160000 -29.427340 -20.772202 1297.452637
2.880000 -0.920000 7.200000 7.930413 -44.870438 2076.247559
2.880000 -0.880000 6.800000 -11.475740 -27.380951 881.409119
2.880000 -0.880000 6.840000 -4.322800 -52.351627 2759.379395
2.880000 -0.880000 6.880000 24.688486 -67.046707 5104.782227
2.880000 -0.880000 6.920000 60.898315 -55.576042 6797.301270
2.880000 -0.880000 6.960000 80.982315 -19.457138 6936.715332
2.880000 -0.880000 7.000000 70.644135 21.216072 5440.715332
2.880000 -0.880000 7.040000 36.653488 42.015060 3108.743408
2.880000 -0.880000 7.080000 2.356438 32.882320 1086.799805
2.880000 -0.880000 7.120000 -10.344076 5.694672 139.429199
2.880000 -0.880000 7.160000 2.330381 -15.866909 257.189484
2.880000 -0.880000 7.200000 24.493725 -15.486399 839.771118
2.880000 -0.840000 6.800000 9.545074 -20.073856 494.068176
2.880000 -0.840000 6.840000 19.092339 -24.546873 967.066345
2.880000 -0.840000 6.880000 29.690899 -20.894665 1318.136475
2.880000 -0.840000 6.920000 35.690479 -11.630302 1409.074219
2.880000 -0.840000 6.960000 35.667740 -1.549759 1274.589355
2.880000 -0.840000 7.000000 31.535236 6.097710 1031.653198
2.880000 -0.840000 7.040000 25.770821 10.542822 775.286255
2.880000 -0.840000 7.080000 19.996861 12.224594 549.315125
2.880000 -0.840000 7.120000 15.281828 11.891516 374.942413
2.880000 -0.840000 7.160000 12.254206 10.801412 266.836060
2.880000 -0.840000 7.200000 10.308620 10.507261 216.670197
2.880000 -0.800000 6.800000 14.800384 -4.423818 238.621521
2.880000 -0.800000 6.840000 12.886162 2.148960 170.671188
2.880000 -0.800000 6.880000 3.864652 2.156574 19.586349
2.880000 -0.800000 6.920000 -1.209990 -9.078808 83.888824
2.880000 -0.800000 6.960000 8.087738 -22.654036 578.616821
2.880000 -0.800000 7.000000 28.776031 -23.337955 1372.720215
2.880000 -0.800000 7.040000 44.793186 -5.119511 2032.638916
2.880000 -0.800000 7.080000 41.341309 21.100288 2154.325928
2.880000 -0.800000 7.120000 19.192938 36.305550 1686.461792
2.880000 -0.800000 7.160000 -5.609673 30.352636 952.750977
2.880000 -0.800000 7.200000 -16.258247 10.341034 371.267578
2.920000 -1.200000 6.800000 -18.826530 -56.461662 3542.357422
2.920000 -1.200000 6.840000 4.505041 -47.823738 2307.405273
2.920000 -1.200000 6.880000 15.180977 -29.093597 1076.899536
2.920000 -1.200000 6.920000 11.876633 -13.184628 314.888824
2.920000 -1.200000 6.960000 3.705288 -7.581951 71.215141
2.920000 -1.200000 7.000000 0.261670 -8.808144 77.651871
2.920000 -1.200000 7.040000 2.502373 -8.293674 75.046906
2.920000 -1.200000 7.080000 3.874306 -2.544395 21.484194
2.920000 -1.200000 7.120000 -0.665112 3.787363 14.786492
2.920000 -1.200000 7.160000 -8.514285 4.496401 92.710670
2.920000 -1.200000 7.200000 -12.982056 -0.346243 168.653656
2.920000 -1.160000 6.800000 26.489511 -48.132225 3018.405273
2.920000 -1.160000 6.840000 38.626392 -14.821571 1711.677124
2.920000 -1.160000 6.880000 21.930416 17.465282 785.979248
2.920000 -1.160000 6.920000 -12.777687 25.301064 803.413086
2.920000 -1.160000 6.960000 -39.000793 3.698830 1534.743286
2.920000 -1.160000 7.000000 -37.232857 -28.446865 2195.509766
2.920000 -1.160000 7.040000 -11.690899 -44.968185 2158.814941
2.920000 -1.160000 7.080000 14.917511 -35.091576 1453.950806
2.920000 -1.160000 7.120000 22.641447 -10.583181 624.638855
2.920000 -1.160000 7.160000 10.367512 7.894369 169.806366
2.920000 -1.160000 7.200000 -7.479111 9.842237 152.806732
2.920000 -1.120000 6.800000 51.275043 -6.900841 2676.751709
2.920000 -1.120000 6.840000 32.880211 40.697067 2737.359619
2.920000 -1.120000 6.880000 -22.357330 61.079494 4230.554688
2.920000 -1.120000 6.920000 -79.133102 29.892914 7155.634277
2.920000 -1.120000 6.960000 -93.400352 -37.011372 10093.467773
2.920000 -1.120000 7.000000 -51.444866 -92.343773 11173.946289
2.920000 -1.120000 7.040000 16.099823 -96.559769 9582.993164
2.920000 -1.120000 7.080000 60.077583 -51.173279 6228.020508
2.920000 -1.120000 7.120000 54.307968 4.987804 2974.233643
2.920000 -1.120000 7.160000 14.052060 31.528013 1191.476074
2.920000 -1.120000 7.200000 -23.328712 19.134869 910.372009
2.920000 -1.080000 6.800000 35.813412 39.184925 2818.058838
2.920000 -1.080000 6.840000 -20.376457 75.200722 6070.348633
2.920000 -1.080000 6.880000 -98.999084 52.574436 12564.889648
2.920000 -1.080000 6.920000 -140.122131 -32.254848 20674.585938
2.920000 -1.080000 6.960000 -101.914398 -127.557396 26657.433594
2.920000 -1.080000 7.000000 -2.666275 -164.730560 27143.267578
2.920000 -1.080000 7.040000 89.551666 -117.063652 21723.398438
2.920000 -1.080000 7.080000 113.168793 -23.376825 13353.651367
2.920000 -1.080000 7.120000 63.463608 46.363869 6177.237793
2.920000 -1.080000 7.160000 -9.069395 50.556767 2638.240479
2.920000 -1.080000 7.200000 -47.449142 5.097363 2277.404297
2.920000 -1.040000 6.800000 -8.934933 56.367538 3257.132324
2.920000 -1.040000 6.840000 -86.783257 54.453381 10496.503906
2.920000 -1.040000 6.880000 -149.973846 -21.181398 22940.806641
2.920000 -1.040000 6.920000 -134.619766 -136.192291 36670.820312
2.920000 -1.040000 6.960000 -30.467167 -210.500793 45238.835938
2.920000 -1.040000 7.000000 99.669510 -184.512054 43978.710938
2.920000 -1.040000 7.040000 167.543381 -73.808273 33518.445312
2.920000 -1.040000 7.080000 133.215714 41.386017 19459.228516
2.920000 -1.040000 7.120000 36.478874 83.999695 8386.657227
2.920000 -1.040000 7.160000 -42.176231 42.154484 3555.834961
2.920000 -1.040000 7.200000 -51.883129 -30.294868 3609.638184
2.920000 -1.000000 6.800000 -49.097813 33.131561 3508.295410
2.920000 -1.000000 6.840000 -115.564026 -12.850229 13520.171875
2.920000 -1.000000 6.880000 -127.606339 -116.240219 29795.166016
2.920000 -1.000000 6.920000 -47.372124 -210.620087 46604.937500
2.920000 -1.000000 6.960000 89.674454 -218.652863 55850.582031
2.920000 -1.000000 7.000000 194.113602 -121.811852 52518.218750
2.920000 -1.000000 7.040000 195.263214 17.028826 38417.703125
2.920000 -1.000000 7.080000 101.428436 103.508392 21001.714844
2.920000 -1.000000 7.120000 -8.933846 89.918793 8165.202637
2.920000 -1.000000 7.160000 -56.285072 9.884367 3265.709961
2.920000 -1.000000 7.200000 -24.086096 -59.402348 4108.778809
2.920000 -0.960000 6.800000 -55.791737 -10.523716 3223.466309
2.920000 -0.960000 6.840000 -83.580643 -79.035316 13232.304688
2.920000 -0.960000 6.880000 -40.816902 -165.092743 28921.632812
2.920000 -0.960000 6.920000 69.041008 -198.899246 44327.570312
2.920000 -0.960000 6.960000 181.082031 -138.042587 51846.460938
2.920000 -0.960000 7.000000 217.360291 -11.217087 47371.320312
2.920000 -0.960000 7.040000 153.199570 99.285278 33327.671875
2.920000 -0.960000 7.080000 39.647926 124.339508 17032.271484
2.920000 -0.960000 7.120000 -40.034504 63.826572 5676.592773
2.920000 -0.960000 7.160000 -39.780540 -18.872913 1938.678345
2.920000 -0.960000 7.200000 17.185894 -55.817879 3410.990479
2.920000 -0.920000 6.800000 -28.141514 -40.965904 2470.150146
2.920000 -0.920000 6.840000 -16.050545 -97.711411 9805.139648
2.920000 -0.920000 6.880000 49.433670 -135.589783 20828.277344
2.920000 -0.920000 6.920000 136.652893 -111.383156 31080.220703
2.920000 -0.920000 6.960000 186.563477 -24.615509 35411.851562
2.920000 -0.920000 7.000000 160.683502 74.954811 31437.410156
2.920000 -0.920000 7.040000 75.580467 124.706772 21264.187500
2.920000 -0.920000 7.080000 -9.154572 99.917076 10067.228516
2.920000 -0.920000 7.120000 -39.839386 32.216064 2625.051270
2.920000 -0.920000 7.160000 -10.586355 -20.176104 519.146057
2.920000 -0.920000 7.200000 38.226372 -21.920963 1941.784180
2.920000 -0.880000 6.800000 8.869226 -39.210037 1616.090210
2.920000 -0.880000 6.840000 36.432571 -62.872402 5280.271484
2.920000 -0.880000 6.880000 83.247482 -58.346935 10334.507812
2.920000 -0.880000 6.920000 119.895447 -16.307838 14640.863281
2.920000 -0.880000 6.960000 118.662537 44.618805 16071.635742
2.920000 -0.880000 7.000000 76.472534 89.570358 13870.897461
2.920000 -0.880000 7.040000 18.825394 93.822456 9157.048828
2.920000 -0.880000 7.080000 -19.610756 61.659752 4186.506836
2.920000 -0.880000 7.120000 -21.539762 21.583738 929.819092
2.920000 -0.880000 7.160000 1.774632 2.513331 9.466152
2.920000 -0.880000 7.200000 22.965614 11.834522 667.475342
2.920000 -0.840000 6.800000 28.086374 -13.906948 982.247620
2.920000 -0.840000 6.840000 42.337669 -10.192690 1896.369141
2.920000 -0.840000 6.880000 52.428917 3.816162 2763.354248
2.920000 -0.840000 6.920000 52.856438 22.353653 3293.488770
2.920000 -0.840000 6.960000 43.660065 38.652832 3400.242676
2.920000 -0.840000 7.000000 28.307472 48.409683 3144.810303
2.920000 -0.840000 7.040000 11.090797 50.072105 2630.221680
2.920000 -0.840000 7.080000 -3.784985 44.122692 1961.138062
2.920000 -0.840000 7.120000 -12.686258 33.234245 1265.456177
2.920000 -0.840000 7.160000 -14.280279 22.238792 698.490234
2.920000 -0.840000 7.200000 -11.312777 15.770849 376.698608
2.920000 -0.800000 6.800000 22.369865 10.804241 617.142517
2.920000 -0.800000 6.840000 12.694538 18.640656 508.625305
2.920000 -0.800000 6.880000 0.582779 13.123894 172.576218
2.920000 -0.800000 6.920000 1.197075 -1.364597 3.295114
2.920000 -0.800000 6.960000 17.739319 -7.459849 370.332794
2.920000 -0.800000 7.000000 34.920670 7.211311 1271.456177
2.920000 -0.800000 7.040000 32.543907 34.978905 2282.629639
2.920000 -0.800000 7.080000 6.262421 53.059769 2854.557129
2.920000 -0.800000 7.120000 -26.330664 44.814133 2701.610352
2.920000 -0.800000 7.160000 -41.433098 15.941837 1970.843750
2.920000 -0.800000 7.200000 -30.989712 -11.063148 1082.755493
2.960000 -1.200000 6.800000 15.944559 -57.775330 3592.217773
2.960000 -1.200000 6.840000 30.432167 -36.916424 2288.939209
2.960000 -1.200000 6.880000 27.545475 -15.721060 1005.904907
2.960000 -1.200000 6.920000 15.078220 -6.537521 270.091919
2.960000 -1.200000 6.960000 6.485461 -9.408714 130.585114
2.960000 -1.200000 7.000000 7.816036 -13.993881 256.919128
2.960000 -1.200000 7.040000 13.455849 -11.425793 311.608582
2.960000 -1.200000 7.080000 14.234261 -2.894692 210.993408
2.960000 -1.200000 7.120000 7.871721 3.634567 75.174072
2.960000 -1.200000 7.160000 0.202925 3.493285 12.244220
2.960000 -1.200000 7.200000 -2.955148 0.032457 8.733952
2.960000 -1.160000 6.800000 49.406555 -24.354387 3034.144043
2.960000 -1.160000 6.840000 40.623493 13.581593 1834.727783
2.960000 -1.160000 6.880000 4.727127 32.656998 1088.825195
2.960000 -1.160000 6.920000 -32.706665 16.803368 1352.079102
2.960000 -1.160000 6.960000 -42.695496 -21.651978 2291.713623
2.960000 -1.160000 7.000000 -18.718349 -51.652161 3018.322510
2.960000 -1.160000 7.040000 17.976181 -50.655815 2889.154785
2.960000 -1.160000 7.080000 38.378002 -23.083237 2005.706909
2.960000 -1.160000 7.120000 30.806116 6.804224 995.314270
2.960000 -1.160000 7.160000 7.311888 18.410267 392.401642
2.960000 -1.160000 7.200000 -11.843554 10.702857 254.820938
2.960000 -1.120000 6.800000 45.700680 25.490150 2738.300049
2.960000 -1.120000 6.840000 -0.239193 60.407047 3649.068604
2.960000 -1.120000 6.880000 -66.482574 46.043739 6539.958496
2.960000 -1.120000 6.920000 -102.478767 -20.201706 10910.006836
2.960000 -1.120000 6.960000 -74.438797 -95.037529 14573.265625
2.960000 -1.120000 7.000000 1.339584 -123.366745 15221.148438
2.960000 -1.120000 7.040000 70.051865 -86.006523 12304.385742
2.960000 -1.120000 7.080000 85.186371 -15.454189 7495.549805
2.960000 -1.120000 7.120000 46.222031 34.634823 3336.046875
2.960000 -1.120000 7.160000 -6.941823 35.736397 1325.279053
2.960000 -1.120000 7.200000 -33.649139 2.808889 1140.154419
2.960000 -1.080000 6.800000 4.146548 55.388371 3085.065430
2.960000 -1.080000 6.840000 -72.290390 57.437099 8524.920898
2.960000 -1.080000 6.880000 -136.217041 -12.901070 18721.519531
2.960000 -1.080000 6.920000 -124.924622 -122.437843 30597.187500
2.960000 -1.080000 6.960000 -28.697281 -193.732971 38356.000000
2.960000 -1.080000 7.000000 91.817993 -170.472626 37491.460938
2.960000 -1.080000 7.040000 153.547852 -68.957680 28332.105469
2.960000 -1.080000 7.080000 121.254105 34.954918 15924.404297
2.960000 -1.080000 7.120000 34.109566 71.612549 6291.819336
2.960000 -1.080000 7.160000 -34.373947 33.560867 2307.899902
2.960000 -1.080000 7.200000 -41.586433 -28.559036 2545.049805
2.960000 -1.040000 6.800000 -45.320965 42.201462 3834.953125
2.960000 -1.040000 6.840000 -121.185158 -6.155962 14723.738281
2.960000 -1.040000 6.880000 -137.993378 -120.048317 33453.769531
2.960000 -1.040000 6.920000 -52.295567 -225.570709 53616.968750
2.960000 -1.040000 6.960000 96.719475 -236.448013 65262.320312
2.960000 -1.040000 7.000000 210.102280 -132.694244 61750.730469
2.960000 -1.040000 7.040000 211.282776 15.746634 44888.367188
2.960000 -1.040000 7.080000 111.473351 106.619888 23794.109375
2.960000 -1.040000 7.120000 -3.513826 91.242249 8337.494141
2.960000 -1.040000 7.160000 -50.792336 8.699520 2655.542969
2.960000 -1.040000 7.200000 -17.425322 -59.407131 3832.849121
2.960000 -1.000000 6.800000 -65.793671 -3.705883 4342.540527
2.960000 -1.000000 6.840000 -104.011993 -89.614883 18849.322266
2.960000 -1.000000 6.880000 -52.491718 -200.488327 42950.949219
2.960000 -1.000000 6.920000 86.037933 -245.876114 67857.585938
2.960000 -1.000000 6.960000 228.217880 -170.437988 81132.507812
2.960000 -1.000000 7.000000 274.057587 -11.335806 75236.062500
2.960000 -1.000000 7.040000 193.387680 125.996063 53273.800781
2.960000 -1.000000 7.080000 52.803944 155.456604 26955.011719
2.960000 -1.000000 7.120000 -43.275604 80.300087 8320.881836
2.960000 -1.000000 7.160000 -41.269882 -18.427502 2042.775879
2.960000 -1.000000 7.200000 25.556047 -59.450668 4187.493652
2.960000 -0.960000 6.800000 -43.787563 -46.917995 4118.648926
2.960000 -0.960000 6.840000 -29.264305 -132.341339 18370.630859
2.960000 -0.960000 6.880000 67.398453 -192.204056 41484.949219
2.960000 -0.960000 6.920000 199.295731 -157.984070 64677.757812
2.960000 -0.960000 6.960000 274.833435 -27.650219 76297.945312
2.960000 -0.960000 7.000000 234.482361 121.593300 69766.906250
2.960000 -0.960000 7.040000 105.322617 193.442764 48512.953125
2.960000 -0.960000 7.080000 -20.054308 152.581558 23683.308594
2.960000 -0.960000 7.120000 -61.997330 50.652229 6409.317383
2.960000 -0.960000 7.160000 -16.712381 -24.260139 867.858032
2.960000 -0.960000 7.200000 52.041294 -24.368393 3302.114990
2.960000 -0.920000 6.800000 0.906212 -56.753971 3221.834473
2.960000 -0.920000 6.840000 48.830627 -105.912415 13601.869141
2.960000 -0.920000 6.880000 139.333969 -102.561172 29932.750000
2.960000 -0.920000 6.920000 212.914749 -22.497528 45838.832031
2.960000 -0.920000 6.960000 209.481171 97.467995 53382.367188
2.960000 -0.920000 7.000000 121.836166 183.093597 48367.316406
2.960000 -0.920000 7.040000 5.834736 182.629807 33387.687500
2.960000 -0.920000 7.080000 -64.668640 109.141296 16093.855469
2.960000 -0.920000 7.120000 -57.642685 26.475018 4023.605713
2.960000 -0.920000 7.160000 -3.551647 -6.862782 59.711967
2.960000 -0.920000 7.200000 38.728928 16.609074 1775.791138
2.960000 -0.880000 6.800000 34.085201 -31.260174 2138.999512
2.960000 -0.880000 6.840000 77.422188 -37.111874 7371.486328
2.960000 -0.880000 6.880000 122.788536 -1.455215 15079.141602
2.960000 -0.880000 6.920000 133.398590 66.722412 22247.064453
2.960000 -0.880000 6.960000 92.353149 130.206314 25482.789062
2.960000 -0.880000 7.000000 18.884888 150.958481 23145.101562
2.960000 -0.880000 7.040000 -45.121189 119.962463 16426.914062
2.960000 -0.880000 7.080000 -67.394081 63.373329 8558.141602
2.960000 -0.880000 7.120000 -48.442665 20.082129 2749.983887
2.960000 -0.880000 7.160000 -16.588852 11.133001 399.133728
2.960000 -0.880000 7.200000 -1.639476 27.245573 745.009094
2.960000 -0.840000 6.800000 36.124599 5.247670 1332.524780
2.960000 -0.840000 6.840000 48.699100 19.165497 2738.918457
2.960000 -0.840000 6.880000 50.181690 42.269814 4304.939453
2.960000 -0.840000 6.920000 37.031784 64.642723 5550.034668
2.960000 -0.840000 6.960000 13.106003 77.538612 6184.003418
2.960000 -0.840000 7.000000 -14.077888 77.115326 6144.960449
2.960000 -0.840000 7.040000 -37.094788 64.319809 5513.061035
2.960000 -0.840000 7.080000 -50.431572 43.502052 4435.771973
2.960000 -0.840000 7.120000 -51.671154 21.379004 3126.969971
2.960000 -0.840000 7.160000 -43.031261 5.183907 1878.562378
2.960000 -0.840000 7.200000 -31.358036 -1.072638 984.476990
2.960000 -0.800000 6.800000 14.690336 26.214895 903.026672
2.960000 -0.800000 6.840000 -0.191867 29.202484 852.821899
2.960000 -0.800000 6.880000 -10.078930 18.413368 440.636963
2.960000 -0.800000 6.920000 -3.966476 6.552123 58.663246
2.960000 -0.800000 6.960000 10.639771 10.669357 227.039902
2.960000 -0.800000 7.000000 12.966368 31.927231 1187.474731
2.960000 -0.800000 7.040000 -9.224237 50.680653 2653.615234
2.960000 -0.800000 7.080000 -44.155128 44.486462 3928.720703
2.960000 -0.800000 7.120000 -64.820702 11.442017 4332.643066
2.960000 -0.800000 7.160000 -54.539555 -25.920073 3646.413086
2.960000 -0.800000 7.200000 -23.295582 -41.376324 2254.684326
3.000000 -1.200000 6.800000 42.661324 -33.065491 2913.315186
3.000000 -1.200000 6.840000 41.924171 -9.753136 1852.759766
3.000000 -1.200000 6.880000 27.785267 3.492260 784.216919
3.000000 -1.200000 6.920000 13.996700 1.807503 199.174683
3.000000 -1.200000 6.960000 11.080305 -6.327164 162.806168
3.000000 -1.200000 7.000000 17.160496 -8.893852 373.583221
3.000000 -1.200000 7.040000 22.087944 -2.351628 493.407410
3.000000 -1.200000 7.080000 19.111435 6.751343 410.827576
3.000000 -1.200000 7.120000 10.859373 10.723106 232.910995
3.000000 -1.200000 7.160000 4.155250 9.024006 98.698784
3.000000 -1.200000 7.200000 1.244163 6.777854 47.487244
3.000000 -1.160000 6.800000 48.450584 9.218861 2432.446533
3.000000 -1.160000 6.840000 21.270071 34.828796 1665.460938
3.000000 -1.160000 6.880000 -18.204453 30.245247 1246.177002
3.000000 -1.160000 6.920000 -39.730137 -4.026825 1594.699097
3.000000 -1.160000 6.960000 -25.954689 -41.734711 2415.432129
3.000000 -1.160000 7.000000 11.382042 -53.472298 2988.837402
3.000000 -1.160000 7.040000 42.241852 -32.225792 2822.875732
3.000000 -1.160000 7.080000 44.965000 2.548447 2028.345825
3.000000 -1.160000 7.120000 22.867165 24.503906 1123.348633
3.000000 -1.160000 7.160000 -3.350889 22.949856 537.924316
3.000000 -1.160000 7.200000 -16.587025 7.306426 328.513245
3.000000 -1.120000 6.800000 17.957249 43.032261 2174.238281
3.000000 -1.120000 6.840000 -37.911369 47.897820 3731.473145
3.000000 -1.120000 6.880000 -85.398407 0.439957 7293.081055
3.000000 -1.120000 6.920000 -79.860146 -74.876617 11984.150391
3.000000 -1.120000 6.960000 -15.632942 -123.270706 15440.055664
3.000000 -1.120000 7.000000 64.029099 -106.861771 15519.164062
3.000000 -1.120000 7.040000 102.689667 -38.835129 12053.334961
3.000000 -1.120000 7.080000 78.716629 28.656662 7017.511719
3.000000 -1.120000 7.120000 20.299070 50.546459 2966.996826
3.000000 -1.120000 7.160000 -24.267246 24.392185 1183.877930
3.000000 -1.120000 7.200000 -29.448528 -15.893799 1119.828613
3.000000 -1.080000 6.800000 -29.090874 41.055454 2531.829102
3.000000 -1.080000 6.840000 -93.709839 3.313484 8792.513672
3.000000 -1.080000 6.880000 -110.289818 -89.854477 20237.671875
3.000000 -1.080000 6.920000 -42.192875 -177.001251 33109.683594
3.000000 -1.080000 6.960000 77.978859 -186.712402 40942.222656
3.000000 -1.080000 7.000000 168.695129 -103.258369 39120.335938
3.000000 -1.080000 7.040000 168.258469 15.304470 28545.138672
3.000000 -1.080000 7.080000 87.443451 86.256119 15086.474609
3.000000 -1.080000 7.120000 -3.732464 72.215736 5229.043945
3.000000 -1.080000 7.160000 -40.192833 6.363400 1655.956665
3.000000 -1.080000 7.200000 -14.150246 -46.647171 2376.187988
3.000000 -1.040000 6.800000 -57.557877 2.962509 3321.685547
3.000000 -1.040000 6.840000 -95.936150 -76.893845 15116.408203
3.000000 -1.040000 6.880000 -49.666958 -182.381302 35729.742188
3.000000 -1.040000 6.920000 79.971527 -226.815552 57840.738281
3.000000 -1.040000 6.960000 213.649597 -156.844879 70246.468750
3.000000 -1.040000 7.000000 256.186157 -8.032280 65695.859375
3.000000 -1.040000 7.040000 179.809677 119.306198 46565.488281
3.000000 -1.040000 7.080000 48.690041 144.754166 23324.488281
3.000000 -1.040000 7.120000 -39.081688 73.494400 6928.805176
3.000000 -1.040000 7.160000 -35.657455 -17.340672 1572.152954
3.000000 -1.040000 7.200000 25.316074 -53.631039 3517.191895
3.000000 -1.000000 6.800000 -45.970234 -42.704391 3936.927490
3.000000 -1.000000 6.840000 -32.964096 -135.063965 19328.906250
3.000000 -1.000000 6.880000 70.390350 -201.917053 45725.296875
3.000000 -1.000000 6.920000 213.848557 -166.336136 73398.921875
3.000000 -1.000000 6.960000 296.048889 -25.067299 88273.312500
3.000000 -1.000000 7.000000 251.122772 136.475586 81688.234375
3.000000 -1.000000 7.040000 109.937485 212.135376 57087.667969
3.000000 -1.000000 7.080000 -24.746269 164.757690 27757.472656
3.000000 -1.000000 7.120000 -66.912842 53.355103 7324.095703
3.000000 -1.000000 7.160000 -15.857706 -25.644997 909.132690
3.000000 -1.000000 7.200000 56.751656 -23.650288 3780.086670
3.000000 -0.960000 6.800000 -4.438450 -62.036942 3868.281982
3.000000 -0.960000 6.840000 53.529057 -126.604874 18894.154297
3.000000 -0.960000 6.880000 169.030792 -125.375275 44290.367188
3.000000 -0.960000 6.920000 264.486450 -23.810822 70520.039062
3.000000 -0.960000 6.960000 259.400391 130.451202 84306.078125
3.000000 -0.960000 7.000000 144.190384 238.584930 77713.640625
3.000000 -0.960000 7.040000 -5.712444 232.647385 54157.437500
3.000000 -0.960000 7.080000 -92.303772 132.765823 26146.750000
3.000000 -0.960000 7.120000 -76.416138 25.719330 6500.910156
3.000000 -0.960000 7.160000 -2.794964 -13.050190 178.119293
3.000000 -0.960000 7.200000 50.117126 20.734776 2941.657227
3.000000 -0.920000 6.800000 34.913082 -43.494759 3110.717285
3.000000 -0.920000 6.840000 102.848587 -59.365730 14102.122070
3.000000 -0.920000 6.880000 179.562317 -6.154156 32280.498047
3.000000 -0.920000 6.920000 199.441757 104.980362 50797.890625
3.000000 -0.920000 6.960000 129.998856 208.764587 60482.355469
3.000000 -0.920000 7.000000 5.793762 236.462402 55948.035156
3.000000 -0.920000 7.040000 -96.299652 173.914612 39519.914062
3.000000 -0.920000 7.080000 -119.958145 72.857086 19698.111328
3.000000 -0.920000 7.120000 -72.870834 5.037601 5335.536133
3.000000 -0.920000 7.160000 -12.424583 2.769167 162.038559
3.000000 -0.920000 7.200000 9.066666 40.017456 1683.601196
3.000000 -0.880000 6.800000 45.565231 -4.984689 2101.037354
3.000000 -0.880000 6.840000 86.964348 14.422169 7770.796875
3.000000 -0.880000 6.880000 106.919701 72.354767 16667.035156
3.000000 -0.880000 6.920000 77.098633 139.955124 25531.636719
3.000000 -0.880000 6.960000 3.317398 174.006790 30289.369141
3.000000 -0.880000 7.000000 -75.567863 151.259399 28589.908203
3.000000 -0.880000 7.040000 -117.144997 87.338081 21350.890625
3.000000 -0.880000 7.080000 -107.624687 23.348804 12128.240234
3.000000 -0.880000 7.120000 -68.906273 -7.260426 4800.788086
3.000000 -0.880000 7.160000 -36.426262 -1.993530 1330.846680
3.000000 -0.880000 7.200000 -29.767172 15.668173 1131.576172
3.000000 -0.840000 6.800000 26.573784 24.446980 1303.820801
3.000000 -0.840000 6.840000 30.721617 45.231445 2989.701416
3.000000 -0.840000 6.880000 18.209721 69.161385 5114.890625
3.000000 -0.840000 6.920000 -9.280304 83.515167 7060.907227
3.000000 -0.840000 6.960000 -42.212318 80.879295 8323.339844
3.000000 -0.840000 7.000000 -69.614639 61.890259 8676.602539
3.000000 -0.840000 7.040000 -84.034836 32.923943 8145.839355
3.000000 -0.840000 7.080000 -83.015549 2.534153 6898.003418
3.000000 -0.840000 7.120000 -68.903229 -21.044823 5190.539551
3.000000 -0.840000 7.160000 -48.412952 -32.247974 3383.745850
3.000000 -0.840000 7.200000 -30.586525 -31.008690 1897.074341
3.000000 -0.800000 6.800000 -1.773300 29.411785 868.197693
3.000000 -0.800000 6.840000 -16.400679 26.370211 964.370239
3.000000 -0.800000 6.880000 -21.798645 14.082682 673.502869
3.000000 -0.800000 6.920000 -14.805771 7.289845 272.352692
3.000000 -0.800000 6.960000 -9.049877 15.523994 322.894684
3.000000 -0.800000 7.000000 -20.744528 29.218971 1284.083740
3.000000 -0.800000 7.040000 -48.526211 26.888683 3077.794434
3.000000 -0.800000 7.080000 -70.419228 -2.029430 4962.986328
3.000000 -0.800000 7.120000 -63.916042 -42.827648 5919.467773
3.000000 -0.800000 7.160000 -29.449797 -66.837059 5334.482910
3.000000 -0.800000 7.200000 7.940676 -58.564987 3492.912109
3.040000 -1.200000 6.800000 43.151917 2.823056 1870.057495
3.040000 -1.200000 6.840000 30.419678 17.189898 1220.849365
3.040000 -1.200000 6.880000 14.370495 17.490425 512.426086
3.040000 -1.200000 6.920000 7.071694 8.206726 117.359207
3.040000 -1.200000 6.960000 10.706150 1.022583 115.667328
3.040000 -1.200000 7.000000 17.159378 2.817960 302.385132
3.040000 -1.200000 7.040000 17.815144 10.180469 421.021271
3.040000 -1.200000 7.080000 11.990797 15.276606 377.153900
3.040000 -1.200000 7.120000 5.316763 14.950405 251.782593
3.040000 -1.200000 7.160000 1.649689 12.506821 159.142029
3.040000 -1.200000 7.200000 -0.983428 11.410061 131.156616
3.040000 -1.160000 6.800000 24.031956 30.529654 1509.594727
3.040000 -1.160000 6.840000 -6.550638 35.039036 1270.644897
3.040000 -1.160000 6.880000 -31.704044 12.565590 1163.040527
3.040000 -1.160000 6.920000 -30.149632 -22.351994 1408.611938
3.040000 -1.160000 6.960000 -1.954887 -42.986244 1851.638672
3.040000 -1.160000 7.000000 30.836212 -34.094757 2113.324463
3.040000 -1.160000 7.040000 43.844650 -4.644291 1943.922852
3.040000 -1.160000 7.080000 30.727182 21.881733 1422.969971
3.040000 -1.160000 7.120000 5.465729 28.556688 845.358643
3.040000 -1.160000 7.160000 -13.004221 16.841297 452.739075
3.040000 -1.160000 7.200000 -16.805578 0.208767 282.471039
3.040000 -1.120000 6.800000 -11.921606 33.674957 1276.127441
3.040000 -1.120000 6.840000 -52.747471 11.962593 2925.399414
3.040000 -1.120000 6.880000 -64.465576 -43.683640 6064.070801
3.040000 -1.120000 6.920000 -25.386597 -95.552292 9774.719727
3.040000 -1.120000 6.960000 43.968689 -101.262238 12187.287109
3.040000 -1.120000 7.000000 95.072632 -52.871742 11834.226562
3.040000 -1.120000 7.040000 92.958176 14.508995 8851.733398
3.040000 -1.120000 7.080000 45.511856 53.310143 4913.300293
3.040000 -1.120000 7.120000 -6.564363 43.618515 1945.665649
3.040000 -1.120000 7.160000 -27.316195 5.330179 774.585327
3.040000 -1.120000 7.200000 -13.521025 -25.732609 844.985291
3.040000 -1.080000 6.800000 -38.052288 6.765074 1493.742920
3.040000 -1.080000 6.840000 -66.404434 -48.050159 6718.366699
3.040000 -1.080000 6.880000 -35.729412 -122.188904 16206.718750
3.040000 -1.080000 6.920000 53.937126 -154.195099 26685.341797
3.040000 -1.080000 6.960000 146.733521 -106.096420 32787.175781
3.040000 -1.080000 7.000000 175.684143 -3.066101 30874.318359
3.040000 -1.080000 7.040000 121.803116 84.331894 21947.867188
3.040000 -1.080000 7.080000 30.613022 100.348938 11007.066406
3.040000 -1.080000 7.120000 -29.593742 49.577835 3333.751221
3.040000 -1.080000 7.160000 -26.548063 -13.964252 899.800049
3.040000 -1.080000 7.200000 15.618644 -39.714359 1821.172363
3.040000 -1.040000 6.800000 -33.395222 -31.040169 2078.732910
3.040000 -1.040000 6.840000 -24.955944 -103.926918 11423.603516
3.040000 -1.040000 6.880000 56.519981 -158.501190 28317.134766
3.040000 -1.040000 6.920000 171.762726 -131.025406 46670.089844
3.040000 -1.040000 6.960000 238.116913 -17.569641 57008.355469
3.040000 -1.040000 7.000000 201.289673 112.442627 53160.875000
3.040000 -1.040000 7.040000 86.543449 172.221191 37149.906250
3.040000 -1.040000 7.080000 -21.894867 131.885513 17873.173828
3.040000 -1.040000 7.120000 -54.259487 40.494068 4583.861328
3.040000 -1.040000 7.160000 -11.291412 -23.251633 668.134399
3.040000 -1.040000 7.200000 47.773880 -21.113636 2728.129150
3.040000 -1.000000 6.800000 -1.148235 -51.042843 2606.690186
3.040000 -1.000000 6.840000 49.319016 -110.304695 14599.491211
3.040000 -1.000000 6.880000 154.857391 -110.809273 36259.507812
3.040000 -1.000000 6.920000 243.607117 -17.648468 59655.894531
3.040000 -1.000000 6.960000 238.619110 125.675354 72733.375000
3.040000 -1.000000 7.000000 129.980927 225.466263 67730.078125
3.040000 -1.000000 7.040000 -10.443684 217.085785 47235.308594
3.040000 -1.000000 7.080000 -89.269806 120.607506 22515.269531
3.040000 -1.000000 7.120000 -70.467628 19.683720 5353.135254
3.040000 -1.000000 7.160000 1.281462 -14.571239 213.963165
3.040000 -1.000000 7.200000 50.751724 19.323578 2949.138184
3.040000 -0.960000 6.800000 33.893997 -39.066502 2674.994629
3.040000 -0.960000 6.840000 104.544502 -58.610390 14364.730469
3.040000 -0.960000 6.880000 188.109802 -3.442503 35397.148438
3.040000 -0.960000 6.920000 210.611237 117.112869 58072.515625
3.040000 -0.960000 6.960000 133.576065 230.260284 70862.359375
3.040000 -0.960000 7.000000 -4.298195 257.491577 66320.390625
3.040000 -0.960000 7.040000 -114.871445 183.194031 46755.503906
3.040000 -0.960000 7.080000 -134.504333 68.315918 22758.480469
3.040000 -0.960000 7.120000 -74.960739 -4.370018 5638.209473
3.040000 -0.960000 7.160000 -4.812124 -0.502968 23.409517
3.040000 -0.960000 7.200000 16.813648 45.650818 2366.695801
3.040000 -0.920000 6.800000 46.709625 -6.347422 2222.078857
3.040000 -0.920000 6.840000 103.326820 13.933270 10870.567383
3.040000 -0.920000 6.880000 134.483994 90.240776 26229.343750
3.040000 -0.920000 6.920000 95.443214 183.470673 42770.894531
3.040000 -0.920000 6.960000 -7.749718 228.709091 52367.906250
3.040000 -0.920000 7.000000 -116.297165 190.173676 49691.058594
3.040000 -0.920000 7.040000 -165.322006 93.686356 36108.500000
3.040000 -0.920000 7.080000 -137.019958 4.957811 18799.048828
3.040000 -0.920000 7.120000 -71.204926 -26.085718 5750.606445
3.040000 -0.920000 7.160000 -25.572891 -2.827702 661.968689
3.040000 -0.920000 7.200000 -25.712082 30.917282 1616.989502
3.040000 -0.880000 6.800000 32.126530 22.162577 1523.293701
3.040000 -0.880000 6.840000 53.850342 56.956532 6143.905762
3.040000 -0.880000 6.880000 40.151634 111.326790 14005.807617
3.040000 -0.880000 6.920000 -17.143600 148.761261 22423.814453
3.040000 -0.880000 6.960000 -92.241837 138.269058 27626.888672
3.040000 -0.880000 7.000000 -143.393951 80.830048 27095.322266
3.040000 -0.880000 7.040000 -145.366409 9.356277 21218.931641
3.040000 -0.880000 7.080000 -107.527489 -37.834076 12993.578125
3.040000 -0.880000 7.120000 -62.542515 -45.831909 6012.129883
3.040000 -0.880000 7.160000 -38.015892 -29.443783 2312.144287
3.040000 -0.880000 7.200000 -37.319057 -14.730082 1609.687378
3.040000 -0.840000 6.800000 5.633377 29.751627 916.894226
3.040000 -0.840000 6.840000 -1.170113 49.660374 2467.521973
3.040000 -0.840000 6.880000 -24.609016 63.738350 4668.180664
3.040000 -0.840000 6.920000 -56.391266 61.064388 6908.834473
3.040000 -0.840000 6.960000 -83.530754 40.060616 8582.239258
3.040000 -0.840000 7.000000 -96.333702 7.693108 9339.366211
3.040000 -0.840000 7.040000 -91.979813 -25.887684 9130.458008
3.040000 -0.840000 7.080000 -73.438736 -51.914047 8088.316406
3.040000 -0.840000 7.120000 -47.218906 -64.844398 6434.420898
3.040000 -0.840000 7.160000 -21.775240 -63.359711 4488.613770
3.040000 -0.840000 7.200000 -5.080057 -51.616699 2690.090576
3.040000 -0.800000 6.800000 -13.514160 19.183784 550.650085
3.040000 -0.800000 6.840000 -24.829010 13.083368 787.654297
3.040000 -0.800000 6.880000 -27.247807 2.162262 747.118286
3.040000 -0.800000 6.920000 -23.002201 -2.158218 533.759155
3.040000 -0.800000 6.960000 -24.563881 1.742912 606.421936
3.040000 -0.800000 7.000000 -38.701813 0.947487 1498.728027
3.040000 -0.800000 7.040000 -54.589409 -18.300972 3314.929199
3.040000 -0.800000 7.080000 -51.726494 -52.333973 5414.474609
3.040000 -0.800000 7.120000 -21.653648 -78.734459 6667.995605
3.040000 -0.800000 7.160000 19.730433 -76.397125 6225.810547
3.040000 -0.800000 7.200000 44.597534 -47.343937 4230.388184
3.080000 -1.200000 6.800000 18.198427 25.630606 988.110718
3.080000 -1.200000 6.840000 4.039785 26.261415 705.981812
3.080000 -1.200000 6.880000 -4.577774 17.430696 324.785217
3.080000 -1.200000 6.920000 -3.340988 7.966932 74.634216
3.080000 -1.200000 6.960000 2.744843 5.282756 35.441669
3.080000 -1.200000 7.000000 5.931923 8.612818 109.368347
3.080000 -1.200000 7.040000 3.967964 11.862747 156.469513
3.080000 -1.200000 7.080000 0.734224 11.492775 132.622955
3.080000 -1.200000 7.120000 -0.178725 9.716094 94.434425
3.080000 -1.200000 7.160000 -0.214777 9.885474 97.768730
3.080000 -1.200000 7.200000 -3.006191 10.828770 126.299438
3.080000 -1.160000 6.800000 -5.695815 26.277466 722.947510
3.080000 -1.160000 6.840000 -24.018368 15.876004 828.929565
3.080000 -1.160000 6.880000 -28.780396 -7.594236 885.983582
3.080000 -1.160000 6.920000 -13.450817 -27.696508 948.021057
3.080000 -1.160000 6.960000 11.705509 -29.329643 997.246948
3.080000 -1.160000 7.000000 28.522198 -12.208504 962.563293
3.080000 -1.160000 7.040000 26.640783 9.703068 803.880859
3.080000 -1.160000 7.080000 10.858682 21.124760 564.166443
3.080000 -1.160000 7.120000 -5.448634 17.516018 336.498505
3.080000 -1.160000 7.160000 -12.535933 5.689070 189.515137
3.080000 -1.160000 7.200000 -10.177601 -4.926923 127.858124
3.080000 -1.120000 6.800000 -22.207150 6.711856 538.206543
3.080000 -1.120000 6.840000 -36.193253 -20.134163 1715.336060
3.080000 -1.120000 6.880000 -21.503815 -56.487335 3653.233154
3.080000 -1.120000 6.920000 21.651489 -72.315506 5698.319336
3.080000 -1.120000 6.960000 65.966240 -49.631424 6814.823242
3.080000 -1.120000 7.000000 79.555801 -1.127083 6330.395996
3.080000 -1.120000 7.040000 54.084507 39.513908 4486.482910
3.080000 -1.120000 7.080000 11.451710 46.491028 2292.557373
3.080000 -1.120000 7.120000 -16.630049 22.412973 778.899902
3.080000 -1.120000 7.160000 -15.538862 -7.818486 302.584961
3.080000 -1.120000 7.200000 3.880415 -21.341442 470.514771
3.080000 -1.080000 6.800000 -16.719484 -19.418854 656.633057
3.080000 -1.080000 6.840000 -12.696680 -59.038406 3646.739258
3.080000 -1.080000 6.880000 32.597740 -90.066483 9174.583984
3.080000 -1.080000 6.920000 98.127792 -75.061432 15263.282227
3.080000 -1.080000 6.960000 136.418365 -10.534481 18720.945312
3.080000 -1.080000 7.000000 115.492996 63.978645 17431.898438
3.080000 -1.080000 7.040000 49.444027 98.128525 12073.918945
3.080000 -1.080000 7.080000 -13.027756 74.288284 5688.471680
3.080000 -1.080000 7.120000 -31.323727 20.736235 1411.167236
3.080000 -1.080000 7.160000 -5.704502 -16.848579 316.415985
3.080000 -1.080000 7.200000 29.584019 -16.178663 1136.963379
3.080000 -1.040000 6.800000 7.874762 -31.358294 1045.354492
3.080000 -1.040000 6.840000 37.906380 -67.949249 6053.994141
3.080000 -1.040000 6.880000 105.165527 -68.879166 15804.126953
3.080000 -1.040000 6.920000 163.481079 -8.347206 26795.738281
3.080000 -1.040000 6.960000 160.387146 86.646698 33231.687500
3.080000 -1.040000 7.000000 87.518898 153.259659 31148.082031
3.080000 -1.040000 7.040000 -7.179863 146.806152 21603.597656
3.080000 -1.040000 7.080000 -59.829342 80.321823 10031.145508
3.080000 -1.040000 7.120000 -45.407425 11.104471 2185.143555
3.080000 -1.040000 7.160000 5.257936 -11.765871 166.081604
3.080000 -1.040000 7.200000 40.039886 12.501644 1759.483643
3.080000 -1.000000 6.800000 32.583580 -19.319273 1434.924072
3.080000 -1.000000 6.840000 81.115501 -33.942795 7731.837891
3.080000 -1.000000 6.880000 142.414444 5.759587 20315.044922
3.080000 -1.000000 6.920000 159.516327 96.301872 34719.507812
3.080000 -1.000000 6.960000 100.198746 182.682449 43412.667969
3.080000 -1.000000 7.000000 -6.997114 202.599731 41095.613281
3.080000 -1.000000 7.040000 -92.549164 142.570099 28891.580078
3.080000 -1.000000 7.080000 -105.326126 50.967339 13691.262695
3.080000 -1.000000 7.120000 -54.998905 -5.530443 3055.465332
3.080000 -1.000000 7.160000 2.405740 0.374500 5.927835
3.080000 -1.000000 7.200000 19.033007 39.677444 1936.554932
3.080000 -0.960000 6.800000 38.688148 6.889023 1544.231445
3.080000 -0.960000 6.840000 85.040100 21.585018 7697.731934
3.080000 -0.960000 6.880000 112.626007 86.326904 20136.951172
3.080000 -0.960000 6.920000 78.317657 168.568756 34549.082031
3.080000 -0.960000 6.960000 -15.100580 208.199799 43575.183594
3.080000 -0.960000 7.000000 -113.472221 170.277512 41870.375000
3.080000 -0.960000 7.040000 -154.967346 78.776306 30220.585938
3.080000 -0.960000 7.080000 -122.889145 -2.936691 15110.366211
3.080000 -0.960000 7.120000 -57.135944 -27.009434 3994.025635
3.080000 -0.960000 7.160000 -14.590519 1.144611 214.193375
3.080000 -0.960000 7.200000 -18.639666 36.340508 1668.069580
3.080000 -0.920000 6.800000 23.665855 27.182852 1298.980103
3.080000 -0.920000 6.840000 48.423508 60.150856 5962.961914
3.080000 -0.920000 6.880000 36.473679 118.400696 15349.053711
3.080000 -0.920000 6.920000 -26.019657 160.172165 26332.146484
3.080000 -0.920000 6.960000 -110.280884 146.317383 33570.648438
3.080000 -0.920000 7.000000 -164.748077 76.811935 33042.003906
3.080000 -0.920000 7.040000 -157.975601 -6.345331 24996.554688
3.080000 -0.920000 7.080000 -104.450378 -54.060249 13832.392578
3.080000 -0.920000 7.120000 -49.265469 -50.191216 4946.244629
3.080000 -0.920000 7.160000 -27.593275 -19.651533 1147.571533
3.080000 -0.920000 7.200000 -38.052292 0.060623 1447.980591
3.080000 -0.880000 6.800000 1.544242 29.249420 857.913269
3.080000 -0.880000 6.840000 0.729609 59.228836 3508.587158
3.080000 -0.880000 6.880000 -30.942184 87.610428 8633.005859
3.080000 -0.880000 6.920000 -84.079117 87.054977 14647.867188
3.080000 -0.880000 6.960000 -129.099991 47.690578 18941.199219
3.080000 -0.880000 7.000000 -138.977158 -12.823555 19479.093750
3.080000 -0.880000 7.040000 -110.510132 -62.697044 16143.408203
3.080000 -0.880000 7.080000 -65.118088 -80.687256 10750.798828
3.080000 -0.880000 7.120000 -29.749735 -69.919540 5773.789062
3.080000 -0.880000 7.160000 -16.379313 -50.285095 2796.872803
3.080000 -0.880000 7.200000 -17.597961 -39.190773 1845.604980
3.080000 -0.840000 6.800000 -11.806070 17.590427 448.806427
3.080000 -0.840000 6.840000 -25.409943 29.208023 1498.773682
3.080000 -0.840000 6.880000 -48.941395 28.642193 3215.635254
3.080000 -0.840000 6.920000 -70.814339 11.526657 5147.534180
3.080000 -0.840000 6.960000 -80.483032 -17.025719 6767.393555
3.080000 -0.840000 7.000000 -74.180489 -47.186401 7729.301758
3.080000 -0.840000 7.040000 -54.614574 -70.345016 7931.172852
3.080000 -0.840000 7.080000 -27.676258 -81.515526 7410.755859
3.080000 -0.840000 7.120000 -0.327974 -79.077576 6253.370605
3.080000 -0.840000 7.160000 20.173962 -65.047249 4638.133301
3.080000 -0.840000 7.200000 28.548405 -45.976139 2928.816895
3.080000 -0.800000 6.800000 -12.873442 5.658462 197.743683
3.080000 -0.800000 6.840000 -21.576756 -0.877626 466.326599
3.080000 -0.800000 6.880000 -22.976559 -10.653671 641.422974
3.080000 -0.800000 6.920000 -20.487347 -16.142136 680.299927
3.080000 -0.800000 6.960000 -22.037552 -19.125198 851.426880
3.080000 -0.800000 7.000000 -27.463287 -29.121389 1602.287476
3.080000 -0.800000 7.040000 -25.025650 -49.993511 3125.634277
3.080000 -0.800000 7.080000 -3.614346 -70.440430 4974.917480
3.080000 -0.800000 7.120000 31.772697 -71.839760 6170.455566
3.080000 -0.800000 7.160000 60.028980 -47.560562 5865.485352
3.080000 -0.800000 7.200000 62.581547 -12.930302 4083.642578
3.120000 -1.200000 6.800000 -12.384475 21.331297 608.399414
3.120000 -1.200000 6.840000 -18.155186 13.112007 501.535522
3.120000 -1.200000 6.880000 -16.759430 4.009597 296.955353
3.120000 -1.200000 6.920000 -11.115408 -0.417356 123.726479
3.120000 -1.200000 6.960000 -6.777489 -0.218395 45.982048
3.120000 -1.200000 7.000000 -5.498791 0.316162 30.336658
3.120000 -1.200000 7.040000 -4.215348 -1.185680 19.174995
3.120000 -1.200000 7.080000 -0.228169 -2.202084 4.901233
3.120000 -1.200000 7.120000 4.298615 0.797003 19.113300
3.120000 -1.200000 7.160000 4.587575 6.702953 65.975426
3.120000 -1.200000 7.200000 -0.351972 9.930680 98.742294
3.120000 -1.160000 6.800000 -19.497879 2.916716 388.674530
3.120000 -1.160000 6.840000 -21.395855 -7.296447 511.020752
3.120000 -1.160000 6.880000 -14.895567 -18.153065 551.411682
3.120000 -1.160000 6.920000 -1.953886 -22.193426 496.365814
3.120000 -1.160000 6.960000 10.000345 -16.720110 379.568970
3.120000 -1.160000 7.000000 14.597784 -5.968132 248.713898
3.120000 -1.160000 7.040000 11.352344 3.090488 138.426819
3.120000 -1.160000 7.080000 4.710979 6.379945 62.897026
3.120000 -1.160000 7.120000 -0.476279 4.585146 21.250404
3.120000 -1.160000 7.160000 -2.175681 0.806116 5.383411
3.120000 -1.160000 7.200000 -0.899117 -2.373897 6.443796
3.120000 -1.120000 6.800000 -8.082045 -15.206816 296.566681
3.120000 -1.120000 6.840000 -5.119952 -26.697588 738.975159
3.120000 -1.120000 6.880000 10.405614 -36.070415 1409.351685
3.120000 -1.120000 6.920000 32.657902 -31.026043 2029.153931
3.120000 -1.120000 6.960000 46.544800 -9.735477 2261.197998
3.120000 -1.120000 7.000000 41.296379 15.533020 1946.665527
3.120000 -1.120000 7.040000 20.766766 28.428261 1239.424561
3.120000 -1.120000 7.080000 0.261742 22.562525 509.136047
3.120000 -1.120000 7.120000 -6.768790 6.182974 84.045685
3.120000 -1.120000 7.160000 0.621456 -6.253373 39.490883
3.120000 -1.120000 7.200000 12.272696 -6.801933 196.885345
3.120000 -1.080000 6.800000 14.891480 -16.865421 506.198639
3.120000 -1.080000 6.840000 24.436337 -27.201595 1337.061279
3.120000 -1.080000 6.880000 48.734173 -26.954891 3101.585693
3.120000 -1.080000 6.920000 71.666351 -3.433643 5147.855957
3.120000 -1.080000 6.960000 71.369759 35.127586 6327.589844
3.120000 -1.080000 7.000000 42.212029 63.690552 5838.341797
3.120000 -1.080000 7.040000 2.579727 62.418880 3902.771729
3.120000 -1.080000 7.080000 -20.409166 35.063633 1645.992432
3.120000 -1.080000 7.120000 -14.700869 5.406348 245.344147
3.120000 -1.080000 7.160000 7.527530 -4.637437 78.169525
3.120000 -1.080000 7.200000 23.444351 6.450113 591.241516
3.120000 -1.040000 6.800000 30.961349 1.611955 961.203552
3.120000 -1.040000 6.840000 46.601105 -2.845353 2179.758789
3.120000 -1.040000 6.880000 71.146301 13.703822 5249.591309
3.120000 -1.040000 6.920000 78.680389 54.331226 9142.485352
3.120000 -1.040000 6.960000 50.884056 95.404495 11691.205078
3.120000 -1.040000 7.000000 -1.440945 105.698486 11174.246094
3.120000 -1.040000 7.040000 -44.498474 76.012901 7758.075195
3.120000 -1.040000 7.080000 -51.008705 29.272068 3458.741943
3.120000 -1.040000 7.120000 -24.356022 0.161003 593.241760
3.120000 -1.040000 7.160000 6.454823 4.172287 59.072723
3.120000 -1.040000 7.200000 15.229385 26.454363 931.767456
3.120000 -1.000000 6.800000 26.088306 26.552002 1385.608521
3.120000 -1.000000 6.840000 42.995613 31.900352 2866.255371
3.120000 -1.000000 6.880000 55.130318 62.226154 6911.446289
3.120000 -1.000000 6.920000 36.744926 104.522087 12275.055664
3.120000 -1.000000 6.960000 -14.854490 125.825874 16052.806641
3.120000 -1.000000 7.000000 -70.927582 103.602821 15764.266602
3.120000 -1.000000 7.040000 -94.580627 49.390602 11384.926758
3.120000 -1.000000 7.080000 -74.025513 0.587456 5480.121582
3.120000 -1.000000 7.120000 -32.741058 -12.687778 1232.956665
3.120000 -1.000000 7.160000 -6.479548 6.868954 89.167061
3.120000 -1.000000 7.200000 -10.464204 30.377041 1032.264160
3.120000 -0.960000 6.800000 3.737327 38.375847 1486.673218
3.120000 -0.960000 6.840000 14.681332 52.652420 2987.818848
3.120000 -0.960000 6.880000 7.388567 84.418274 7181.035645
3.120000 -0.960000 6.920000 -31.379250 109.023972 12870.883789
3.120000 -0.960000 6.960000 -85.965660 98.646591 17121.246094
3.120000 -0.960000 7.000000 -121.454048 50.340408 17285.242188
3.120000 -0.960000 7.040000 -114.215439 -7.668130 13103.965820
3.120000 -0.960000 7.080000 -73.623840 -39.603329 6988.893555
3.120000 -0.960000 7.120000 -33.075146 -33.110722 2190.285156
3.120000 -0.960000 7.160000 -19.309128 -7.482519 428.830505
3.120000 -0.960000 7.200000 -30.438789 7.807402 987.475403
3.120000 -0.920000 6.800000 -18.095821 29.236107 1182.208740
3.120000 -0.920000 6.840000 -17.850859 46.119705 2445.680176
3.120000 -0.920000 6.880000 -39.717667 65.529861 5871.655762
3.120000 -0.920000 6.920000 -80.221092 64.199951 10557.057617
3.120000 -0.920000 6.960000 -115.438103 30.697071 14268.265625
3.120000 -0.920000 7.000000 -120.270721 -21.132774 14911.640625
3.120000 -0.920000 7.040000 -90.854805 -61.950966 12092.517578
3.120000 -0.920000 7.080000 -48.119736 -71.483063 7425.336914
3.120000 -0.920000 7.120000 -19.050724 -54.384926 3320.650391
3.120000 -0.920000 7.160000 -14.092306 -32.924694 1282.628662
3.120000 -0.920000 7.200000 -22.001547 -25.114912 1114.826904
3.120000 -0.880000 6.800000 -23.756935 9.664154 657.787842
3.120000 -0.880000 6.840000 -32.895031 21.154825 1529.609619
3.120000 -0.880000 6.880000 -56.089806 22.979801 3674.137695
3.120000 -0.880000 6.920000 -80.886520 4.453411 6562.462402
3.120000 -0.880000 6.960000 -89.852081 -30.681988 9014.781250
3.120000 -0.880000 7.000000 -74.709343 -65.861038 9919.162109
3.120000 -0.880000 7.040000 -42.869282 -84.321274 8947.852539
3.120000 -0.880000 7.080000 -10.851975 -81.252953 6719.807617
3.120000 -0.880000 7.120000 8.621599 -65.093628 4311.512207
3.120000 -0.880000 7.160000 14.164119 -48.520496 2554.860840
3.120000 -0.880000 7.200000 12.816348 -38.571304 1652.004272
3.120000 -0.840000 6.800000 -14.185245 -2.643981 208.211792
3.120000 -0.840000 6.840000 -26.175953 -1.132231 686.462402
3.120000 -0.840000 6.880000 -39.024612 -10.773136 1638.980835
3.120000 -0.840000 6.920000 -44.372604 -29.181042 2820.461182
3.120000 -0.840000 6.960000 -38.563156 -49.398651 3927.343750
3.120000 -0.840000 7.000000 -23.153454 -65.007156 4762.012695
3.120000 -0.840000 7.040000 -1.971994 -72.379852 5242.731934
3.120000 -0.840000 7.080000 20.745686 -69.752388 5295.778809
3.120000 -0.840000 7.120000 39.792404 -56.873489 4818.029297
3.120000 -0.840000 7.160000 49.317814 -36.943909 3797.099121
3.120000 -0.840000 7.200000 46.505455 -17.655342 2474.468506
3.120000 -0.800000 6.800000 -4.217587 -0.595062 18.142143
3.120000 -0.800000 6.840000 -11.522875 -7.792072 193.493042
3.120000 -0.800000 6.880000 -11.404062 -17.567764 438.678986
3.120000 -0.800000 6.920000 -7.160732 -24.149815 634.489624
3.120000 -0.800000 6.960000 -3.701157 -29.194645 866.025818
3.120000 -0.800000 7.000000 0.911858 -37.616402 1415.825195
3.120000 -0.800000 7.040000 14.038286 -47.668045 2469.315918
3.120000 -0.800000 7.080000 37.514351 -48.669685 3776.064941
3.120000 -0.800000 7.120000 60.420300 -31.617409 4650.272949
3.120000 -0.800000 7.160000 66.595833 -1.802016 4438.251953
3.120000 -0.800000 7.200000 51.123276 22.304892 3111.097656
3.160000 -1.200000 6.800000 -26.222229 -2.811477 695.509705
3.160000 -1.200000 6.840000 -21.623684 -10.024426 568.072815
3.160000 -1.200000 6.880000 -15.108307 -12.912794 395.001190
3.160000 -1.200000 6.920000 -10.506413 -12.820778 274.757080
3.160000 -1.200000 6.960000 -7.907771 -13.516649 245.232666
3.160000 -1.200000 7.000000 -3.639568 -16.049763 270.841339
3.160000 -1.200000 7.040000 4.649017 -16.643702 298.626160
3.160000 -1.200000 7.080000 13.813049 -10.847072 308.459290
3.160000 -1.200000 7.120000 17.443075 0.560411 304.574921
3.160000 -1.200000 7.160000 12.618431 11.011519 280.478363
3.160000 -1.200000 7.200000 3.580324 14.326000 218.053009
3.160000 -1.160000 6.800000 -10.313001 -19.556435 488.812134
3.160000 -1.160000 6.840000 -4.688608 -18.670559 370.572815
3.160000 -1.160000 6.880000 -1.316094 -16.771212 283.005646
3.160000 -1.160000 6.920000 0.734277 -15.858774 252.039886
3.160000 -1.160000 6.960000 3.717681 -16.047726 271.350647
3.160000 -1.160000 7.000000 8.778573 -15.101398 305.115540
3.160000 -1.160000 7.040000 14.158400 -10.611830 313.071228
3.160000 -1.160000 7.080000 16.364511 -2.928412 276.372833
3.160000 -1.160000 7.120000 13.608438 4.454962 205.036255
3.160000 -1.160000 7.160000 7.896805 7.960186 125.724091
3.160000 -1.160000 7.200000 3.235678 7.345464 64.425446
3.160000 -1.120000 6.800000 15.245493 -16.094921 491.471527
3.160000 -1.120000 6.840000 14.893870 -9.485574 311.803497
3.160000 -1.120000 6.880000 13.083658 -7.019873 220.460724
3.160000 -1.120000 6.920000 13.494329 -6.696042 226.933899
3.160000 -1.120000 6.960000 16.060108 -4.933483 282.266327
3.160000 -1.120000 7.000000 17.813089 -0.422270 317.484467
3.160000 -1.120000 7.040000 16.406069 4.794948 292.150604
3.160000 -1.120000 7.080000 12.596792 7.759709 218.892242
3.160000 -1.120000 7.120000 9.255440 7.795679 146.435776
3.160000 -1.120000 7.160000 8.167948 7.043592 116.327560
3.160000 -1.120000 7.200000 8.158139 7.851776 128.205612
3.160000 -1.080000 6.800000 29.149998 9.030432 931.271057
3.160000 -1.080000 6.840000 20.461805 14.327133 623.952209
3.160000 -1.080000 6.880000 15.257715 13.467256 414.164856
3.160000 -1.080000 6.920000 14.892942 13.095158 393.282898
3.160000 -1.080000 6.960000 14.644377 16.450649 485.081635
3.160000 -1.080000 7.000000 10.351948 20.421175 524.187195
3.160000 -1.080000 7.040000 3.620486 20.077814 416.226532
3.160000 -1.080000 7.080000 -0.110949 15.054365 226.646225
3.160000 -1.080000 7.120000 1.904311 10.405317 111.897026
3.160000 -1.080000 7.160000 6.212988 10.985524 159.282959
3.160000 -1.080000 7.200000 6.800942 15.797968 295.828613
3.160000 -1.040000 6.800000 16.868879 37.908638 1721.623901
3.160000 -1.040000 6.840000 4.019171 35.841705 1300.781494
3.160000 -1.040000 6.880000 -0.836771 30.736618 945.439880
3.160000 -1.040000 6.920000 -1.895777 29.830669 893.462830
3.160000 -1.040000 6.960000 -6.235832 31.870300 1054.601685
3.160000 -1.040000 7.000000 -14.616042 30.066515 1117.624023
3.160000 -1.040000 7.040000 -20.455261 21.390615 875.976196
3.160000 -1.040000 7.080000 -17.874647 11.191811 444.759644
3.160000 -1.040000 7.120000 -9.221781 7.712648 144.526184
3.160000 -1.040000 7.160000 -3.221420 12.765278 173.329865
3.160000 -1.040000 7.200000 -5.568832 19.387493 406.886780
3.160000 -1.000000 6.800000 -14.945781 47.099941 2441.781006
3.160000 -1.000000 6.840000 -24.803471 37.477104 2019.745483
3.160000 -1.000000 6.880000 -26.695549 30.298698 1630.663452
3.160000 -1.000000 6.920000 -28.620911 28.424751 1627.123047
3.160000 -1.000000 6.960000 -35.213745 25.878401 1909.699463
3.160000 -1.000000 7.000000 -41.987083 16.525650 2036.012207
3.160000 -1.000000 7.040000 -40.887871 2.677629 1678.987671
3.160000 -1.000000 7.080000 -30.431925 -6.501477 968.371277
3.160000 -1.000000 7.120000 -18.503729 -4.972235 367.111084
3.160000 -1.000000 7.160000 -14.387367 3.209484 217.297119
3.160000 -1.000000 7.200000 -18.889214 8.124748 422.813934
3.160000 -0.960000 6.800000 -42.505863 28.380774 2612.216797
3.160000 -0.960000 6.840000 -45.338081 16.695707 2334.288086
3.160000 -0.960000 6.880000 -44.593742 10.356328 2095.855225
3.160000 -0.960000 6.920000 -46.931511 6.653035 2246.829590
3.160000 -0.960000 6.960000 -51.731266 -1.173427 2677.500732
3.160000 -0.960000 7.000000 -51.897747 -14.738078 2910.587158
3.160000 -0.960000 7.040000 -42.567169 -27.451021 2565.522461
3.160000 -0.960000 7.080000 -27.562157 -31.175787 1731.602173
3.160000 -0.960000 7.120000 -16.199476 -25.028233 888.835449
3.160000 -0.960000 7.160000 -13.905451 -16.427956 463.239258
3.160000 -0.960000 7.200000 -17.104156 -13.195856 466.682770
3.160000 -0.920000 6.800000 -45.371040 -3.121248 2068.273438
3.160000 -0.920000 6.840000 -43.486359 -10.941109 2010.771240
3.160000 -0.920000 6.880000 -42.463284 -15.552979 2045.025635
3.160000 -0.920000 6.920000 -43.866020 -21.506588 2386.761230
3.160000 -0.920000 6.960000 -43.639305 -31.917007 2923.084229
3.160000 -0.920000 7.000000 -36.631317 -44.000877 3277.930664
3.160000 -0.920000 7.040000 -22.652523 -51.156525 3130.126709
3.160000 -0.920000 7.080000 -7.432467 -49.304794 2486.204102
3.160000 -0.920000 7.120000 2.433585 -40.723854 1664.354614
3.160000 -0.920000 7.160000 5.110478 -31.565813 1022.517578
3.160000 -0.920000 7.200000 4.053942 -26.064825 695.809570
3.160000 -0.880000 6.800000 -24.785622 -22.296570 1111.464111
3.160000 -0.880000 6.840000 -24.073368 -25.463943 1227.939453
3.160000 -0.880000 6.880000 -24.268284 -30.128632 1496.684082
3.160000 -0.880000 6.920000 -23.106121 -37.551159 1943.982300
3.160000 -0.880000 6.960000 -17.775488 -46.433434 2472.031738
3.160000 -0.880000 7.000000 -7.250652 -53.413944 2905.621582
3.160000 -0.880000 7.040000 6.730275 -55.097267 3081.005371
3.160000 -0.880000 7.080000 20.453077 -49.993923 2917.720703
3.160000 -0.880000 7.120000 29.978970 -39.296124 2442.923828
3.160000 -0.880000 7.160000 32.910324 -26.481899 1784.380493
3.160000 -0.880000 7.200000 29.606350 -15.847043 1127.664673
3.160000 -0.840000 6.800000 -1.951557 -17.016592 293.372955
3.160000 -0.840000 6.840000 -5.554551 -20.393066 446.730194
3.160000 -0.840000 6.880000 -5.554618 -27.279537 775.026917
3.160000 -0.840000 6.920000 -1.031924 -34.119492 1165.204468
3.160000 -0.840000 6.960000 6.536591 -38.898338 1555.807739
3.160000 -0.840000 7.000000 16.231815 -41.389160 1976.534424
3.160000 -0.840000 7.040000 28.340145 -40.514221 2444.565918
3.160000 -0.840000 7.080000 41.470001 -33.359615 2832.625000
3.160000 -0.840000 7.120000 50.419121 -18.527473 2885.354980
3.160000 -0.840000 7.160000 49.265144 -0.337626 2427.168457
3.160000 -0.840000 7.200000 37.803169 12.296909 1580.293579
3.160000 -0.800000 6.800000 2.569426 1.338809 8.394356
3.160000 -0.800000 6.840000 -2.004487 -7.371950 58.363617
3.160000 -0.800000 6.880000 1.428310 -15.876699 254.109650
3.160000 -0.800000 6.920000 8.310638 -19.746058 458.973511
3.160000 -0.800000 6.960000 14.612605 -20.917744 651.080200
3.160000 -0.800000 7.000000 21.907759 -22.193897 972.518921
3.160000 -0.800000 7.040000 33.545372 -20.804354 1558.113159
3.160000 -0.800000 7.080000 46.752209 -10.355210 2292.999512
3.160000 -0.800000 7.120000 51.775757 9.894302 2778.626221
3.160000 -0.800000 7.160000 41.424118 29.978371 2614.660156
3.160000 -0.800000 7.200000 21.000652 36.634815 1783.137207
3.200000 -1.200000 6.800000 -16.414078 -25.768768 933.451355
3.200000 -1.200000 6.840000 -7.508254 -25.329510 697.957947
3.200000 -1.200000 6.880000 -2.791828 -22.334808 506.637970
3.200000 -1.200000 6.920000 -0.893578 -21.750252 473.871948
3.200000 -1.200000 6.960000 3.438164 -24.287043 601.681396
3.200000 -1.200000 7.000000 13.299722 -24.891048 796.446899
3.200000 -1.200000 7.040000 25.161165 -17.663799 945.093994
3.200000 -1.200000 7.080000 31.212742 -2.502402 980.497253
3.200000 -1.200000 7.120000 26.603958 13.663780 894.469482
3.200000 -1.200000 7.160000 14.230018 22.743490 719.759766
3.200000 -1.200000 7.200000 1.949688 22.540855 511.891449
3.200000 -1.160000 6.800000 10.599296 -25.016243 738.157532
3.200000 -1.160000 6.840000 11.481354 -14.276053 335.627197
3.200000 -1.160000 6.880000 5.134846 -10.001556 126.397766
3.200000 -1.160000 6.920000 0.908203 -15.010236 226.132004
3.200000 -1.160000 6.960000 6.259764 -22.634686 551.513611
3.200000 -1.160000 7.000000 19.386478 -22.742590 893.060913
3.200000 -1.160000 7.040000 30.576794 -11.315178 1062.973511
3.200000 -1.160000 7.080000 31.096676 5.797585 1000.615234
3.200000 -1.160000 7.120000 20.824450 18.449635 774.046692
3.200000 -1.160000 7.160000 7.361467 21.246948 505.623993
3.200000 -1.160000 7.200000 -1.766558 17.045172 293.658600
3.200000 -1.120000 6.800000 27.623421 0.425915 763.234741
3.200000 -1.120000 6.840000 12.671156 11.124266 284.307495
3.200000 -1.120000 6.880000 -3.263918 5.224134 37.944740
3.200000 -1.120000 6.920000 -6.207689 -10.949325 158.423126
3.200000 -1.120000 6.960000 6.541805 -22.359030 542.721436
3.200000 -1.120000 7.000000 24.387510 -18.487301 936.531006
3.200000 -1.120000 7.040000 33.300396 -1.937044 1112.668579
3.200000 -1.120000 7.080000 27.839836 15.222221 1006.772461
3.200000 -1.120000 7.120000 14.084459 22.852139 720.592224
3.200000 -1.120000 7.160000 2.076255 20.367737 419.155518
3.200000 -1.120000 7.200000 -3.451350 14.220372 214.130798
3.200000 -1.080000 6.800000 16.293074 33.061462 1358.524536
3.200000 -1.080000 6.840000 -10.668734 29.622272 991.300903
3.200000 -1.080000 6.880000 -24.743292 6.931705 660.278992
3.200000 -1.080000 6.920000 -15.875832 -17.336535 552.597412
3.200000 -1.080000 6.960000 7.729344 -25.012020 685.343872
3.200000 -1.080000 7.000000 27.501307 -12.242885 906.210083
3.200000 -1.080000 7.040000 30.517382 9.190086 1015.768311
3.200000 -1.080000 7.080000 18.596621 23.836670 914.021118
3.200000 -1.080000 7.120000 3.401820 25.361860 654.796326
3.200000 -1.080000 7.160000 -5.493305 18.657965 378.296051
3.200000 -1.080000 7.200000 -7.254632 11.817249 192.277069
3.200000 -1.040000 6.800000 -19.536791 45.853340 2484.215088
3.200000 -1.040000 6.840000 -43.843010 22.015293 2406.882568
3.200000 -1.040000 6.880000 -42.450764 -12.036152 1946.936279
3.200000 -1.040000 6.920000 -17.139357 -32.792252 1369.089355
3.200000 -1.040000 6.960000 12.782105 -27.911116 942.412598
3.200000 -1.040000 7.000000 27.157907 -4.935837 761.914429
3.200000 -1.040000 7.040000 20.570995 17.398108 725.859985
3.200000 -1.040000 7.080000 3.403436 25.622303 668.085815
3.200000 -1.040000 7.120000 -10.136026 20.244398 512.574707
3.200000 -1.040000 7.160000 -13.945156 10.785056 310.784821
3.200000 -1.040000 7.200000 -11.454988 4.960932 155.827606
3.200000 -1.000000 6.800000 -54.282829 25.510788 3597.425781
3.200000 -1.000000 6.840000 -61.182426 -10.765396 3859.183105
3.200000 -1.000000 6.880000 -39.798630 -41.253864 3285.812256
3.200000 -1.000000 6.920000 -4.728987 -46.688286 2202.159424
3.200000 -1.000000 6.960000 20.574018 -26.950623 1149.626221
3.200000 -1.000000 7.000000 22.705244 0.583871 515.869019
3.200000 -1.000000 7.040000 6.900953 16.824463 330.685730
3.200000 -1.000000 7.080000 -10.786252 15.572823 358.856018
3.200000 -1.000000 7.120000 -18.319138 4.724441 357.911133
3.200000 -1.000000 7.160000 -15.423763 -4.152277 255.133865
3.200000 -1.000000 7.200000 -9.388121 -6.001438 124.154068
3.200000 -0.960000 6.800000 -61.395969 -14.422403 3977.470703
3.200000 -0.960000 6.840000 -48.001320 -46.476295 4464.172852
3.200000 -0.960000 6.880000 -15.634751 -60.347462 3886.261719
3.200000 -0.960000 6.920000 15.374320 -48.185413 2558.203613
3.200000 -0.960000 6.960000 26.845074 -21.003536 1161.806519
3.200000 -0.960000 7.000000 16.591896 1.320846 277.035645
3.200000 -0.960000 7.040000 -2.135490 6.335284 44.696144
3.200000 -0.960000 7.080000 -13.604717 -3.004864 194.117538
3.200000 -0.960000 7.120000 -12.156400 -14.231134 350.303253
3.200000 -0.960000 7.160000 -3.790207 -17.641527 325.589142
3.200000 -0.960000 7.200000 2.206404 -13.073587 175.786911
3.200000 -0.920000 6.800000 -36.590088 -44.087143 3282.510742
3.200000 -0.920000 6.840000 -14.033572 -59.964512 3792.683838
3.200000 -0.920000 6.880000 13.961220 -56.372868 3372.815918
3.200000 -0.920000 6.920000 30.789185 -35.846409 2232.938965
3.200000 -0.920000 6.960000 28.418020 -12.987682 976.263733
3.200000 -0.920000 7.000000 13.385689 -2.384517 184.862579
3.200000 -0.920000 7.040000 0.276926 -7.150869 51.211620
3.200000 -0.920000 7.080000 -0.968081 -18.019154 325.627106
3.200000 -0.920000 7.120000 7.681991 -22.966177 586.458313
3.200000 -0.920000 7.160000 16.234444 -17.728992 577.874329
3.200000 -0.920000 7.200000 16.829128 -7.906730 345.735901
3.200000 -0.880000 6.800000 -1.787754 -43.160248 1866.003052
3.200000 -0.880000 6.840000 14.900047 -44.862740 2234.676758
3.200000 -0.880000 6.880000 29.511700 -34.812096 2082.822266
3.200000 -0.880000 6.920000 33.362457 -18.556717 1457.405273
3.200000 -0.880000 6.960000 25.855854 -6.766663 714.312927
3.200000 -0.880000 7.000000 15.469298 -6.099744 276.506073
3.200000 -0.880000 7.040000 12.336299 -13.227878 327.161011
3.200000 -0.880000 7.080000 18.993876 -18.018116 685.419800
3.200000 -0.880000 7.120000 28.230848 -13.197728 971.160767
3.200000 -0.880000 7.160000 30.265265 -1.246648 917.540344
3.200000 -0.880000 7.200000 22.319059 8.250233 566.206726
3.200000 -0.840000 6.800000 14.681835 -18.343327 552.033936
3.200000 -0.840000 6.840000 19.737152 -18.261499 723.037537
3.200000 -0.840000 6.880000 24.687473 -13.828917 800.710266
3.200000 -0.840000 6.920000 25.324272 -7.282534 694.354065
3.200000 -0.840000 6.960000 21.996834 -3.798494 498.289246
3.200000 -0.840000 7.000000 20.076065 -5.363390 431.814362
3.200000 -0.840000 7.040000 24.086441 -7.416184 635.156433
3.200000 -0.840000 7.080000 31.595001 -3.067603 1007.654297
3.200000 -0.840000 7.120000 34.345940 8.851279 1257.988647
3.200000 -0.840000 7.160000 26.679314 20.856243 1146.768677
3.200000 -0.840000 7.200000 12.584975 23.444988 708.049072
3.200000 -0.800000 6.800000 3.468054 3.990189 27.949001
3.200000 -0.800000 6.840000 4.122826 -4.064451 33.517456
3.200000 -0.800000 6.880000 10.149345 -7.651077 161.548187
3.200000 -0.800000 6.920000 15.771508 -6.085530 285.774170
3.200000 -0.800000 6.960000 18.853430 -3.129659 365.246582
3.200000 -0.800000 7.000000 21.915842 -0.643776 480.718597
3.200000 -0.800000 7.040000 26.525801 4.299442 722.103333
3.200000 -0.800000 7.080000 28.748192 14.650108 1041.084229
3.200000 -0.800000 7.120000 22.555944 26.948311 1234.982178
3.200000 -0.800000 7.160000 8.140049 32.292286 1109.052124
3.200000 -0.800000 7.200000 -5.265907 25.524099 679.209473
