#kx 	ky 	kz 	real 	imag 	intensity
8.800000 -1.200000 2.800000 -34.652199 29.422464 2066.456299
8.800000 -1.200000 2.840000 -41.179733 13.220746 1870.558472
8.800000 -1.200000 2.880000 -40.420921 -3.040926 1643.098022
8.800000 -1.200000 2.920000 -33.023785 -17.755621 1405.832397
8.800000 -1.200000 2.960000 -18.423607 -27.877617 1116.590820
8.800000 -1.200000 3.000000 0.807347 -27.869694 777.371643
8.800000 -1.200000 3.040000 16.264717 -14.930235 487.452942
8.800000 -1.200000 3.080000 18.552588 5.241812 371.675110
8.800000 -1.200000 3.120000 6.049423 20.389610 452.331726
8.800000 -1.200000 3.160000 -12.080086 21.409401 604.290894
8.800000 -1.200000 3.200000 -23.359072 10.393162 653.664062
8.800000 -1.160000 2.800000 -43.580627 -0.691985 1899.750000
8.800000 -1.160000 2.840000 -38.336929 -13.949651 1664.312866
8.800000 -1.160000 2.880000 -29.404835 -23.738106 1428.141968
8.800000 -1.160000 2.920000 -17.176064 -29.161425 1145.405762
8.800000 -1.160000 2.960000 -3.564243 -27.473825 767.514954
8.800000 -1.160000 3.000000 5.813105 -17.878002 353.415131
8.800000 -1.160000 3.040000 5.478992 -5.558079 60.911587
8.800000 -1.160000 3.080000 -3.430889 0.703388 12.265755
8.800000 -1.160000 3.120000 -12.298515 -3.408350 162.870331
8.800000 -1.160000 3.160000 -12.600067 -12.629440 318.264465
8.800000 -1.160000 3.200000 -4.739577 -16.802567 304.789825
8.800000 -1.120000 2.800000 -27.566280 -27.934998 1540.263916
8.800000 -1.120000 2.840000 -15.885609 -30.566141 1186.641602
8.800000 -1.120000 2.880000 -5.901930 -28.955364 873.245911
8.800000 -1.120000 2.920000 1.539320 -23.443287 551.957214
8.800000 -1.120000 2.960000 3.513773 -15.152555 241.946533
8.800000 -1.120000 3.000000 -1.906506 -9.330410 90.691315
8.800000 -1.120000 3.040000 -10.311821 -12.489025 262.309387
8.800000 -1.120000 3.080000 -11.733122 -24.530548 739.413940
8.800000 -1.120000 3.120000 0.204741 -35.337154 1248.756348
8.800000 -1.120000 3.160000 19.582933 -32.352039 1430.145752
8.800000 -1.120000 3.200000 30.843891 -13.548958 1134.919922
8.800000 -1.080000 2.800000 1.502216 -33.654358 1134.872559
8.800000 -1.080000 2.840000 9.788728 -24.414219 691.873291
8.800000 -1.080000 2.880000 11.435068 -14.257070 334.024841
8.800000 -1.080000 2.920000 6.392450 -5.876171 75.392807
8.800000 -1.080000 2.960000 -4.570998 -4.199636 38.530968
8.800000 -1.080000 3.000000 -14.955548 -14.458023 432.702850
8.800000 -1.080000 3.040000 -13.096523 -34.291058 1347.395508
8.800000 -1.080000 3.080000 7.761580 -49.794876 2539.771973
8.800000 -1.080000 3.120000 38.866673 -44.231041 3467.003418
8.800000 -1.080000 3.160000 58.475433 -14.289528 3623.566895
8.800000 -1.080000 3.200000 49.219696 22.582006 2932.525391
8.800000 -1.040000 2.800000 21.589149 -16.884972 751.193604
8.800000 -1.040000 2.840000 18.830956 -2.659014 361.675232
8.800000 -1.040000 2.880000 8.410010 6.013906 106.895340
8.800000 -1.040000 2.920000 -6.462394 5.292667 69.774857
8.800000 -1.040000 2.960000 -18.908506 -8.539911 430.461700
8.800000 -1.040000 3.000000 -17.254707 -32.858723 1377.420654
8.800000 -1.040000 3.040000 6.585656 -53.265953 2880.632568
8.800000 -1.040000 3.080000 44.960400 -50.118340 4533.285156
8.800000 -1.040000 3.120000 73.622147 -15.942898 5674.396484
8.800000 -1.040000 3.160000 68.726570 32.580711 5784.844238
8.800000 -1.040000 3.200000 28.804028 63.490768 4860.749512
8.800000 -1.000000 2.800000 19.771633 5.387913 419.947083
8.800000 -1.000000 2.840000 6.360859 14.083383 238.802185
8.800000 -1.000000 2.880000 -9.913834 11.754326 236.448273
8.800000 -1.000000 2.920000 -22.385653 -2.824951 509.097778
8.800000 -1.000000 2.960000 -21.697308 -26.981007 1198.747925
8.800000 -1.000000 3.000000 -0.005972 -48.939812 2395.105225
8.800000 -1.000000 3.040000 38.376076 -50.094101 3982.142090
8.800000 -1.000000 3.080000 72.104729 -19.285517 5571.022949
8.800000 -1.000000 3.120000 74.750320 32.298389 6630.796387
8.800000 -1.000000 3.160000 37.408337 73.313461 6774.247559
8.800000 -1.000000 3.200000 -19.208796 75.007690 5995.131836
8.800000 -0.960000 2.800000 2.404404 14.101638 204.637344
8.800000 -0.960000 2.840000 -13.206914 10.870680 292.594269
8.800000 -0.960000 2.880000 -23.531158 -3.066103 563.116394
8.800000 -0.960000 2.920000 -22.312855 -23.646166 1057.004639
8.800000 -0.960000 2.960000 -4.650743 -42.354252 1815.512085
8.800000 -0.960000 3.000000 27.412935 -45.532429 2824.671143
8.800000 -0.960000 3.040000 59.013855 -22.182858 3974.714111
8.800000 -0.960000 3.080000 67.357567 23.047165 5068.213867
8.800000 -0.960000 3.120000 39.039474 65.912552 5868.544922
8.800000 -0.960000 3.160000 -14.459593 77.208145 6170.177246
8.800000 -0.960000 3.200000 -60.718338 46.696331 5867.263672
8.800000 -0.920000 2.800000 -12.715234 4.367197 180.749573
8.800000 -0.920000 2.840000 -20.329733 -8.277071 481.807922
8.800000 -0.920000 2.880000 -17.142649 -24.473103 892.803101
8.800000 -0.920000 2.920000 -2.376692 -36.974625 1372.771606
8.800000 -0.920000 2.960000 21.055685 -38.018242 1888.728516
8.800000 -0.920000 3.000000 44.204208 -21.155851 2401.582031
8.800000 -0.920000 3.040000 52.400932 12.199690 2894.690186
8.800000 -0.920000 3.080000 33.882156 47.444458 3398.977051
8.800000 -0.920000 3.120000 -7.783442 62.308502 3942.931396
8.800000 -0.920000 3.160000 -50.677219 43.297142 4442.823242
8.800000 -0.920000 3.200000 -68.271072 -0.662907 4661.378906
8.800000 -0.880000 2.800000 -13.174627 -12.887394 339.655731
8.800000 -0.880000 2.840000 -8.496845 -25.750277 735.273071
8.800000 -0.880000 2.880000 5.162059 -32.715023 1096.919556
8.800000 -0.880000 2.920000 21.889505 -29.304211 1337.887207
8.800000 -0.880000 2.960000 34.862789 -15.045823 1441.790894
8.800000 -0.880000 3.000000 37.335552 7.002231 1442.974731
8.800000 -0.880000 3.040000 24.242392 29.082441 1433.481934
8.800000 -0.880000 3.080000 -3.150276 39.386314 1561.205933
8.800000 -0.880000 3.120000 -33.601727 28.535723 1943.363525
8.800000 -0.880000 3.160000 -50.172688 -1.388443 2519.226318
8.800000 -0.880000 3.200000 -42.248135 -34.813469 2996.882568
8.800000 -0.840000 2.800000 -1.168543 -23.421787 549.945618
8.800000 -0.840000 2.840000 11.608589 -28.004288 918.999451
8.800000 -0.840000 2.880000 25.214951 -21.631325 1103.708008
8.800000 -0.840000 2.920000 31.441885 -7.132862 1039.469849
8.800000 -0.840000 2.960000 27.104309 8.408852 805.352356
8.800000 -0.840000 3.000000 14.129249 18.553972 543.885559
8.800000 -0.840000 3.040000 -2.932089 19.508516 389.179352
8.800000 -0.840000 3.080000 -18.334312 10.112826 438.416260
8.800000 -0.840000 3.120000 -25.835703 -7.404173 722.305298
8.800000 -0.840000 3.160000 -21.249081 -26.493099 1153.407715
8.800000 -0.840000 3.200000 -6.245411 -38.492977 1520.714355
8.800000 -0.800000 2.800000 12.109791 -22.514736 653.560364
8.800000 -0.800000 2.840000 24.729061 -17.134058 905.102417
8.800000 -0.800000 2.880000 29.739187 -3.013686 893.501526
8.800000 -0.800000 2.920000 22.732603 10.733315 631.975281
8.800000 -0.800000 2.960000 8.204462 15.301791 301.458008
8.800000 -0.800000 3.000000 -4.801665 8.810442 100.679878
8.800000 -0.800000 3.040000 -9.774006 -3.669085 108.993370
8.800000 -0.800000 3.080000 -6.214241 -15.093745 266.437927
8.800000 -0.800000 3.120000 1.976027 -21.170582 452.098236
8.800000 -0.800000 3.160000 10.113971 -21.632330 570.250122
8.800000 -0.800000 3.200000 15.254339 -18.985945 593.160950
8.840000 -1.200000 2.800000 -53.213249 20.516186 3252.563721
8.840000 -1.200000 2.840000 -57.799713 -2.726256 3348.239258
8.840000 -1.200000 2.880000 -48.768242 -26.002123 3054.451660
8.840000 -1.200000 2.920000 -27.836403 -40.689972 2430.539062
8.840000 -1.200000 2.960000 -2.415899 -40.330494 1632.385254
8.840000 -1.200000 3.000000 16.501499 -24.811539 887.911865
8.840000 -1.200000 3.040000 20.112141 -2.311085 409.839325
8.840000 -1.200000 3.080000 8.157482 14.477604 276.145538
8.840000 -1.200000 3.120000 -9.896950 16.800438 380.204315
8.840000 -1.200000 3.160000 -21.598677 6.364771 507.013153
8.840000 -1.200000 3.200000 -21.208984 -6.513542 492.247253
8.840000 -1.160000 2.800000 -48.838051 -17.328054 2685.416748
8.840000 -1.160000 2.840000 -37.441669 -33.109257 2498.101562
8.840000 -1.160000 2.880000 -18.626707 -40.537136 1990.213623
8.840000 -1.160000 2.920000 0.667629 -35.611595 1268.631348
8.840000 -1.160000 2.960000 11.515642 -20.609104 557.345215
8.840000 -1.160000 3.000000 8.978989 -4.477285 100.668320
8.840000 -1.160000 3.040000 -3.182508 2.540607 16.583046
8.840000 -1.160000 3.080000 -14.263168 -3.171196 213.494461
8.840000 -1.160000 3.120000 -14.873970 -15.090016 448.943573
8.840000 -1.160000 3.160000 -5.078398 -21.828838 502.288300
8.840000 -1.160000 3.200000 5.554061 -17.365894 332.421875
8.840000 -1.120000 2.800000 -17.625715 -38.152363 1766.268555
8.840000 -1.120000 2.840000 -0.750986 -35.454948 1257.617310
8.840000 -1.120000 2.880000 11.034538 -22.841049 643.474548
8.840000 -1.120000 2.920000 10.668797 -5.887719 148.488464
8.840000 -1.120000 2.960000 -2.597095 4.429699 26.367138
8.840000 -1.120000 3.000000 -19.494064 -0.824291 380.697998
8.840000 -1.120000 3.040000 -25.582026 -19.752378 1044.596436
8.840000 -1.120000 3.080000 -12.829626 -38.454430 1643.342529
8.840000 -1.120000 3.120000 11.932378 -41.020885 1825.094604
8.840000 -1.120000 3.160000 30.839083 -23.331654 1495.415039
8.840000 -1.120000 3.200000 29.541292 2.061092 876.936035
8.840000 -1.080000 2.800000 15.551850 -27.598089 1003.514587
8.840000 -1.080000 2.840000 21.345654 -7.870685 517.584595
8.840000 -1.080000 2.880000 11.195635 12.350908 277.887177
8.840000 -1.080000 2.920000 -13.241161 19.638250 560.989258
8.840000 -1.080000 2.960000 -38.215439 4.178833 1477.882446
8.840000 -1.080000 3.000000 -44.104202 -29.268526 2801.827148
8.840000 -1.080000 3.040000 -20.679176 -59.827892 4007.005127
8.840000 -1.080000 3.080000 21.183605 -64.018280 4547.085449
8.840000 -1.080000 3.120000 54.305450 -35.225121 4189.891113
8.840000 -1.080000 3.160000 55.616779 8.362431 3163.156250
8.840000 -1.080000 3.200000 25.441452 36.707706 1994.723145
8.840000 -1.040000 2.800000 25.214359 1.787449 638.958862
8.840000 -1.040000 2.840000 10.346390 23.841558 675.467712
8.840000 -1.040000 2.880000 -20.432289 30.777664 1364.743042
8.840000 -1.040000 2.920000 -52.320114 10.887726 2855.936768
8.840000 -1.040000 2.960000 -62.185608 -32.206406 4904.302246
8.840000 -1.040000 3.000000 -35.083206 -74.988205 6854.062500
8.840000 -1.040000 3.040000 19.565941 -86.934914 7940.505371
8.840000 -1.040000 3.080000 69.127266 -54.464451 7744.955566
8.840000 -1.040000 3.120000 80.229240 4.559401 6457.519043
8.840000 -1.040000 3.160000 45.653282 51.508701 4737.368164
8.840000 -1.040000 3.200000 -8.526754 56.585640 3274.640137
8.840000 -1.000000 2.800000 7.903177 22.813782 582.928833
8.840000 -1.000000 2.840000 -21.709591 30.206057 1383.712158
8.840000 -1.000000 2.880000 -54.744286 12.078812 3142.834473
8.840000 -1.000000 2.920000 -68.898087 -31.440205 5735.432617
8.840000 -1.000000 2.960000 -45.618828 -80.082954 8494.357422
8.840000 -1.000000 3.000000 11.705308 -101.463440 10431.844727
8.840000 -1.000000 3.040000 72.529594 -74.386436 10793.883789
8.840000 -1.000000 3.080000 97.300591 -9.548028 9558.570312
8.840000 -1.000000 3.120000 67.959068 53.318733 7461.322266
8.840000 -1.000000 3.160000 4.585289 73.928902 5486.507324
8.840000 -1.000000 3.200000 -48.812393 42.933598 4225.943359
8.840000 -0.960000 2.800000 -16.678991 18.698568 627.825195
8.840000 -0.960000 2.840000 -43.978230 5.863821 1968.469116
8.840000 -0.960000 2.880000 -58.720135 -29.386299 4311.608887
8.840000 -0.960000 2.920000 -43.095158 -73.635406 7279.365234
8.840000 -0.960000 2.960000 5.804992 -99.649170 9963.655273
8.840000 -0.960000 3.000000 66.235031 -83.312653 11328.078125
8.840000 -0.960000 3.040000 101.085197 -25.258730 10856.220703
8.840000 -0.960000 3.080000 84.354691 42.886856 8954.996094
8.840000 -0.960000 3.120000 24.155491 78.267891 6709.350586
8.840000 -0.960000 3.160000 -40.051872 59.389519 5131.267578
8.840000 -0.960000 3.200000 -66.936218 3.572373 4493.219238
8.840000 -0.920000 2.800000 -25.568350 -3.662205 667.152283
8.840000 -0.920000 2.840000 -36.297203 -26.733883 2032.187500
8.840000 -0.920000 2.880000 -27.217604 -58.306633 4140.461426
8.840000 -0.920000 2.920000 6.880650 -80.576843 6539.970703
8.840000 -0.920000 2.960000 54.652534 -73.667847 8413.851562
8.840000 -0.920000 3.000000 89.423386 -31.501381 8988.878906
8.840000 -0.920000 3.040000 85.524261 27.577095 8074.895508
8.840000 -0.920000 3.080000 39.705406 68.620575 6285.302734
8.840000 -0.920000 3.120000 -21.638027 64.761978 4662.317871
8.840000 -0.920000 3.160000 -59.644405 19.346436 3931.739746
8.840000 -0.920000 3.200000 -52.504139 -35.273125 4000.877930
8.840000 -0.880000 2.800000 -12.794693 -23.358131 709.306458
8.840000 -0.880000 2.840000 -6.562469 -40.278095 1665.390991
8.840000 -0.880000 2.880000 13.432730 -52.520103 2938.799561
8.840000 -0.880000 2.920000 42.392975 -49.062931 4204.335449
8.840000 -0.880000 2.960000 66.450195 -24.002176 4991.732910
8.840000 -0.880000 3.000000 68.548058 15.571980 4941.322754
8.840000 -0.880000 3.040000 41.111973 49.167297 4107.617188
8.840000 -0.880000 3.080000 -4.177216 54.828171 3023.577637
8.840000 -0.880000 3.120000 -40.806427 26.545460 2369.825928
8.840000 -0.880000 3.160000 -46.017078 -18.390476 2455.781250
8.840000 -0.880000 3.200000 -18.835606 -51.099220 2965.910400
8.840000 -0.840000 2.800000 8.859159 -26.012775 755.149170
8.840000 -0.840000 2.840000 20.120316 -27.816347 1178.576172
8.840000 -0.840000 2.880000 32.706055 -22.235371 1564.097778
8.840000 -0.840000 2.920000 41.624466 -8.649940 1807.417725
8.840000 -0.840000 2.960000 41.208717 10.306274 1804.377563
8.840000 -0.840000 3.000000 27.705341 27.345844 1515.381104
8.840000 -0.840000 3.040000 3.916428 32.356133 1062.257690
8.840000 -0.840000 3.080000 -18.954502 19.216759 728.557007
8.840000 -0.840000 3.120000 -27.019640 -7.233128 782.379089
8.840000 -0.840000 3.160000 -14.399051 -32.062263 1235.321411
8.840000 -0.840000 3.200000 10.841934 -40.718842 1775.571533
8.840000 -0.800000 2.800000 23.166317 -14.389410 743.733337
8.840000 -0.800000 2.840000 27.058481 -5.329307 760.562866
8.840000 -0.800000 2.880000 24.598312 4.038095 621.383179
8.840000 -0.800000 2.920000 17.740189 9.651417 407.864136
8.840000 -0.800000 2.960000 9.851263 10.536407 208.063263
8.840000 -0.800000 3.000000 3.007450 7.584490 66.569252
8.840000 -0.800000 3.040000 -1.694275 1.468412 5.026803
8.840000 -0.800000 3.080000 -2.574413 -7.094654 56.961723
8.840000 -0.800000 3.120000 2.095867 -15.589657 247.430054
8.840000 -0.800000 3.160000 11.561598 -19.987934 533.188049
8.840000 -0.800000 3.200000 21.708925 -17.977798 794.478638
8.880000 -1.200000 2.800000 -62.224094 -4.011773 3887.932129
8.880000 -1.200000 2.840000 -57.690750 -32.121525 4360.015137
8.880000 -1.200000 2.880000 -35.207203 -53.313190 4081.843506
8.880000 -1.200000 2.920000 -3.910088 -55.992981 3150.502686
8.880000 -1.200000 2.960000 20.775841 -38.746773 1932.947998
8.880000 -1.200000 3.000000 27.015825 -12.121805 876.792969
8.880000 -1.200000 3.040000 14.639215 8.056114 279.207611
8.880000 -1.200000 3.080000 -4.850098 11.518448 156.198090
8.880000 -1.200000 3.120000 -16.956120 0.467116 287.728180
8.880000 -1.200000 3.160000 -15.015268 -13.169994 398.907043
8.880000 -1.200000 3.200000 -4.390718 -18.043121 344.832642
8.880000 -1.160000 2.800000 -38.848927 -37.041843 2881.337402
8.880000 -1.160000 2.840000 -19.445530 -48.416138 2722.250977
8.880000 -1.160000 2.880000 4.100689 -44.556900 2002.133057
8.880000 -1.160000 2.920000 18.566708 -26.299562 1036.389648
8.880000 -1.160000 2.960000 15.784122 -5.195156 276.128174
8.880000 -1.160000 3.000000 -0.192939 4.648628 21.646971
8.880000 -1.160000 3.040000 -15.552124 -2.325089 247.274597
8.880000 -1.160000 3.080000 -17.588902 -18.502701 651.719360
8.880000 -1.160000 3.120000 -4.973871 -29.370205 887.348328
8.880000 -1.160000 3.160000 11.464677 -25.699324 791.894043
8.880000 -1.160000 3.200000 18.365040 -11.133882 461.238007
8.880000 -1.120000 2.800000 -0.034613 -38.767593 1502.927490
8.880000 -1.120000 2.840000 15.179924 -25.568085 884.157043
8.880000 -1.120000 2.880000 16.211491 -3.395735 274.343445
8.880000 -1.120000 2.920000 -1.329132 12.713303 163.394653
8.880000 -1.120000 2.960000 -26.721195 8.413502 784.809265
8.880000 -1.120000 3.000000 -40.178280 -16.479149 1885.856567
8.880000 -1.120000 3.040000 -28.614376 -45.206284 2862.390625
8.880000 -1.120000 3.080000 2.360149 -56.206028 3164.687988
8.880000 -1.120000 3.120000 31.729692 -40.657089 2659.772217
8.880000 -1.120000 3.160000 39.750725 -9.998833 1680.096802
8.880000 -1.120000 3.200000 23.810062 13.564388 750.911682
8.880000 -1.080000 2.800000 22.024626 -10.740450 600.441406
8.880000 -1.080000 2.840000 13.715342 15.541733 429.656067
8.880000 -1.080000 2.880000 -16.876774 30.217964 1197.950928
8.880000 -1.080000 2.920000 -54.554199 15.227634 3208.041504
8.880000 -1.080000 2.960000 -71.643494 -28.511158 5945.676270
8.880000 -1.080000 3.000000 -49.562290 -75.945602 8224.155273
8.880000 -1.080000 3.040000 3.048592 -94.316193 8904.837891
8.880000 -1.080000 3.080000 53.597786 -69.235413 7666.265137
8.880000 -1.080000 3.120000 69.976204 -17.605362 5206.617676
8.880000 -1.080000 3.160000 45.755226 25.259962 2731.606445
8.880000 -1.080000 3.200000 4.097668 33.763077 1156.736206
8.880000 -1.040000 2.800000 11.507454 19.574068 515.565613
8.880000 -1.040000 2.840000 -22.903728 35.353127 1774.424316
8.880000 -1.040000 2.880000 -68.402267 18.289230 5013.366211
8.880000 -1.040000 2.920000 -92.961159 -35.592571 9908.608398
8.880000 -1.040000 2.960000 -69.393692 -99.905159 14796.525391
8.880000 -1.040000 3.000000 -1.487228 -132.153076 17466.646484
8.880000 -1.040000 3.040000 72.418793 -106.454025 16576.941406
8.880000 -1.040000 3.080000 106.008896 -36.922222 12601.136719
8.880000 -1.040000 3.120000 81.095322 30.915787 7532.237305
8.880000 -1.040000 3.160000 21.674807 55.411366 3540.216797
8.880000 -1.040000 3.200000 -26.935114 30.446920 1652.515381
8.880000 -1.000000 2.800000 -17.400232 25.076876 931.617798
8.880000 -1.000000 2.840000 -60.247314 13.792215 3819.964111
8.880000 -1.000000 2.880000 -90.104050 -35.983570 9413.556641
8.880000 -1.000000 2.920000 -74.275108 -105.420120 16630.193359
8.880000 -1.000000 2.960000 -5.783817 -150.830139 22783.183594
8.880000 -1.000000 3.000000 82.275826 -135.035110 25003.792969
8.880000 -1.000000 3.040000 136.015457 -60.245087 22129.675781
8.880000 -1.000000 3.080000 121.667679 28.401855 15609.689453
8.880000 -1.000000 3.120000 53.339928 75.753510 8583.742188
8.880000 -1.000000 3.160000 -18.116177 59.188801 3831.510010
8.880000 -1.000000 3.200000 -46.321419 3.763905 2159.840820
8.880000 -0.960000 2.800000 -35.747860 3.477903 1290.005371
8.880000 -0.960000 2.840000 -63.491203 -30.692430 4973.158203
8.880000 -0.960000 2.880000 -58.730831 -89.237106 11412.572266
8.880000 -0.960000 2.920000 -4.941665 -138.104492 19097.271484
8.880000 -0.960000 2.960000 79.094170 -137.015106 25029.027344
8.880000 -0.960000 3.000000 144.797684 -73.517914 26371.253906
8.880000 -0.960000 3.040000 148.220306 20.195793 22377.128906
8.880000 -0.960000 3.080000 86.333092 87.132530 15045.480469
8.880000 -0.960000 3.120000 2.094474 88.677536 7868.092285
8.880000 -0.960000 3.160000 -48.764412 34.308563 3555.045410
8.880000 -0.960000 3.200000 -41.054466 -28.673897 2507.661621
8.880000 -0.920000 2.800000 -27.366892 -23.431355 1297.975098
8.880000 -0.920000 2.840000 -29.897833 -60.054981 4500.481445
8.880000 -0.920000 2.880000 1.818035 -99.041237 9812.472656
8.880000 -0.920000 2.920000 64.229973 -108.343765 15863.860352
8.880000 -0.920000 2.960000 125.283195 -67.227684 20215.441406
8.880000 -0.920000 3.000000 143.583893 11.129629 20740.203125
8.880000 -0.920000 3.040000 101.436829 82.558945 17105.410156
8.880000 -0.920000 3.080000 23.073149 103.060760 11153.890625
8.880000 -0.920000 3.120000 -41.132393 63.606369 5737.644043
8.880000 -0.920000 3.160000 -53.351059 -2.500047 2852.585693
8.880000 -0.920000 3.200000 -16.587196 -47.352322 2517.377441
8.880000 -0.880000 2.800000 -1.331543 -32.482910 1056.912354
8.880000 -0.880000 2.840000 11.508350 -53.048683 2946.604980
8.880000 -0.880000 2.880000 44.931046 -62.910439 5976.522461
8.880000 -0.880000 2.920000 85.860428 -44.032833 9310.903320
8.880000 -0.880000 2.960000 107.372849 5.126068 11555.205078
8.880000 -0.880000 3.000000 88.208450 61.542309 11568.186523
8.880000 -0.880000 3.040000 33.116825 90.580063 9301.472656
8.880000 -0.880000 3.080000 -25.919310 72.608841 5943.854492
8.880000 -0.880000 3.120000 -52.318611 20.543901 3159.289062
8.880000 -0.880000 3.160000 -33.433846 -29.071268 1962.960693
8.880000 -0.880000 3.200000 10.437686 -45.059502 2139.303955
8.880000 -0.840000 2.800000 20.496126 -19.581352 803.520508
8.880000 -0.840000 2.840000 30.252504 -22.011131 1399.703857
8.880000 -0.840000 2.880000 45.817383 -16.200087 2361.675537
8.880000 -0.840000 2.920000 58.195702 3.576221 3399.529053
8.880000 -0.840000 2.960000 54.315208 32.668484 4017.371582
8.880000 -0.840000 3.000000 28.664726 54.937511 3839.796631
8.880000 -0.840000 3.040000 -8.078693 53.560505 2933.993164
8.880000 -0.840000 3.080000 -33.860641 26.078257 1826.618530
8.880000 -0.840000 3.120000 -31.974119 -10.792179 1138.815430
8.880000 -0.840000 3.160000 -5.268747 -33.101509 1123.469604
8.880000 -0.840000 3.200000 26.008804 -28.747040 1502.850098
8.880000 -0.800000 2.800000 25.183060 1.071968 635.335632
8.880000 -0.800000 2.840000 21.891315 4.403063 498.616669
8.880000 -0.800000 2.880000 20.263145 5.952383 446.025940
8.880000 -0.800000 2.920000 19.843203 9.327179 480.748962
8.880000 -0.800000 2.960000 16.341034 15.111917 495.399445
8.880000 -0.800000 3.000000 7.020737 18.453545 389.824036
8.880000 -0.800000 3.040000 -4.305725 13.390759 197.851685
8.880000 -0.800000 3.080000 -9.137477 0.003822 83.493500
8.880000 -0.800000 3.120000 -2.131916 -13.728081 193.005264
8.880000 -0.800000 3.160000 13.103584 -18.260769 505.159607
8.880000 -0.800000 3.200000 26.743547 -10.941393 834.931396
8.920000 -1.200000 2.800000 -49.677170 -30.870619 3420.816406
8.920000 -1.200000 2.840000 -33.353920 -54.965569 4133.697754
8.920000 -1.200000 2.880000 -2.747391 -63.362873 4022.401855
8.920000 -1.200000 2.920000 26.169567 -49.478447 3132.962891
8.920000 -1.200000 2.960000 37.552940 -21.455074 1870.543579
8.920000 -1.200000 3.000000 27.365252 3.246181 759.394714
8.920000 -1.200000 3.040000 6.294676 10.630268 152.625549
8.920000 -1.200000 3.080000 -8.694324 0.330326 75.700394
8.920000 -1.200000 3.120000 -7.567135 -15.063730 284.177490
8.920000 -1.200000 3.160000 5.615862 -20.973598 471.429749
8.920000 -1.200000 3.200000 17.402414 -12.807415 466.873901
8.920000 -1.160000 2.800000 -15.198585 -44.407303 2203.005615
8.920000 -1.160000 2.840000 6.332920 -45.068024 2071.232666
8.920000 -1.160000 2.880000 23.046764 -29.509556 1401.967285
8.920000 -1.160000 2.920000 23.090202 -7.183819 584.764709
8.920000 -1.160000 2.960000 7.056105 6.035545 86.216415
8.920000 -1.160000 3.000000 -11.583326 0.875454 134.939865
8.920000 -1.160000 3.040000 -17.142574 -17.326431 594.073120
8.920000 -1.160000 3.080000 -4.565384 -32.771576 1094.818970
8.920000 -1.160000 3.120000 16.505264 -32.154049 1306.306519
8.920000 -1.160000 3.160000 29.962139 -15.391984 1134.642944
8.920000 -1.160000 3.200000 26.552134 4.892307 728.950500
8.920000 -1.120000 2.800000 13.632767 -25.104895 816.108032
8.920000 -1.120000 2.840000 17.465763 -5.221672 332.318756
8.920000 -1.120000 2.880000 1.655766 13.212669 177.316193
8.920000 -1.120000 2.920000 -26.637753 12.066917 855.180359
8.920000 -1.120000 2.960000 -46.150330 -13.873009 2322.313477
8.920000 -1.120000 3.000000 -38.520897 -49.367661 3921.025391
8.920000 -1.120000 3.040000 -4.819157 -69.187408 4810.121582
8.920000 -1.120000 3.080000 33.785217 -58.335960 4544.525391
8.920000 -1.120000 3.120000 52.489662 -24.283577 3344.856689
8.920000 -1.120000 3.160000 42.233944 9.532865 1874.581543
8.920000 -1.120000 3.200000 15.341817 22.858145 757.866150
8.920000 -1.080000 2.800000 12.552946 6.746063 203.085831
8.920000 -1.080000 2.840000 -13.449581 25.069021 809.347046
8.920000 -1.080000 2.880000 -54.389156 15.764927 3206.713379
8.920000 -1.080000 2.920000 -80.635742 -28.868298 7335.501465
8.920000 -1.080000 2.960000 -64.833397 -86.837006 11744.035156
8.920000 -1.080000 3.000000 -7.777458 -119.485382 14337.246094
8.920000 -1.080000 3.040000 57.788383 -102.147705 13773.650391
8.920000 -1.080000 3.080000 91.299072 -45.421059 10398.592773
8.920000 -1.080000 3.120000 76.183456 12.774949 5967.118164
8.920000 -1.080000 3.160000 31.277531 37.749542 2403.312012
8.920000 -1.080000 3.200000 -7.384223 23.997343 630.399231
8.920000 -1.040000 2.800000 -13.918947 20.344259 607.625977
8.920000 -1.040000 2.840000 -58.571938 12.933743 3597.953613
8.920000 -1.040000 2.880000 -93.165344 -37.027245 10050.797852
8.920000 -1.040000 2.920000 -80.041801 -110.908844 18707.460938
8.920000 -1.040000 2.960000 -10.119724 -161.334045 26131.082031
8.920000 -1.040000 3.000000 81.656082 -148.310684 28663.773438
8.920000 -1.040000 3.040000 139.158005 -74.544693 24921.863281
8.920000 -1.040000 3.080000 129.010391 13.468124 16825.072266
8.920000 -1.040000 3.120000 66.849213 61.748123 8281.648438
8.920000 -1.040000 3.160000 2.264524 50.792694 2585.025879
8.920000 -1.040000 3.200000 -23.202517 6.356229 578.758423
8.920000 -1.000000 2.800000 -37.932076 3.890800 1453.980713
8.920000 -1.000000 2.840000 -74.661797 -34.823402 6787.053223
8.920000 -1.000000 2.880000 -72.612488 -107.196602 16763.683594
8.920000 -1.000000 2.920000 -8.591570 -169.846268 28921.568359
8.920000 -1.000000 2.960000 93.936096 -171.398468 38201.425781
8.920000 -1.000000 3.000000 174.503006 -97.298264 39918.250000
8.920000 -1.000000 3.040000 181.308029 11.885514 33013.867188
8.920000 -1.000000 3.080000 113.970627 89.162979 20939.339844
8.920000 -1.000000 3.120000 24.016342 93.708382 9358.044922
8.920000 -1.000000 3.160000 -28.150719 40.761879 2453.993652
8.920000 -1.000000 3.200000 -20.848185 -16.853001 718.670410
8.920000 -0.960000 2.800000 -35.924004 -25.604692 1946.134277
8.920000 -0.960000 2.840000 -44.755657 -77.994247 8086.171387
8.920000 -0.960000 2.880000 -2.411367 -137.709625 18969.755859
8.920000 -0.960000 2.920000 87.156464 -155.144409 31666.035156
8.920000 -0.960000 2.960000 175.787811 -99.342316 40770.250000
8.920000 -0.960000 3.000000 203.823349 8.868608 41622.609375
8.920000 -0.960000 3.040000 149.321426 106.148880 33564.472656
8.920000 -0.960000 3.080000 49.112553 134.831909 20591.687500
8.920000 -0.960000 3.120000 -29.777105 88.538818 8725.798828
8.920000 -0.960000 3.160000 -43.883663 14.211417 2127.740234
8.920000 -0.960000 3.200000 -4.207096 -30.404377 942.125793
8.920000 -0.920000 2.800000 -10.071534 -40.693535 1757.399536
8.920000 -0.920000 2.840000 6.809940 -81.757210 6730.616699
8.920000 -0.920000 2.880000 64.853119 -105.944946 15430.259766
8.920000 -0.920000 2.920000 139.289093 -77.581726 25420.375000
8.920000 -0.920000 2.960000 179.926437 5.331879 32401.953125
8.920000 -0.920000 3.000000 150.831528 100.151031 32780.378906
8.920000 -0.920000 3.040000 64.028702 148.589478 26178.507812
8.920000 -0.920000 3.080000 -25.827599 123.306610 15871.584961
8.920000 -0.920000 3.120000 -64.139587 50.319260 6645.914551
8.920000 -0.920000 3.160000 -39.011826 -13.832516 1713.260986
8.920000 -0.920000 3.200000 14.082162 -29.274923 1055.328369
8.920000 -0.880000 2.800000 16.811413 -29.779636 1169.450317
8.920000 -0.880000 2.840000 39.925743 -48.003624 3898.412842
8.920000 -0.880000 2.880000 83.747589 -42.291306 8802.212891
8.920000 -0.880000 2.920000 120.264008 2.673767 14470.581055
8.920000 -0.880000 2.960000 115.637421 71.171608 18437.410156
8.920000 -0.880000 3.000000 60.848419 122.278290 18654.509766
8.920000 -0.880000 3.040000 -15.221577 121.203369 14921.953125
8.920000 -0.880000 3.080000 -65.662186 69.335258 9118.900391
8.920000 -0.880000 3.120000 -62.820091 4.561260 3967.168945
8.920000 -0.880000 3.160000 -19.569473 -29.784622 1270.088013
8.920000 -0.880000 3.200000 24.554375 -19.303455 975.540649
8.920000 -0.840000 2.800000 25.003202 -4.980434 649.964905
8.920000 -0.840000 2.840000 36.725723 -8.726456 1424.929810
8.920000 -0.840000 2.880000 55.478645 3.043968 3087.145752
8.920000 -0.840000 2.920000 62.855255 34.006836 5107.248047
8.920000 -0.840000 2.960000 42.974785 68.551537 6546.145020
8.920000 -0.840000 3.000000 -0.280670 81.503059 6642.827148
8.920000 -0.840000 3.040000 -42.159691 59.745121 5346.918945
8.920000 -0.840000 3.080000 -55.831768 15.741154 3364.970215
8.920000 -0.840000 3.120000 -34.855370 -21.180260 1663.500122
8.920000 -0.840000 3.160000 1.701523 -28.749523 829.430298
8.920000 -0.840000 3.200000 26.385427 -8.903608 775.465027
8.920000 -0.800000 2.800000 14.664018 13.513205 397.640137
8.920000 -0.800000 2.840000 13.306816 8.196596 244.255539
8.920000 -0.800000 2.880000 18.567211 8.112265 410.550171
8.920000 -0.800000 2.920000 21.318855 17.211515 750.729858
8.920000 -0.800000 2.960000 12.925442 28.688396 990.091187
8.920000 -0.800000 3.000000 -4.899509 30.491028 953.707947
8.920000 -0.800000 3.040000 -20.020134 17.208893 696.951782
8.920000 -0.800000 3.080000 -20.502699 -3.633263 433.561249
8.920000 -0.800000 3.120000 -5.663528 -17.602760 341.932739
8.920000 -0.800000 3.160000 13.360961 -15.885174 430.854004
8.920000 -0.800000 3.200000 23.752777 -2.057526 568.427795
8.960000 -1.200000 2.800000 -20.429569 -40.349007 2045.409668
8.960000 -1.200000 2.840000 1.024349 -52.084724 2713.867920
8.960000 -1.200000 2.880000 26.919724 -45.945610 2835.670410
8.960000 -1.200000 2.920000 42.113045 -23.804304 2340.153320
8.960000 -1.200000 2.960000 38.138584 1.087296 1455.733887
8.960000 -1.200000 3.000000 19.952547 13.614487 583.458374
8.960000 -1.200000 3.040000 2.420609 8.279240 74.405151
8.960000 -1.200000 3.080000 -1.275246 -6.582217 44.951836
8.960000 -1.200000 3.120000 9.909870 -15.737310 345.868469
8.960000 -1.200000 3.160000 24.378288 -9.768684 689.728149
8.960000 -1.200000 3.200000 28.087244 7.158919 840.143372
8.960000 -1.160000 2.800000 6.598103 -31.481483 1034.618774
8.960000 -1.160000 2.840000 20.545212 -22.966602 949.570557
8.960000 -1.160000 2.880000 23.242458 -6.038380 576.673889
8.960000 -1.160000 2.920000 11.744341 6.505020 180.244843
8.960000 -1.160000 2.960000 -4.857307 4.409645 43.038406
8.960000 -1.160000 3.000000 -12.404236 -11.016773 275.234375
8.960000 -1.160000 3.040000 -3.214951 -27.285854 754.853760
8.960000 -1.160000 3.080000 17.338259 -30.385853 1223.915283
8.960000 -1.160000 3.120000 34.700741 -15.892147 1456.701660
8.960000 -1.160000 3.160000 36.378735 7.489214 1379.500732
8.960000 -1.160000 3.200000 21.453014 24.793671 1074.957886
8.960000 -1.120000 2.800000 11.818602 -5.593599 170.967682
8.960000 -1.120000 2.840000 1.628199 9.295921 89.065186
8.960000 -1.120000 2.880000 -22.333027 10.148365 601.753418
8.960000 -1.120000 2.920000 -42.268440 -12.263283 1937.009155
8.960000 -1.120000 2.960000 -38.330208 -47.548908 3730.103516
8.960000 -1.120000 3.000000 -6.712952 -71.724403 5189.454102
8.960000 -1.120000 3.040000 35.150120 -66.195480 5617.372559
8.960000 -1.120000 3.080000 61.456871 -33.031643 4868.036621
8.960000 -1.120000 3.120000 57.863670 6.800209 3394.447266
8.960000 -1.120000 3.160000 31.247074 30.202435 1888.566650
8.960000 -1.120000 3.200000 2.052777 28.831995 835.497803
8.960000 -1.080000 2.800000 -8.250448 10.067064 169.415680
8.960000 -1.080000 2.840000 -40.703728 7.581242 1714.268677
8.960000 -1.080000 2.880000 -68.507233 -28.135529 5484.848633
8.960000 -1.080000 2.920000 -60.788391 -84.529762 10840.509766
8.960000 -1.080000 2.960000 -8.513733 -124.884697 15668.670898
8.960000 -1.080000 3.000000 62.442589 -117.148079 17622.750000
8.960000 -1.080000 3.040000 108.965736 -61.983696 15715.509766
8.960000 -1.080000 3.080000 104.690804 6.159000 10998.097656
8.960000 -1.080000 3.120000 60.000816 46.607094 5772.319336
8.960000 -1.080000 3.160000 10.767920 43.804298 2034.764648
8.960000 -1.080000 3.200000 -12.549259 15.118804 386.062134
8.960000 -1.040000 2.800000 -31.866552 -1.182713 1016.875977
8.960000 -1.040000 2.840000 -65.017212 -34.315674 5404.803223
8.960000 -1.040000 2.880000 -63.934669 -99.560890 14000.012695
8.960000 -1.040000 2.920000 -5.902153 -156.861084 24640.236328
8.960000 -1.040000 2.960000 87.615219 -158.438019 32779.031250
8.960000 -1.040000 3.000000 161.019012 -91.301941 34263.167969
8.960000 -1.040000 3.040000 167.897293 7.011719 28238.666016
8.960000 -1.040000 3.080000 109.274078 76.577972 17805.009766
8.960000 -1.040000 3.120000 31.531511 82.817154 7852.917480
8.960000 -1.040000 3.160000 -13.717875 40.852703 1857.123413
8.960000 -1.040000 3.200000 -10.402307 -3.836056 122.923309
8.960000 -1.000000 2.800000 -33.865883 -29.039503 1990.190796
8.960000 -1.000000 2.840000 -43.647198 -83.250008 8835.641602
8.960000 -1.000000 2.880000 1.011059 -146.211426 21378.802734
8.960000 -1.000000 2.920000 95.940613 -164.003784 36101.843750
8.960000 -1.000000 2.960000 188.809525 -104.174377 46501.335938
8.960000 -1.000000 3.000000 216.886032 9.233662 47124.812500
8.960000 -1.000000 3.040000 159.934906 108.903465 37439.140625
8.960000 -1.000000 3.080000 59.025154 137.369080 22354.232422
8.960000 -1.000000 3.120000 -17.595049 92.512665 8868.178711
8.960000 -1.000000 3.160000 -30.508369 24.259407 1519.279541
8.960000 -1.000000 3.200000 4.070181 -12.457588 171.757874
8.960000 -0.960000 2.800000 -10.413748 -47.024445 2319.744385
8.960000 -0.960000 2.840000 9.858047 -97.842796 9670.393555
8.960000 -0.960000 2.880000 81.810913 -127.516098 22953.380859
8.960000 -0.960000 2.920000 173.067810 -91.333588 38294.289062
8.960000 -0.960000 2.960000 220.705276 10.795817 48827.371094
8.960000 -0.960000 3.000000 183.241440 124.014305 48956.972656
8.960000 -0.960000 3.040000 79.867836 178.807556 38351.015625
8.960000 -0.960000 3.080000 -22.087868 147.895844 22361.052734
8.960000 -0.960000 3.120000 -62.179283 67.396416 8408.540039
8.960000 -0.960000 3.160000 -34.191578 2.835041 1177.101440
8.960000 -0.960000 3.200000 16.579941 -7.162060 326.189545
8.960000 -0.920000 2.800000 18.354937 -38.748055 1838.315430
8.960000 -0.920000 2.840000 54.118900 -67.513565 7486.937012
8.960000 -0.920000 2.880000 120.595444 -58.167847 17926.759766
8.960000 -0.920000 2.920000 173.169525 10.006609 30087.816406
8.960000 -0.920000 2.960000 162.991562 109.324097 38518.007812
8.960000 -0.920000 3.000000 82.451721 178.729706 38742.593750
8.960000 -0.920000 3.040000 -22.100756 173.018616 30423.884766
8.960000 -0.920000 3.080000 -85.921066 101.846848 17755.210938
8.960000 -0.920000 3.120000 -78.715530 21.227413 6646.737793
8.960000 -0.920000 3.160000 -26.161289 -14.879919 905.825012
8.960000 -0.920000 3.200000 18.238554 2.511935 338.954681
8.960000 -0.880000 2.800000 29.244648 -12.500854 1011.520752
8.960000 -0.880000 2.840000 59.559139 -19.962746 3945.802246
8.960000 -0.880000 2.880000 98.669006 8.028534 9800.030273
8.960000 -0.880000 2.920000 108.748795 70.907875 16854.226562
8.960000 -0.880000 2.960000 65.741882 132.813293 21961.367188
8.960000 -0.880000 3.000000 -13.983177 149.181046 22450.513672
8.960000 -0.880000 3.040000 -82.332130 105.780792 17968.156250
8.960000 -0.880000 3.080000 -98.432434 32.998596 10777.851562
8.960000 -0.880000 3.120000 -62.266102 -19.398035 4253.351074
8.960000 -0.880000 3.160000 -11.715961 -23.814875 704.411987
8.960000 -0.880000 3.200000 12.875437 5.930910 200.952560
8.960000 -0.840000 2.800000 17.760677 9.487358 405.451599
8.960000 -0.840000 2.840000 33.310059 8.469286 1181.288818
8.960000 -0.840000 2.880000 48.169636 30.012022 3221.035156
8.960000 -0.840000 2.920000 39.176434 65.918839 5880.086426
8.960000 -0.840000 2.960000 -0.157974 89.189148 7954.729004
8.960000 -0.840000 3.000000 -49.480103 77.171051 8403.651367
8.960000 -0.840000 3.040000 -76.765800 33.426949 7010.349121
8.960000 -0.840000 3.080000 -65.706863 -13.568771 4501.503418
8.960000 -0.840000 3.120000 -29.359568 -34.446796 2048.565918
8.960000 -0.840000 3.160000 2.643909 -22.948229 533.611450
8.960000 -0.840000 3.200000 10.185279 2.238499 108.750786
8.960000 -0.800000 2.800000 -1.087310 13.793525 191.443558
8.960000 -0.800000 2.840000 5.999250 6.858109 83.024658
8.960000 -0.800000 2.880000 14.552570 13.098118 383.337982
8.960000 -0.800000 2.920000 11.236397 27.444164 879.438721
8.960000 -0.800000 2.960000 -6.558239 35.083012 1273.828247
8.960000 -0.800000 3.000000 -27.149191 25.475609 1386.085205
8.960000 -0.800000 3.040000 -34.900253 2.674309 1225.179688
8.960000 -0.800000 3.080000 -24.285315 -18.174072 920.073364
8.960000 -0.800000 3.120000 -4.104237 -24.264095 605.591125
8.960000 -0.800000 3.160000 11.280190 -15.220306 358.900391
8.960000 -0.800000 3.200000 14.098022 -1.051394 199.859665
9.000000 -1.200000 2.800000 4.834843 -24.654072 631.198975
9.000000 -1.200000 2.840000 19.825371 -24.846230 1010.380493
9.000000 -1.200000 2.880000 32.132374 -14.300016 1236.979980
9.000000 -1.200000 2.920000 34.416786 2.025414 1188.617432
9.000000 -1.200000 2.960000 25.390450 14.860260 865.502258
9.000000 -1.200000 3.000000 11.606018 16.814137 417.414856
9.000000 -1.200000 3.040000 3.441929 8.379272 82.059067
9.000000 -1.200000 3.080000 7.059156 -1.428213 51.871479
9.000000 -1.200000 3.120000 18.530914 -1.824646 346.724121
9.000000 -1.200000 3.160000 26.177458 10.283616 791.012024
9.000000 -1.200000 3.200000 20.354427 26.612551 1122.530518
9.000000 -1.160000 2.800000 10.128835 -7.435356 157.877808
9.000000 -1.160000 2.840000 11.878869 0.606255 141.475067
9.000000 -1.160000 2.880000 5.535315 6.587013 74.028450
9.000000 -1.160000 2.920000 -3.698881 4.182003 31.170872
9.000000 -1.160000 2.960000 -7.403088 -6.116322 92.215096
9.000000 -1.160000 3.000000 -0.528122 -17.081596 292.059845
9.000000 -1.160000 3.040000 14.554905 -19.743643 601.656677
9.000000 -1.160000 3.080000 29.122587 -9.638680 941.029175
9.000000 -1.160000 3.120000 33.450447 9.678558 1212.606812
9.000000 -1.160000 3.160000 23.277121 28.229168 1338.710205
9.000000 -1.160000 3.200000 3.132135 35.747215 1287.673706
9.000000 -1.120000 2.800000 -4.525873 4.157700 37.769997
9.000000 -1.120000 2.840000 -20.070055 4.385643 422.040955
9.000000 -1.120000 2.880000 -34.670387 -13.089542 1373.371826
9.000000 -1.120000 2.920000 -31.103989 -42.342949 2760.383301
9.000000 -1.120000 2.960000 -3.731178 -63.970600 4106.159668
9.000000 -1.120000 3.000000 34.564224 -60.518574 4857.183594
9.000000 -1.120000 3.040000 61.351166 -31.046730 4727.865234
9.000000 -1.120000 3.080000 61.588264 7.888050 3855.335693
9.000000 -1.120000 3.120000 37.988365 35.014885 2669.157959
9.000000 -1.120000 3.160000 7.016861 39.430431 1603.995239
9.000000 -1.120000 3.200000 -14.523813 25.871914 880.297119
9.000000 -1.080000 2.800000 -23.664423 -5.583839 591.184204
9.000000 -1.080000 2.840000 -44.323181 -27.174555 2703.000977
9.000000 -1.080000 2.880000 -42.247421 -70.489700 6753.642578
9.000000 -1.080000 2.920000 -1.766457 -108.037750 11675.275391
9.000000 -1.080000 2.960000 62.141548 -107.372833 15390.498047
9.000000 -1.080000 3.000000 111.658569 -60.237766 16096.224609
9.000000 -1.080000 3.040000 115.862167 7.687023 13483.131836
9.000000 -1.080000 3.080000 75.694473 56.416908 8912.520508
9.000000 -1.080000 3.120000 21.676674 63.027996 4442.406738
9.000000 -1.080000 3.160000 -12.534028 36.801811 1511.475098
9.000000 -1.080000 3.200000 -15.892471 6.292880 292.170990
9.000000 -1.040000 2.800000 -25.198284 -30.643263 1573.963135
9.000000 -1.040000 2.840000 -30.995712 -72.335838 6193.208008
9.000000 -1.040000 2.880000 6.284431 -120.618546 14588.328125
9.000000 -1.040000 2.920000 82.861740 -131.944870 24275.517578
9.000000 -1.040000 2.960000 155.973511 -81.103554 30905.523438
9.000000 -1.040000 3.000000 175.780792 11.079582 31021.644531
9.000000 -1.040000 3.040000 127.938881 90.208519 24505.933594
9.000000 -1.040000 3.080000 46.760838 111.802376 14686.347656
9.000000 -1.040000 3.120000 -13.937347 76.286774 6013.921387
9.000000 -1.040000 3.160000 -25.113564 23.822643 1198.209473
9.000000 -1.040000 3.200000 -1.307159 -4.053537 18.139830
9.000000 -1.000000 2.800000 -3.072604 -48.116829 2324.670166
9.000000 -1.000000 2.840000 17.019051 -92.381317 8823.956055
9.000000 -1.000000 2.880000 83.868073 -116.507767 20607.914062
9.000000 -1.000000 2.920000 166.556549 -79.517830 34064.167969
9.000000 -1.000000 2.960000 206.656876 16.738138 42987.226562
9.000000 -1.000000 3.000000 167.926514 119.813843 42554.671875
9.000000 -1.000000 3.040000 71.301346 166.512360 32810.246094
9.000000 -1.000000 3.080000 -20.076916 135.431946 18744.894531
9.000000 -1.000000 3.120000 -53.496803 63.075432 6840.417969
9.000000 -1.000000 3.160000 -28.031004 8.836740 863.825195
9.000000 -1.000000 3.200000 12.670635 3.233906 171.003143
9.000000 -0.960000 2.800000 25.820345 -40.685043 2321.962891
9.000000 -0.960000 2.840000 64.754929 -68.454208 8879.179688
9.000000 -0.960000 2.880000 134.589996 -54.707096 21107.333984
9.000000 -0.960000 2.920000 186.577118 20.778440 35242.761719
9.000000 -0.960000 2.960000 170.113617 125.559059 44703.718750
9.000000 -0.960000 3.000000 81.328339 194.135956 44303.070312
9.000000 -0.960000 3.040000 -27.197920 182.390457 34006.003906
9.000000 -0.960000 3.080000 -88.460266 106.252113 19114.730469
9.000000 -0.960000 3.120000 -76.752678 26.981533 6618.976562
9.000000 -0.960000 3.160000 -24.918709 -3.064907 630.335754
9.000000 -0.960000 3.200000 11.301229 17.598555 437.426941
9.000000 -0.920000 2.800000 37.882088 -13.704139 1622.856079
9.000000 -0.920000 2.840000 77.662918 -19.390728 6407.529297
9.000000 -0.920000 2.880000 124.475494 20.534578 15915.817383
9.000000 -0.920000 2.920000 130.714523 100.898155 27266.724609
9.000000 -0.920000 2.960000 70.867325 173.687393 35189.488281
9.000000 -0.920000 3.000000 -28.601839 185.831818 35351.531250
9.000000 -0.920000 3.040000 -106.511963 126.943871 27459.542969
9.000000 -0.920000 3.080000 -118.169281 40.434620 15598.937500
9.000000 -0.920000 3.120000 -72.362701 -14.174061 5437.264160
9.000000 -0.920000 3.160000 -19.319696 -11.957146 516.223999
9.000000 -0.920000 3.200000 -2.826603 21.546421 472.237946
9.000000 -0.880000 2.800000 25.475723 10.576222 760.868958
9.000000 -0.880000 2.840000 52.868446 17.340172 3095.754150
9.000000 -0.880000 2.880000 70.485474 58.647499 8407.731445
9.000000 -0.880000 2.920000 46.175278 114.024651 15133.777344
9.000000 -0.880000 2.960000 -20.658730 140.596924 20194.277344
9.000000 -0.880000 3.000000 -92.147423 111.322212 20883.781250
9.000000 -0.880000 3.040000 -122.386902 41.980270 16740.896484
9.000000 -0.880000 3.080000 -97.381668 -20.865417 9918.554688
9.000000 -0.880000 3.120000 -45.915291 -40.260429 3729.116211
9.000000 -0.880000 3.160000 -11.428993 -18.805634 484.273743
9.000000 -0.880000 3.200000 -13.336519 9.467030 267.487396
9.000000 -0.840000 2.800000 2.766045 15.099980 235.660400
9.000000 -0.840000 2.840000 18.036766 21.128675 771.745850
9.000000 -0.840000 2.880000 19.863480 47.190586 2621.509277
9.000000 -0.840000 2.920000 -7.013496 72.045822 5239.789551
9.000000 -0.840000 2.960000 -51.717983 69.163261 7458.306641
9.000000 -0.840000 3.000000 -84.265816 32.584602 8162.483887
9.000000 -0.840000 3.040000 -82.102615 -15.754135 6989.032227
9.000000 -0.840000 3.080000 -50.221375 -45.103867 4556.545410
9.000000 -0.840000 3.120000 -15.329643 -42.644012 2053.509766
9.000000 -0.840000 3.160000 -0.839127 -21.987385 484.149231
9.000000 -0.840000 3.200000 -7.905335 -6.968470 111.053894
9.000000 -0.800000 2.800000 -10.290335 3.204121 116.157379
9.000000 -0.800000 2.840000 1.290007 3.643718 14.940802
9.000000 -0.800000 2.880000 3.732887 15.592508 257.060760
9.000000 -0.800000 2.920000 -9.076805 25.055248 710.153809
9.000000 -0.800000 2.960000 -28.203648 19.359253 1170.226440
9.000000 -0.800000 3.000000 -38.166698 -0.736282 1457.239014
9.000000 -0.800000 3.040000 -31.264038 -22.255547 1472.749390
9.000000 -0.800000 3.080000 -13.456184 -32.354149 1227.859741
9.000000 -0.800000 3.120000 2.777987 -28.814589 837.997742
9.000000 -0.800000 3.160000 9.831427 -19.196096 465.147064
9.000000 -0.800000 3.200000 9.163576 -11.797510 223.152374
9.040000 -1.200000 2.800000 7.060802 2.907626 58.309208
9.040000 -1.200000 2.840000 9.538484 3.697544 104.654495
9.040000 -1.200000 2.880000 12.110132 5.553764 177.499603
9.040000 -1.200000 2.920000 13.762224 9.576538 281.108887
9.040000 -1.200000 2.960000 12.029736 14.620166 358.463806
9.040000 -1.200000 3.000000 6.906864 16.842693 331.381104
9.040000 -1.200000 3.040000 2.758289 14.095721 206.297516
9.040000 -1.200000 3.080000 4.248533 9.987232 117.794838
9.040000 -1.200000 3.120000 9.995699 11.407867 230.053436
9.040000 -1.200000 3.160000 12.028153 20.711798 573.655029
9.040000 -1.200000 3.200000 3.379121 31.160286 982.381897
9.040000 -1.160000 2.800000 -6.193446 8.255092 106.505310
9.040000 -1.160000 2.840000 -11.099289 6.107607 160.497070
9.040000 -1.160000 2.880000 -13.032057 -1.545166 172.222046
9.040000 -1.160000 2.920000 -7.912750 -9.768614 158.037445
9.040000 -1.160000 2.960000 2.384331 -12.635877 165.350403
9.040000 -1.160000 3.000000 12.560482 -8.216774 225.281067
9.040000 -1.160000 3.040000 18.439749 1.379982 341.928680
9.040000 -1.160000 3.080000 18.452126 13.028324 510.218140
9.040000 -1.160000 3.120000 12.157471 24.003960 723.994141
9.040000 -1.160000 3.160000 -0.301484 30.930046 956.758606
9.040000 -1.160000 3.200000 -16.264111 29.659374 1144.199707
9.040000 -1.120000 2.800000 -21.067457 -3.864512 458.772186
9.040000 -1.120000 2.840000 -28.690807 -16.849068 1107.053467
9.040000 -1.120000 2.880000 -22.907591 -38.378605 1997.675049
9.040000 -1.120000 2.920000 1.045677 -53.138252 2824.767334
9.040000 -1.120000 2.960000 32.537140 -47.226948 3289.050049
9.040000 -1.120000 3.000000 53.259235 -20.557121 3259.141357
9.040000 -1.120000 3.040000 51.520672 12.787575 2817.901611
9.040000 -1.120000 3.080000 30.256792 35.593681 2182.383545
9.040000 -1.120000 3.120000 2.920934 39.498116 1568.632935
9.040000 -1.120000 3.160000 -17.373810 28.209808 1097.642578
9.040000 -1.120000 3.200000 -25.607811 11.551986 789.208374
9.040000 -1.080000 2.800000 -19.421497 -27.938816 1157.771973
9.040000 -1.080000 2.840000 -18.879238 -52.587181 3121.837158
9.040000 -1.080000 2.880000 7.639400 -78.551727 6228.734375
9.040000 -1.080000 2.920000 55.242268 -79.711922 9405.698242
9.040000 -1.080000 2.960000 96.607559 -43.644859 11237.894531
9.040000 -1.080000 3.000000 103.263954 14.072468 10861.478516
9.040000 -1.080000 3.040000 69.860916 60.313477 8518.262695
9.040000 -1.080000 3.080000 18.835991 70.651291 5346.399414
9.040000 -1.080000 3.120000 -18.574329 47.525177 2603.647949
9.040000 -1.080000 3.160000 -26.979759 14.678582 943.368164
9.040000 -1.080000 3.200000 -15.183959 -5.104502 256.608551
9.040000 -1.040000 2.800000 3.803994 -43.811481 1933.916260
9.040000 -1.040000 2.840000 20.632698 -70.918236 5455.104004
9.040000 -1.040000 2.880000 68.267311 -82.546265 11474.311523
9.040000 -1.040000 2.920000 123.834297 -51.199501 17956.322266
9.040000 -1.040000 2.960000 146.529816 19.409653 21847.720703
9.040000 -1.040000 3.000000 113.260262 90.793060 21071.265625
9.040000 -1.040000 3.040000 41.694469 119.385773 15991.391602
9.040000 -1.040000 3.080000 -22.654888 92.982140 9158.922852
9.040000 -1.040000 3.120000 -44.288849 39.635864 3532.503906
9.040000 -1.040000 3.160000 -25.151628 1.067051 633.743042
9.040000 -1.040000 3.200000 2.929640 -3.412965 20.231117
9.040000 -1.000000 2.800000 33.178665 -35.306557 2347.376953
9.040000 -1.000000 2.840000 64.006516 -52.095516 6810.776855
9.040000 -1.000000 2.880000 116.958755 -36.177845 14988.187500
9.040000 -1.000000 2.920000 153.120117 27.214060 24186.375000
9.040000 -1.000000 2.960000 133.350647 110.428253 29976.792969
9.040000 -1.000000 3.000000 57.373924 160.672729 29107.494141
9.040000 -1.000000 3.040000 -30.142139 144.842316 21887.845703
9.040000 -1.000000 3.080000 -75.614731 79.449097 12029.746094
9.040000 -1.000000 3.120000 -61.680874 15.929688 4058.285156
9.040000 -1.000000 3.160000 -18.607815 -5.083578 372.093536
9.040000 -1.000000 3.200000 7.785002 13.423740 240.803055
9.040000 -0.960000 2.800000 45.680042 -6.733769 2132.010010
9.040000 -0.960000 2.840000 79.267509 -6.986241 6332.145508
9.040000 -0.960000 2.880000 116.682449 32.636559 14679.938477
9.040000 -0.960000 2.920000 115.481224 105.728745 24514.480469
9.040000 -0.960000 2.960000 55.003513 167.465012 31069.916016
9.040000 -0.960000 3.000000 -37.264938 170.907684 30598.113281
9.040000 -0.960000 3.040000 -104.218002 110.786301 23134.996094
9.040000 -0.960000 3.080000 -107.878189 30.872850 12590.836914
9.040000 -0.960000 3.120000 -61.804749 -14.220840 4022.059082
9.040000 -0.960000 3.160000 -15.603249 -6.414300 284.604614
9.040000 -0.960000 3.200000 -7.461336 24.788898 670.161011
9.040000 -0.920000 2.800000 32.098907 19.929478 1427.523926
9.040000 -0.920000 2.840000 57.480312 31.823002 4316.689941
9.040000 -0.920000 2.880000 69.231186 77.352066 10776.298828
9.040000 -0.920000 2.920000 36.036255 132.435974 18837.898438
9.040000 -0.920000 2.960000 -38.195236 152.167877 24613.939453
9.040000 -0.920000 3.000000 -110.323822 112.421036 24809.835938
9.040000 -0.920000 3.040000 -133.592834 35.808792 19129.314453
9.040000 -0.920000 3.080000 -99.601128 -26.000425 10596.407227
9.040000 -0.920000 3.120000 -45.029766 -37.930012 3466.365723
9.040000 -0.920000 3.160000 -16.258520 -10.640821 377.566528
9.040000 -0.920000 3.200000 -27.303370 14.592594 958.417786
9.040000 -0.880000 2.800000 5.630769 25.227892 668.152100
9.040000 -0.880000 2.840000 19.906361 39.725296 1974.362305
9.040000 -0.880000 2.880000 12.408722 73.868118 5610.475586
9.040000 -0.880000 2.920000 -30.048738 98.164551 10539.206055
9.040000 -0.880000 2.960000 -87.128716 82.683563 14427.984375
9.040000 -0.880000 3.000000 -119.672157 27.994816 15105.134766
9.040000 -0.880000 3.040000 -105.295273 -31.892435 12104.222656
9.040000 -0.880000 3.080000 -59.430305 -59.385334 7058.579102
9.040000 -0.880000 3.120000 -20.342207 -46.733902 2597.863037
9.040000 -0.880000 3.160000 -13.247865 -20.030241 576.716431
9.040000 -0.880000 3.200000 -29.580366 -11.112111 998.477051
9.040000 -0.840000 2.800000 -11.220073 9.854331 222.997864
9.040000 -0.840000 2.840000 -3.646818 20.862621 448.548248
9.040000 -0.840000 2.880000 -15.889391 38.569256 1740.060303
9.040000 -0.840000 2.920000 -46.569794 40.050243 3772.767578
9.040000 -0.840000 2.960000 -73.677597 13.930843 5622.456543
9.040000 -0.840000 3.000000 -74.802917 -26.625488 6304.393066
9.040000 -0.840000 3.040000 -48.711876 -55.353153 5436.818359
9.040000 -0.840000 3.080000 -16.087736 -57.256142 3537.081055
9.040000 -0.840000 3.120000 0.873549 -41.043224 1685.309326
9.040000 -0.840000 3.160000 -1.487019 -27.887859 779.943970
9.040000 -0.840000 3.200000 -8.472145 -29.680590 952.714600
9.040000 -0.800000 2.800000 -8.149045 -7.835577 127.803207
9.040000 -0.800000 2.840000 -2.545870 -0.122692 6.496506
9.040000 -0.800000 2.880000 -9.760063 7.349142 149.268723
9.040000 -0.800000 2.920000 -23.029070 3.023212 539.477905
9.040000 -0.800000 2.960000 -29.146452 -12.969353 1017.719788
9.040000 -0.800000 3.000000 -21.751614 -29.618229 1350.372192
9.040000 -0.800000 3.040000 -6.564640 -36.629742 1384.832397
9.040000 -0.800000 3.080000 6.066639 -33.741032 1175.261353
9.040000 -0.800000 3.120000 11.863993 -28.368357 945.518005
9.040000 -0.800000 3.160000 14.748100 -25.904192 888.533630
9.040000 -0.800000 3.200000 19.525658 -24.575542 985.208618
9.080000 -1.200000 2.800000 -13.456306 18.651583 528.953735
9.080000 -1.200000 2.840000 -17.811424 9.344433 404.565247
9.080000 -1.200000 2.880000 -11.702633 -1.040976 138.035248
9.080000 -1.200000 2.920000 0.936811 -1.961651 4.725690
9.080000 -1.200000 2.960000 8.493258 7.871898 134.102203
9.080000 -1.200000 3.000000 4.441231 18.651638 367.608124
9.080000 -1.200000 3.040000 -5.511216 20.326565 443.542755
9.080000 -1.200000 3.080000 -10.257654 13.708357 293.138519
9.080000 -1.200000 3.120000 -6.244896 8.967851 119.421074
9.080000 -1.200000 3.160000 -1.507466 13.174815 175.848221
9.080000 -1.200000 3.200000 -5.993060 21.410902 494.343506
9.080000 -1.160000 2.800000 -26.967251 3.412059 738.874756
9.080000 -1.160000 2.840000 -27.266220 -9.906518 841.585876
9.080000 -1.160000 2.880000 -15.003305 -21.368145 681.696777
9.080000 -1.160000 2.920000 3.333050 -20.058250 413.442627
9.080000 -1.160000 2.960000 14.763906 -5.985193 253.795471
9.080000 -1.160000 3.000000 12.661020 10.162056 263.568817
9.080000 -1.160000 3.040000 2.156675 18.142757 333.810883
9.080000 -1.160000 3.080000 -7.052546 17.416586 353.075867
9.080000 -1.160000 3.120000 -11.308359 14.757828 345.672485
9.080000 -1.160000 3.160000 -14.922429 14.364954 429.030792
9.080000 -1.160000 3.200000 -22.224623 12.714233 655.585571
9.080000 -1.120000 2.800000 -23.155502 -21.718416 1007.866943
9.080000 -1.120000 2.840000 -16.494946 -36.490196 1603.617676
9.080000 -1.120000 2.880000 4.481678 -45.079548 2052.250977
9.080000 -1.120000 2.920000 29.854134 -35.528400 2153.536621
9.080000 -1.120000 2.960000 42.985497 -9.461147 1937.266235
9.080000 -1.120000 3.000000 35.192635 18.401875 1577.150513
9.080000 -1.120000 3.040000 12.701954 32.723888 1232.192505
9.080000 -1.120000 3.080000 -9.960503 29.404037 963.809021
9.080000 -1.120000 3.120000 -22.431227 16.063194 761.186157
9.080000 -1.120000 3.160000 -24.596426 2.812126 612.892273
9.080000 -1.120000 3.200000 -22.303478 -6.256557 536.589661
9.080000 -1.080000 2.800000 1.793257 -37.419052 1403.401245
9.080000 -1.080000 2.840000 15.990198 -48.826805 2639.743408
9.080000 -1.080000 2.880000 44.319496 -47.678455 4237.453125
9.080000 -1.080000 2.920000 70.700691 -22.323524 5496.927734
9.080000 -1.080000 2.960000 73.843262 19.553406 5835.162598
9.080000 -1.080000 3.000000 46.766247 54.318249 5137.553711
9.080000 -1.080000 3.040000 4.557831 61.327564 3781.843994
9.080000 -1.080000 3.080000 -27.494537 39.882607 2346.571777
9.080000 -1.080000 3.120000 -34.328247 8.515808 1250.947632
9.080000 -1.080000 3.160000 -21.295290 -11.896194 595.008789
9.080000 -1.080000 3.200000 -5.848908 -14.884735 255.765076
9.080000 -1.040000 2.800000 32.616428 -28.151655 1856.347168
9.080000 -1.040000 2.840000 51.047428 -31.748226 3613.789795
9.080000 -1.040000 2.880000 79.227470 -15.870988 6528.880371
9.080000 -1.040000 2.920000 93.747391 25.898264 9459.292969
9.080000 -1.040000 2.960000 73.272827 74.571915 10929.876953
9.080000 -1.040000 3.000000 21.431396 98.297424 10121.688477
9.080000 -1.040000 3.040000 -31.977718 80.058884 7431.999023
9.080000 -1.040000 3.080000 -54.887398 34.009499 4169.272461
9.080000 -1.040000 3.120000 -40.022419 -6.317786 1641.708496
9.080000 -1.040000 3.160000 -9.329556 -17.230007 383.913757
9.080000 -1.040000 3.200000 8.118052 -3.632676 79.099098
9.080000 -1.000000 2.800000 46.268547 2.247328 2145.829102
9.080000 -1.000000 2.840000 63.204189 7.352564 4048.829834
9.080000 -1.000000 2.880000 80.977386 35.826942 7840.906738
9.080000 -1.000000 2.920000 72.714920 83.079529 12189.667969
9.080000 -1.000000 2.960000 26.245499 119.065598 14865.442383
9.080000 -1.000000 3.000000 -37.891903 113.226364 14256.005859
9.080000 -1.000000 3.040000 -79.837379 64.696686 10559.667969
9.080000 -1.000000 3.080000 -74.989830 6.584091 5666.824707
9.080000 -1.000000 3.120000 -36.322697 -22.299109 1816.588501
9.080000 -1.000000 3.160000 -1.656955 -11.579576 136.832092
9.080000 -1.000000 3.200000 1.989767 13.966896 199.033356
9.080000 -0.960000 2.800000 32.152588 31.890923 2050.819824
9.080000 -0.960000 2.840000 43.131603 42.412117 3659.123047
9.080000 -0.960000 2.880000 44.443661 74.036980 7456.712891
9.080000 -0.960000 2.920000 14.083396 109.743881 12242.061523
9.080000 -0.960000 2.960000 -43.914532 116.756516 15560.570312
9.080000 -0.960000 3.000000 -95.845192 78.587906 15362.359375
9.080000 -0.960000 3.040000 -106.364243 15.389681 11550.194336
9.080000 -0.960000 3.080000 -71.948120 -30.797859 6125.040527
9.080000 -0.960000 3.120000 -25.365000 -33.643444 1775.264648
9.080000 -0.960000 3.160000 -5.117331 -5.933857 61.397732
9.080000 -0.960000 3.200000 -19.778374 14.941573 614.434692
9.080000 -0.920000 2.800000 2.223034 39.303497 1549.706787
9.080000 -0.920000 2.840000 6.596114 50.518200 2595.597412
9.080000 -0.920000 2.880000 -6.072922 74.460152 5581.194336
9.080000 -0.920000 2.920000 -45.257687 87.206238 9653.185547
9.080000 -0.920000 2.960000 -92.205208 65.137405 12744.681641
9.080000 -0.920000 3.000000 -113.157318 11.896780 12946.112305
9.080000 -0.920000 3.040000 -91.337906 -40.021362 9944.322266
9.080000 -0.920000 3.080000 -45.051392 -57.634132 5351.321289
9.080000 -0.920000 3.120000 -11.658503 -38.287827 1601.878296
9.080000 -0.920000 3.160000 -12.393925 -11.217043 279.431427
9.080000 -0.920000 3.200000 -33.480930 -7.875962 1183.003418
9.080000 -0.880000 2.800000 -19.454758 22.183262 870.584717
9.080000 -0.880000 2.840000 -19.518293 31.341021 1363.223389
9.080000 -0.880000 2.880000 -37.494984 42.222412 3188.605957
9.080000 -0.880000 2.920000 -68.785912 33.830463 5876.001953
9.080000 -0.880000 2.960000 -89.914383 -1.066181 8085.732910
9.080000 -0.880000 3.000000 -80.523514 -44.586208 8471.965820
9.080000 -0.880000 3.040000 -44.932274 -68.383476 6695.208984
9.080000 -0.880000 3.080000 -9.726397 -60.593365 3766.158691
9.080000 -0.880000 3.120000 1.423882 -37.158669 1382.794067
9.080000 -0.880000 3.160000 -9.895485 -25.335741 739.820435
9.080000 -0.880000 3.200000 -20.343906 -36.375957 1737.084839
9.080000 -0.840000 2.800000 -18.221882 -1.432793 334.089874
9.080000 -0.840000 2.840000 -20.877378 5.438284 465.439850
9.080000 -0.840000 2.880000 -35.769547 5.173519 1306.225708
9.080000 -0.840000 2.920000 -50.092880 -12.288231 2660.297363
9.080000 -0.840000 2.960000 -47.442970 -40.041306 3854.141602
9.080000 -0.840000 3.000000 -25.268827 -59.395226 4166.306152
9.080000 -0.840000 3.040000 1.463421 -58.229038 3392.762451
9.080000 -0.840000 3.080000 14.984759 -43.057831 2078.519775
9.080000 -0.840000 3.120000 12.299215 -31.687548 1155.371338
9.080000 -0.840000 3.160000 6.916178 -34.468952 1235.942139
9.080000 -0.840000 3.200000 13.334616 -44.256714 2136.468750
9.080000 -0.800000 2.800000 -1.055980 -10.739743 116.457184
9.080000 -0.800000 2.840000 -6.165962 -6.332108 78.114670
9.080000 -0.800000 2.880000 -14.273026 -12.355526 356.378296
9.080000 -0.800000 2.920000 -13.755786 -26.458725 889.285767
9.080000 -0.800000 2.960000 -1.296059 -36.993065 1370.166626
9.080000 -0.800000 3.000000 14.325348 -35.650330 1476.161621
9.080000 -0.800000 3.040000 22.029808 -26.378433 1181.134155
9.080000 -0.800000 3.080000 20.680408 -20.385620 843.252808
9.080000 -0.800000 3.120000 19.753548 -22.968849 917.770691
9.080000 -0.800000 3.160000 27.698643 -27.421833 1519.171631
9.080000 -0.800000 3.200000 41.541943 -23.036366 2256.407227
9.120000 -1.200000 2.800000 -37.039326 9.733615 1466.654907
9.120000 -1.200000 2.840000 -35.696918 -10.848932 1391.969360
9.120000 -1.200000 2.880000 -16.079788 -23.880909 828.857422
9.120000 -1.200000 2.920000 6.890000 -15.906951 300.503174
9.120000 -1.200000 2.960000 13.444494 6.453314 222.399689
9.120000 -1.200000 3.000000 -0.536977 22.530169 507.896820
9.120000 -1.200000 3.040000 -19.305107 18.747627 724.160706
9.120000 -1.200000 3.080000 -24.008959 2.129539 580.965027
9.120000 -1.200000 3.120000 -12.188551 -8.207461 215.923187
9.120000 -1.200000 3.160000 0.859093 -1.918175 4.417435
9.120000 -1.200000 3.200000 -0.344790 12.116492 146.928268
9.120000 -1.160000 2.800000 -34.063271 -15.947649 1414.633911
9.120000 -1.160000 2.840000 -22.684153 -31.894718 1531.843872
9.120000 -1.160000 2.880000 1.114410 -33.711929 1137.736084
9.120000 -1.160000 2.920000 19.290859 -15.357572 607.992249
9.120000 -1.160000 2.960000 16.732456 10.099051 381.965912
9.120000 -1.160000 3.000000 -3.219255 22.720043 526.563965
9.120000 -1.160000 3.040000 -22.277863 15.191858 727.095703
9.120000 -1.160000 3.080000 -25.790485 -1.148031 666.467102
9.120000 -1.160000 3.120000 -16.378696 -9.523638 358.961365
9.120000 -1.160000 3.160000 -8.686878 -5.265800 103.190506
9.120000 -1.160000 3.200000 -12.155569 1.138728 149.054565
9.120000 -1.120000 2.800000 -9.873823 -33.029148 1188.417114
9.120000 -1.120000 2.840000 5.625641 -38.657867 1526.078491
9.120000 -1.120000 2.880000 25.859226 -29.117599 1516.534180
9.120000 -1.120000 2.920000 34.587692 -4.480696 1216.385132
9.120000 -1.120000 2.960000 22.394753 20.258415 911.928345
9.120000 -1.120000 3.000000 -3.248301 28.257732 809.050903
9.120000 -1.120000 3.040000 -24.375626 16.143909 854.796997
9.120000 -1.120000 3.080000 -28.768127 -3.878771 842.650024
9.120000 -1.120000 3.120000 -19.545509 -16.553354 656.040527
9.120000 -1.120000 3.160000 -9.370148 -17.307560 387.351318
9.120000 -1.120000 3.200000 -6.668417 -13.708065 232.378830
9.120000 -1.080000 2.800000 21.579805 -25.584259 1120.242310
9.120000 -1.080000 2.840000 32.975285 -21.388973 1544.857544
9.120000 -1.080000 2.880000 43.878265 -5.254332 1952.910156
9.120000 -1.080000 2.920000 41.251602 20.095425 2105.520752
9.120000 -1.080000 2.960000 19.451035 39.935516 1973.188232
9.120000 -1.080000 3.000000 -11.693964 39.550713 1701.007690
9.120000 -1.080000 3.040000 -33.359978 18.034445 1438.129272
9.120000 -1.080000 3.080000 -33.367207 -9.893675 1211.255249
9.120000 -1.080000 3.120000 -16.165783 -26.266621 951.267944
9.120000 -1.080000 3.160000 2.233039 -24.756781 617.884644
9.120000 -1.080000 3.200000 9.089121 -14.182931 283.767639
9.120000 -1.040000 2.800000 37.388924 4.386880 1417.176392
9.120000 -1.040000 2.840000 39.798634 12.254295 1734.098999
9.120000 -1.040000 2.880000 40.094398 28.197365 2402.652100
9.120000 -1.040000 2.920000 26.983253 48.436020 3074.144043
9.120000 -1.040000 2.960000 -2.302303 57.921951 3360.252930
9.120000 -1.040000 3.000000 -34.342434 43.885880 3105.373047
9.120000 -1.040000 3.040000 -48.427994 10.480011 2455.101074
9.120000 -1.040000 3.080000 -35.133141 -21.536024 1698.137817
9.120000 -1.040000 3.120000 -6.217969 -31.822418 1051.329468
9.120000 -1.040000 3.160000 15.123355 -18.491671 570.657776
9.120000 -1.040000 3.200000 15.123024 0.780064 229.314362
9.120000 -1.000000 2.800000 24.901831 36.240391 1933.467163
9.120000 -1.000000 2.840000 19.683662 40.820366 2053.748779
9.120000 -1.000000 2.880000 12.215815 51.193180 2769.967773
9.120000 -1.000000 2.920000 -7.621262 61.307865 3816.738037
9.120000 -1.000000 2.960000 -37.944374 55.831223 4556.900879
9.120000 -1.000000 3.000000 -60.930889 27.239891 4454.584961
9.120000 -1.000000 3.040000 -57.787277 -11.650644 3475.106934
9.120000 -1.000000 3.080000 -28.658802 -35.576332 2087.002441
9.120000 -1.000000 3.120000 4.193892 -29.726067 901.227783
9.120000 -1.000000 3.160000 15.724324 -4.787167 270.171356
9.120000 -1.000000 3.200000 1.722164 12.528071 159.918427
9.120000 -0.960000 2.800000 -6.562809 46.999298 2252.004639
9.120000 -0.960000 2.840000 -14.073899 45.546249 2272.535645
9.120000 -0.960000 2.880000 -24.720356 48.157661 2930.256348
9.120000 -0.960000 2.920000 -44.947044 45.607002 4100.235352
9.120000 -0.960000 2.960000 -66.498375 25.719799 5083.541992
9.120000 -0.960000 3.000000 -70.879227 -9.475242 5113.645020
9.120000 -0.960000 3.040000 -48.710781 -39.968327 3970.207520
9.120000 -0.960000 3.080000 -13.178020 -44.768040 2177.837646
9.120000 -0.960000 3.120000 9.222373 -23.575216 640.843018
9.120000 -0.960000 3.160000 3.693067 0.636513 14.043889
9.120000 -0.960000 3.200000 -17.608776 3.081444 319.564301
9.120000 -0.920000 2.800000 -32.995438 30.694080 2030.825439
9.120000 -0.920000 2.840000 -38.672554 25.483217 2144.960693
9.120000 -0.920000 2.880000 -48.541191 20.841661 2790.622070
9.120000 -0.920000 2.920000 -61.965122 7.203894 3891.572266
9.120000 -0.920000 2.960000 -66.744148 -19.202774 4823.527832
9.120000 -0.920000 3.000000 -51.378464 -46.953590 4844.386230
9.120000 -0.920000 3.040000 -20.377886 -57.341888 3703.350586
9.120000 -0.920000 3.080000 5.861173 -43.451286 1922.367676
9.120000 -0.920000 3.120000 9.477174 -19.797504 481.758026
9.120000 -0.920000 3.160000 -6.305188 -10.029184 140.339935
9.120000 -0.920000 3.200000 -18.981888 -23.539389 914.414917
9.120000 -0.880000 2.800000 -36.077499 3.019884 1310.705688
9.120000 -0.880000 2.840000 -40.186237 -2.468288 1621.026123
9.120000 -0.880000 2.880000 -46.769012 -12.758055 2350.108643
9.120000 -0.880000 2.920000 -48.308514 -31.702755 3338.777100
9.120000 -0.880000 2.960000 -35.754692 -52.640152 4049.383545
9.120000 -0.880000 3.000000 -10.452144 -61.762119 3923.806641
9.120000 -0.880000 3.040000 13.313848 -51.856361 2866.340820
9.120000 -0.880000 3.080000 20.498743 -31.861238 1435.336914
9.120000 -0.880000 3.120000 10.761804 -20.209755 524.250610
9.120000 -0.880000 3.160000 0.263035 -26.958252 726.816589
9.120000 -0.880000 3.200000 6.284129 -42.922882 1881.864014
9.120000 -0.840000 2.800000 -18.213602 -13.065270 502.436584
9.120000 -0.840000 2.840000 -23.676888 -18.599154 906.523560
9.120000 -0.840000 2.880000 -25.261703 -32.823128 1715.511353
9.120000 -0.840000 2.920000 -14.404897 -49.352341 2643.154541
9.120000 -0.840000 2.960000 7.605423 -55.658249 3155.683105
9.120000 -0.840000 3.000000 28.077616 -45.503460 2858.917480
9.120000 -0.840000 3.040000 34.060139 -26.892029 1883.274170
9.120000 -0.840000 3.080000 25.619343 -15.678434 902.164001
9.120000 -0.840000 3.120000 16.759560 -20.067406 683.583618
9.120000 -0.840000 3.160000 21.816273 -31.849642 1490.349365
9.120000 -0.840000 3.200000 40.816776 -34.166134 2833.333984
9.120000 -0.800000 2.800000 1.287467 -7.501912 57.936256
9.120000 -0.800000 2.840000 -6.358274 -16.547522 314.248108
9.120000 -0.800000 2.880000 -1.373126 -32.500988 1058.199707
9.120000 -0.800000 2.920000 17.679913 -40.413555 1945.834839
9.120000 -0.800000 2.960000 37.667805 -30.965586 2377.730957
9.120000 -0.800000 3.000000 43.304810 -11.191810 2000.563110
9.120000 -0.800000 3.040000 33.107082 1.728540 1099.066650
9.120000 -0.800000 3.080000 21.558874 -1.921609 468.477631
9.120000 -0.800000 3.120000 24.229332 -13.964770 782.075378
9.120000 -0.800000 3.160000 41.313660 -16.627672 1983.297974
9.120000 -0.800000 3.200000 57.176258 -1.099272 3270.333008
9.160000 -1.200000 2.800000 -42.846664 -14.808658 2055.133057
9.160000 -1.200000 2.840000 -28.075493 -36.747818 2138.635254
9.160000 -1.200000 2.880000 2.120534 -38.812263 1510.888550
9.160000 -1.200000 2.920000 23.001677 -15.319080 763.751343
9.160000 -1.200000 2.960000 16.366652 14.284497 471.914124
9.160000 -1.200000 3.000000 -10.070544 23.813841 668.514893
9.160000 -1.200000 3.040000 -29.697823 6.651833 926.207581
9.160000 -1.200000 3.080000 -23.712086 -17.682652 874.939209
9.160000 -1.200000 3.120000 0.316393 -23.798271 566.457825
9.160000 -1.200000 3.160000 17.263714 -6.161007 335.993835
9.160000 -1.200000 3.200000 10.749231 16.486408 387.347656
9.160000 -1.160000 2.800000 -23.018402 -32.371387 1577.753662
9.160000 -1.160000 2.840000 -2.846286 -40.827209 1674.962402
9.160000 -1.160000 2.880000 20.400444 -27.835503 1190.993286
9.160000 -1.160000 2.920000 25.086033 0.953170 630.217529
9.160000 -1.160000 2.960000 4.696300 22.485817 527.667175
9.160000 -1.160000 3.000000 -23.733196 18.505018 905.700317
9.160000 -1.160000 3.040000 -35.439522 -5.890991 1290.663452
9.160000 -1.160000 3.080000 -22.081985 -27.187477 1226.772949
9.160000 -1.160000 3.120000 0.877394 -26.911392 724.992859
9.160000 -1.160000 3.160000 10.895840 -9.121872 201.927872
9.160000 -1.160000 3.200000 1.104274 5.703138 33.745209
9.160000 -1.120000 2.800000 5.708432 -29.042446 876.049866
9.160000 -1.120000 2.840000 19.218918 -24.339844 961.794800
9.160000 -1.120000 2.880000 26.811464 -5.951757 754.278015
9.160000 -1.120000 2.920000 16.373640 15.551237 509.937073
9.160000 -1.120000 2.960000 -8.936696 22.339371 578.912048
9.160000 -1.120000 3.000000 -31.001343 6.882618 1008.453674
9.160000 -1.120000 3.040000 -32.884769 -19.402664 1457.871460
9.160000 -1.120000 3.080000 -14.747240 -36.034313 1515.952759
9.160000 -1.120000 3.120000 6.722902 -32.294277 1088.117676
9.160000 -1.120000 3.160000 14.607227 -16.078674 471.894867
9.160000 -1.120000 3.200000 7.129076 -4.470644 70.810379
9.160000 -1.080000 2.800000 22.988091 -3.684155 542.025330
9.160000 -1.080000 2.840000 22.245739 4.432092 514.516357
9.160000 -1.080000 2.880000 15.659515 15.416025 482.874268
9.160000 -1.080000 2.920000 -0.448250 22.047302 486.284454
9.160000 -1.080000 2.960000 -20.498995 15.255172 652.929077
9.160000 -1.080000 3.000000 -31.573048 -5.680324 1029.123413
9.160000 -1.080000 3.040000 -24.311672 -29.391085 1454.893311
9.160000 -1.080000 3.080000 -2.513720 -40.485214 1645.371338
9.160000 -1.080000 3.120000 18.804750 -32.668888 1420.874878
9.160000 -1.080000 3.160000 25.896402 -14.309355 875.381287
9.160000 -1.080000 3.200000 17.795004 -0.782169 317.273956
9.160000 -1.040000 2.800000 14.636749 27.013865 943.983337
9.160000 -1.040000 2.840000 2.416584 26.744436 721.104797
9.160000 -1.040000 2.880000 -8.341641 23.427822 618.445862
9.160000 -1.040000 2.920000 -19.218079 16.578947 644.196045
9.160000 -1.040000 2.960000 -28.068508 2.856167 795.998840
9.160000 -1.040000 3.000000 -27.740231 -17.181084 1064.709961
9.160000 -1.040000 3.040000 -13.030192 -34.711491 1374.673462
9.160000 -1.040000 3.080000 11.043325 -37.868557 1555.982666
9.160000 -1.040000 3.120000 29.997591 -23.106991 1433.788574
9.160000 -1.040000 3.160000 31.398670 -0.918458 986.720032
9.160000 -1.040000 3.200000 16.731277 11.746400 417.913544
9.160000 -1.000000 2.800000 -14.419926 40.745724 1868.148193
9.160000 -1.000000 2.840000 -27.778557 27.325943 1518.355347
9.160000 -1.000000 2.880000 -32.238602 12.452778 1194.399048
9.160000 -1.000000 2.920000 -32.222713 -0.503904 1038.557129
9.160000 -1.000000 2.960000 -29.458256 -13.917030 1061.472534
9.160000 -1.000000 3.000000 -19.875774 -28.114578 1185.475952
9.160000 -1.000000 3.040000 -0.705644 -36.009491 1297.181396
9.160000 -1.000000 3.080000 21.130245 -28.846539 1278.610107
9.160000 -1.000000 3.120000 31.462700 -7.870835 1051.851562
9.160000 -1.000000 3.160000 22.285585 12.330003 648.676270
9.160000 -1.000000 3.200000 2.220316 15.479449 244.543152
9.160000 -0.960000 2.800000 -43.082809 27.896984 2634.370117
9.160000 -0.960000 2.840000 -48.648243 6.201993 2405.116211
9.160000 -0.960000 2.880000 -42.969360 -12.113809 1993.110352
9.160000 -0.960000 2.920000 -32.844894 -24.081203 1658.691406
9.160000 -0.960000 2.960000 -21.131968 -32.381645 1495.130981
9.160000 -0.960000 3.000000 -5.797428 -37.130154 1412.258545
9.160000 -0.960000 3.040000 12.422633 -33.111252 1250.676758
9.160000 -0.960000 3.080000 25.014500 -17.355846 926.950623
9.160000 -0.960000 3.120000 22.301302 2.453011 503.365356
9.160000 -0.960000 3.160000 5.730973 11.228238 158.917389
9.160000 -0.960000 3.200000 -9.207998 1.030817 85.849815
9.160000 -0.920000 2.800000 -51.258430 -0.421431 2627.604248
9.160000 -0.920000 2.840000 -48.202934 -21.815424 2799.435547
9.160000 -0.920000 2.880000 -35.388012 -37.577301 2664.364990
9.160000 -0.920000 2.920000 -18.556366 -45.314838 2397.773193
9.160000 -0.920000 2.960000 -1.072246 -45.802509 2099.019531
9.160000 -0.920000 3.000000 14.990038 -38.824844 1732.069824
9.160000 -0.920000 3.040000 25.132269 -24.364700 1225.269531
9.160000 -0.920000 3.080000 23.802866 -7.507320 622.936279
9.160000 -0.920000 3.120000 11.512490 1.457362 134.661331
9.160000 -0.920000 3.160000 -1.157190 -4.526615 21.829330
9.160000 -0.920000 3.200000 -0.409296 -20.017208 400.856140
9.160000 -0.880000 2.800000 -36.203766 -22.126163 1800.279785
9.160000 -0.880000 2.840000 -30.249975 -39.253227 2455.876709
9.160000 -0.880000 2.880000 -14.521216 -52.034492 2918.454102
9.160000 -0.880000 2.920000 6.837364 -54.848076 3055.061035
9.160000 -0.880000 2.960000 26.596563 -45.523037 2779.724121
9.160000 -0.880000 3.000000 36.883518 -27.274857 2104.311768
9.160000 -0.880000 3.040000 33.579445 -8.863914 1206.148071
9.160000 -0.880000 3.080000 20.571127 -0.474487 423.396393
9.160000 -0.880000 3.120000 9.204210 -6.227208 123.495605
9.160000 -0.880000 3.160000 10.716383 -19.251036 485.443237
9.160000 -0.880000 3.200000 26.509726 -25.390059 1347.420654
9.160000 -0.840000 2.800000 -13.579037 -22.949522 711.070801
9.160000 -0.840000 2.840000 -9.426408 -39.011524 1610.756226
9.160000 -0.840000 2.880000 8.694681 -50.950760 2671.577393
9.160000 -0.840000 2.920000 33.657551 -47.530663 3391.994629
9.160000 -0.840000 2.960000 50.742607 -27.493034 3330.679199
9.160000 -0.840000 3.000000 49.321480 -2.691138 2439.850586
9.160000 -0.840000 3.040000 32.775932 10.522596 1184.986816
9.160000 -0.840000 3.080000 16.786900 5.190678 308.743134
9.160000 -0.840000 3.120000 16.218399 -9.675207 356.646118
9.160000 -0.840000 3.160000 31.989521 -16.602648 1298.977417
9.160000 -0.840000 3.200000 50.147125 -5.027641 2540.011230
9.160000 -0.800000 2.800000 -2.719814 -7.453094 62.945999
9.160000 -0.800000 2.840000 1.447943 -27.585131 763.036011
9.160000 -0.800000 2.880000 24.458036 -38.205902 2057.886475
9.160000 -0.800000 2.920000 50.582855 -26.084446 3239.023438
9.160000 -0.800000 2.960000 59.088795 2.361135 3497.060547
9.160000 -0.800000 3.000000 44.046612 25.536156 2592.199219
9.160000 -0.800000 3.040000 20.737949 26.731836 1144.653564
9.160000 -0.800000 3.080000 11.332377 10.188743 232.233246
9.160000 -0.800000 3.120000 23.544418 -3.152131 564.275574
9.160000 -0.800000 3.160000 43.572922 3.758504 1912.725830
9.160000 -0.800000 3.200000 50.184021 27.886782 3296.108643
9.200000 -1.200000 2.800000 -27.387085 -33.859993 1896.551514
9.200000 -1.200000 2.840000 -3.205594 -45.485516 2079.208008
9.200000 -1.200000 2.880000 24.673828 -31.718512 1614.861816
9.200000 -1.200000 2.920000 31.190155 0.340304 972.941528
9.200000 -1.200000 2.960000 9.350816 23.791939 653.494080
9.200000 -1.200000 3.000000 -20.397554 18.014984 740.599854
9.200000 -1.200000 3.040000 -29.160711 -9.743917 945.291016
9.200000 -1.200000 3.080000 -8.419347 -30.591717 1006.738525
9.200000 -1.200000 3.120000 21.185186 -22.572697 958.338745
9.200000 -1.200000 3.160000 30.562778 7.585625 991.625122
9.200000 -1.200000 3.200000 11.058480 31.900528 1139.933716
9.200000 -1.160000 2.800000 -5.255233 -34.014172 1184.581299
9.200000 -1.160000 2.840000 14.622528 -31.985813 1236.910522
9.200000 -1.160000 2.880000 27.101988 -10.660799 848.170410
9.200000 -1.160000 2.920000 16.280708 14.866206 486.065552
9.200000 -1.160000 2.960000 -12.188280 21.225264 599.065979
9.200000 -1.160000 3.000000 -33.706482 0.793581 1136.756714
9.200000 -1.160000 3.040000 -28.092817 -28.582081 1606.141724
9.200000 -1.160000 3.080000 -0.141456 -39.756504 1580.599609
9.200000 -1.160000 3.120000 24.404320 -22.664877 1109.267456
9.200000 -1.160000 3.160000 23.977341 6.146320 612.690063
9.200000 -1.160000 3.200000 1.652110 20.564293 425.619598
9.200000 -1.120000 2.800000 10.429935 -16.477837 380.302673
9.200000 -1.120000 2.840000 16.463356 -8.969589 351.495605
9.200000 -1.120000 2.880000 12.739454 5.398867 191.441467
9.200000 -1.120000 2.920000 -4.990292 13.264184 200.841599
9.200000 -1.120000 2.960000 -25.481186 2.590970 656.003967
9.200000 -1.120000 3.000000 -30.400536 -22.854332 1446.513062
9.200000 -1.120000 3.040000 -12.353062 -43.941200 2083.427246
9.200000 -1.120000 3.080000 16.069128 -43.009373 2108.022949
9.200000 -1.120000 3.120000 32.709763 -20.801228 1502.619629
9.200000 -1.120000 3.160000 26.098240 3.943129 696.666382
9.200000 -1.120000 3.200000 5.405284 12.156898 177.007263
9.200000 -1.080000 2.800000 6.890545 8.195521 114.646179
9.200000 -1.080000 2.840000 -0.519364 8.011076 64.447075
9.200000 -1.080000 2.880000 -9.499386 5.275526 118.069511
9.200000 -1.080000 2.920000 -18.759243 -3.819674 366.499115
9.200000 -1.080000 2.960000 -21.630760 -20.602278 892.343628
9.200000 -1.080000 3.000000 -11.166223 -38.503548 1607.207764
9.200000 -1.080000 3.040000 11.304237 -45.543564 2202.002197
9.200000 -1.080000 3.080000 33.755314 -34.422935 2324.359863
9.200000 -1.080000 3.120000 41.758587 -10.734573 1859.010620
9.200000 -1.080000 3.160000 30.846647 9.962596 1050.768921
9.200000 -1.080000 3.200000 10.895545 14.725745 335.560455
9.200000 -1.040000 2.800000 -15.436321 22.091169 726.299805
9.200000 -1.040000 2.840000 -25.627102 6.280951 696.198669
9.200000 -1.040000 2.880000 -25.332743 -11.580673 775.859863
9.200000 -1.040000 2.920000 -17.012188 -25.942837 962.445312
9.200000 -1.040000 2.960000 -3.845422 -35.142143 1249.757446
9.200000 -1.040000 3.000000 12.812105 -38.139519 1618.772949
9.200000 -1.040000 3.040000 30.640041 -32.094307 1968.856689
9.200000 -1.040000 3.080000 43.141132 -15.526180 2102.219727
9.200000 -1.040000 3.120000 42.477760 6.310453 1844.181885
9.200000 -1.040000 3.160000 27.316975 21.751881 1219.361450
9.200000 -1.040000 3.200000 7.155344 21.279327 504.008728
9.200000 -1.000000 2.800000 -41.457436 14.040594 1915.857300
9.200000 -1.000000 2.840000 -42.065105 -13.982412 1964.980957
9.200000 -1.000000 2.880000 -25.337297 -35.250248 1884.558594
9.200000 -1.000000 2.920000 -2.145360 -41.660076 1740.164429
9.200000 -1.000000 2.960000 17.127758 -36.120323 1598.037842
9.200000 -1.000000 3.000000 29.777798 -25.294586 1526.533325
9.200000 -1.000000 3.040000 37.434006 -11.855156 1541.849487
9.200000 -1.000000 3.080000 39.049892 4.547030 1545.569580
9.200000 -1.000000 3.120000 30.755178 20.543350 1367.910156
9.200000 -1.000000 3.160000 13.319392 27.438299 930.266479
9.200000 -1.000000 3.200000 -3.152512 19.259851 380.880188
9.200000 -0.960000 2.800000 -52.781441 -10.691566 2900.189941
9.200000 -0.960000 2.840000 -39.457657 -39.992851 3156.334961
9.200000 -0.960000 2.880000 -10.448734 -53.293526 2949.375977
9.200000 -0.960000 2.920000 17.587200 -46.259148 2449.218262
9.200000 -0.960000 2.960000 33.169983 -27.946377 1881.247803
9.200000 -0.960000 3.000000 36.460613 -9.480667 1419.259399
9.200000 -0.960000 3.040000 33.076061 4.966543 1118.692383
9.200000 -0.960000 3.080000 25.539745 16.116976 912.035461
9.200000 -0.960000 3.120000 13.305918 22.402458 678.917603
9.200000 -0.960000 3.160000 -0.458354 19.198406 368.788879
9.200000 -0.960000 3.200000 -6.693646 6.410117 85.894501
9.200000 -0.920000 2.800000 -42.565147 -34.374783 2993.417480
9.200000 -0.920000 2.840000 -20.852539 -56.445358 3620.906738
9.200000 -0.920000 2.880000 10.999447 -58.901947 3590.427246
9.200000 -0.920000 2.920000 35.763992 -41.678520 3016.162109
9.200000 -0.920000 2.960000 43.847088 -16.677666 2200.711670
9.200000 -0.920000 3.000000 37.624954 3.748907 1429.691528
9.200000 -0.920000 3.040000 25.052736 14.640615 841.987183
9.200000 -0.920000 3.080000 12.203665 16.915833 435.074829
9.200000 -0.920000 3.120000 2.353449 12.416005 159.695908
9.200000 -0.920000 3.160000 -1.084772 3.265872 11.842650
9.200000 -0.920000 3.200000 4.833282 -5.059259 48.956726
9.200000 -0.880000 2.800000 -20.686367 -41.442810 2145.432129
9.200000 -0.880000 2.840000 1.194114 -56.531578 3197.245361
9.200000 -0.880000 2.880000 30.349646 -52.819378 3710.987793
9.200000 -0.880000 2.920000 50.453312 -30.881474 3499.202148
9.200000 -0.880000 2.960000 51.942352 -3.067882 2707.419922
9.200000 -0.880000 3.000000 37.563812 16.456152 1681.844971
9.200000 -0.880000 3.040000 18.336296 20.868324 771.706726
9.200000 -0.880000 3.080000 5.350618 12.934212 195.922958
9.200000 -0.880000 3.120000 3.969565 1.227049 17.263098
9.200000 -0.880000 3.160000 12.491774 -5.194544 183.027695
9.200000 -0.880000 3.200000 23.866028 -0.947865 570.485718
9.200000 -0.840000 2.800000 -4.632975 -30.856174 973.567993
9.200000 -0.840000 2.840000 14.997290 -44.965221 2246.789795
9.200000 -0.840000 2.880000 42.972683 -39.626709 3416.927734
9.200000 -0.840000 2.920000 60.580261 -14.436075 3878.368164
9.200000 -0.840000 2.960000 55.964821 15.661339 3377.338867
9.200000 -0.840000 3.000000 33.736237 32.215504 2175.972168
9.200000 -0.840000 3.040000 10.923179 27.832100 893.941650
9.200000 -0.840000 3.080000 3.059440 11.229720 135.466782
9.200000 -0.840000 3.120000 12.365236 -0.845411 153.613785
9.200000 -0.840000 3.160000 27.386095 2.701278 757.295105
9.200000 -0.840000 3.200000 33.313850 19.417530 1486.853027
9.200000 -0.800000 2.800000 -4.563183 -15.432190 258.975128
9.200000 -0.800000 2.840000 17.378624 -31.939320 1322.136719
9.200000 -0.800000 2.880000 47.727936 -23.800444 2844.416992
9.200000 -0.800000 2.920000 62.455429 6.707193 3945.666992
9.200000 -0.800000 2.960000 49.563442 37.990845 3899.839355
9.200000 -0.800000 3.000000 20.131866 47.936245 2703.175537
9.200000 -0.800000 3.040000 -1.745053 33.468605 1123.192749
9.200000 -0.800000 3.080000 -0.822650 12.419173 154.912628
9.200000 -0.800000 3.120000 16.392052 6.234838 307.572571
9.200000 -0.800000 3.160000 29.357986 20.503492 1282.284546
9.200000 -0.800000 3.200000 23.334576 41.522156 2268.591797
