#kx 	ky 	kz 	real 	imag 	intensity
0.800000 -1.200000 0.800000 -13.137023 7.928521 235.442810
0.800000 -1.200000 1.000000 -8.911113 -2.059955 83.651344
0.800000 -1.200000 1.200000 -3.976919 8.241955 83.745705
0.800000 -1.000000 0.800000 -3.542920 -0.542974 12.847104
0.800000 -1.000000 1.000000 -4.625556 -15.132668 250.393387
0.800000 -1.000000 1.200000 12.320506 11.088187 274.742767
0.800000 -0.800000 0.800000 -0.782426 0.448811 0.813621
0.800000 -0.800000 1.000000 -0.428979 -4.185454 17.702047
0.800000 -0.800000 1.200000 6.527295 -3.955887 58.254623
1.000000 -1.200000 0.800000 13.442886 -22.658936 694.138550
1.000000 -1.200000 1.000000 9.121193 7.222504 135.360718
1.000000 -1.200000 1.200000 8.025751 0.712783 64.920738
1.000000 -1.000000 0.800000 -15.394131 -5.447739 266.657104
1.000000 -1.000000 1.000000 484.297150 26.183752 235229.328125
1.000000 -1.000000 1.200000 18.457363 -8.003819 404.735352
1.000000 -0.800000 0.800000 -5.180119 -0.509372 27.093088
1.000000 -0.800000 1.000000 -9.119774 7.307343 136.567535
1.000000 -0.800000 1.200000 -9.714058 -23.870468 664.162170
1.200000 -1.200000 0.800000 -8.629679 -5.021253 99.684326
1.200000 -1.200000 1.000000 0.090785 -2.691307 7.251373
1.200000 -1.200000 1.200000 3.239925 2.995414 19.469620
1.200000 -1.000000 0.800000 -13.511087 10.976645 303.036194
1.200000 -1.000000 1.000000 8.114784 -14.528805 276.935883
1.200000 -1.000000 1.200000 2.348882 0.033471 5.518366
1.200000 -0.800000 0.800000 3.178258 5.026213 35.364136
1.200000 -0.800000 1.000000 12.240755 1.377036 151.732315
1.200000 -0.800000 1.200000 11.798666 12.926521 306.303467
