#kx 	ky 	kz 	real 	imag 	intensity
1.800000 3.800000 -6.200000 -14.217526 -31.636227 1202.988892
1.800000 3.800000 -6.160000 6.782788 -40.831371 1713.207153
1.800000 3.800000 -6.120000 27.710434 -30.953421 1725.982422
1.800000 3.800000 -6.080000 33.786457 -10.206729 1245.702026
1.800000 3.800000 -6.040000 23.564293 5.401567 584.452820
1.800000 3.800000 -6.000000 8.579460 6.479430 115.590157
1.800000 3.800000 -5.960000 1.627533 -2.986663 11.569019
1.800000 3.800000 -5.920000 5.838094 -11.665684 170.171524
1.800000 3.800000 -5.880000 14.396833 -12.232045 356.891724
1.800000 3.800000 -5.840000 19.245255 -6.542309 413.181641
1.800000 3.800000 -5.800000 18.773758 -1.028924 353.512665
1.800000 3.840000 -6.200000 5.655622 -35.247887 1274.399658
1.800000 3.840000 -6.160000 26.810339 -34.677368 1921.314209
1.800000 3.840000 -6.120000 40.875771 -19.637564 2056.462402
1.800000 3.840000 -6.080000 40.463844 -1.439625 1639.395264
1.800000 3.840000 -6.040000 30.087608 8.494785 977.425537
1.800000 3.840000 -6.000000 20.279060 7.685493 470.307098
1.800000 3.840000 -5.960000 17.836582 2.406763 323.936188
1.800000 3.840000 -5.920000 21.448921 0.259386 460.123505
1.800000 3.840000 -5.880000 25.294964 3.577311 652.632385
1.800000 3.840000 -5.840000 25.452480 9.317766 734.649536
1.800000 3.840000 -5.800000 22.546139 13.737882 697.057739
1.800000 3.880000 -6.200000 20.293730 -23.034206 942.410156
1.800000 3.880000 -6.160000 36.056469 -16.508434 1572.597412
1.800000 3.880000 -6.120000 43.331123 -1.815239 1880.881348
1.800000 3.880000 -6.080000 40.235714 12.112991 1765.637329
1.800000 3.880000 -6.040000 31.898218 19.246166 1387.911255
1.800000 3.880000 -6.000000 24.916756 19.941433 1018.505493
1.800000 3.880000 -5.960000 22.211679 18.661919 841.625916
1.800000 3.880000 -5.920000 22.206606 19.333637 866.922852
1.800000 3.880000 -5.880000 21.616924 22.650537 980.338257
1.800000 3.880000 -5.840000 18.483124 26.719517 1055.558350
1.800000 3.880000 -5.800000 13.130921 29.289495 1030.295654
1.800000 3.920000 -6.200000 19.974541 -6.386488 439.769501
1.800000 3.920000 -6.160000 30.195681 0.681577 912.243652
1.800000 3.920000 -6.120000 33.985016 12.599243 1313.722290
1.800000 3.920000 -6.080000 30.525602 23.669340 1492.050049
1.800000 3.920000 -6.040000 23.077190 29.975937 1431.113525
1.800000 3.920000 -6.000000 16.029873 31.406456 1243.322266
1.800000 3.920000 -5.960000 11.796597 30.800545 1087.833252
1.800000 3.920000 -5.920000 9.576385 31.231346 1067.104126
1.800000 3.920000 -5.880000 6.612175 33.497234 1165.785522
1.800000 3.920000 -5.840000 0.892164 35.557224 1265.112061
1.800000 3.920000 -5.800000 -6.760380 34.434189 1231.416138
1.800000 3.960000 -6.200000 8.992392 1.424380 82.891968
1.800000 3.960000 -6.160000 16.871140 7.065730 334.559875
1.800000 3.960000 -6.120000 19.282019 17.222450 668.409058
1.800000 3.960000 -6.080000 14.891249 26.465515 922.172729
1.800000 3.960000 -6.040000 7.054058 30.638283 988.464111
1.800000 3.960000 -6.000000 0.657162 30.103861 906.674316
1.800000 3.960000 -5.960000 -2.357579 28.786106 834.198059
1.800000 3.960000 -5.920000 -4.481714 29.831051 909.977356
1.800000 3.960000 -5.880000 -9.590968 32.070526 1120.505371
1.800000 3.960000 -5.840000 -18.192135 31.021378 1293.279663
1.800000 3.960000 -5.800000 -25.960468 23.732512 1237.177979
1.800000 4.000000 -6.200000 -0.385619 -2.281835 5.355473
1.800000 4.000000 -6.160000 6.658393 3.620968 57.445610
1.800000 4.000000 -6.120000 6.753850 12.718023 207.362610
1.800000 4.000000 -6.080000 0.864076 18.246292 333.673798
1.800000 4.000000 -6.040000 -5.066666 17.917717 346.715698
1.800000 4.000000 -6.000000 -6.755087 15.769455 294.306915
1.800000 4.000000 -5.960000 -6.273838 17.050262 330.072510
1.800000 4.000000 -5.920000 -9.511058 21.646507 559.031494
1.800000 4.000000 -5.880000 -18.933657 23.383217 905.258179
1.800000 4.000000 -5.840000 -29.503046 16.483431 1142.133301
1.800000 4.000000 -5.800000 -32.667610 2.546816 1073.659058
1.800000 4.040000 -6.200000 -1.042560 -9.126835 84.386047
1.800000 4.040000 -6.160000 3.015080 -1.996356 13.076146
1.800000 4.040000 -6.120000 -0.177440 3.488764 12.202957
1.800000 4.040000 -6.080000 -4.442897 2.596661 26.481979
1.800000 4.040000 -6.040000 -3.244368 -0.815314 11.190659
1.800000 4.040000 -6.000000 2.080760 0.985579 5.300927
1.800000 4.040000 -5.960000 3.103534 9.834749 106.354210
1.800000 4.040000 -5.920000 -6.144787 17.969275 360.653229
1.800000 4.040000 -5.880000 -21.123678 15.275088 679.538086
1.800000 4.040000 -5.840000 -29.653698 0.363979 879.474304
1.800000 4.040000 -5.800000 -23.509945 -16.474926 824.140747
1.800000 4.080000 -6.200000 2.994481 -10.452973 118.231567
1.800000 4.080000 -6.160000 1.738535 -5.277966 30.879423
1.800000 4.080000 -6.120000 -1.640097 -7.141114 53.685432
1.800000 4.080000 -6.080000 1.895003 -13.018086 173.061615
1.800000 4.080000 -6.040000 12.947185 -12.460245 322.887299
1.800000 4.080000 -6.000000 20.987370 0.094244 440.478546
1.800000 4.080000 -5.960000 14.869488 16.955044 508.575195
1.800000 4.080000 -5.920000 -4.168530 23.059315 549.108643
1.800000 4.080000 -5.880000 -21.483759 11.036039 583.346069
1.800000 4.080000 -5.840000 -22.288658 -10.224008 601.314575
1.800000 4.080000 -5.800000 -6.077867 -23.085608 569.885742
1.800000 4.120000 -6.200000 3.204676 -6.835023 56.987484
1.800000 4.120000 -6.160000 -1.053672 -8.837401 79.209885
1.800000 4.120000 -6.120000 2.213098 -17.650101 316.423859
1.800000 4.120000 -6.080000 17.168106 -20.996784 735.608826
1.800000 4.120000 -6.040000 33.326759 -8.242983 1178.619629
1.800000 4.120000 -6.000000 34.271271 16.132957 1434.792358
1.800000 4.120000 -5.960000 14.794436 33.984653 1373.832031
1.800000 4.120000 -5.920000 -11.645520 30.125589 1043.169312
1.800000 4.120000 -5.880000 -24.181587 7.700674 644.049500
1.800000 4.120000 -5.840000 -13.987415 -13.908688 389.099365
1.800000 4.120000 -5.800000 7.650915 -17.126183 351.842621
1.800000 4.160000 -6.200000 -2.595167 -6.187090 45.014977
1.800000 4.160000 -6.160000 -2.754340 -16.794773 289.650787
1.800000 4.160000 -6.120000 12.033344 -25.608999 800.622253
1.800000 4.160000 -6.080000 34.263573 -17.346375 1474.889160
1.800000 4.160000 -6.040000 44.669975 9.541001 2086.437500
1.800000 4.160000 -6.000000 30.359993 37.958199 2362.553955
1.800000 4.160000 -5.960000 -0.987649 46.280884 2142.895508
1.800000 4.160000 -5.920000 -26.330292 28.572720 1509.684570
1.800000 4.160000 -5.880000 -27.814394 0.675199 774.096375
1.800000 4.160000 -5.840000 -8.640045 -14.416449 282.484375
1.800000 4.160000 -5.800000 11.298161 -7.386812 182.213409
1.800000 4.200000 -6.200000 -7.569159 -13.538727 240.589279
1.800000 4.200000 -6.160000 2.674825 -27.215284 747.826355
1.800000 4.200000 -6.120000 26.356056 -26.721401 1408.675049
1.800000 4.200000 -6.080000 45.171295 -3.851422 2055.279297
1.800000 4.200000 -6.040000 40.490662 29.564005 2513.523926
1.800000 4.200000 -6.000000 11.474426 49.929276 2624.594971
1.800000 4.200000 -5.960000 -22.340385 42.481182 2303.743652
1.800000 4.200000 -5.920000 -37.554245 14.723142 1627.092163
1.800000 4.200000 -5.880000 -27.126865 -10.558352 847.345581
1.800000 4.200000 -5.840000 -5.007070 -15.803644 274.825928
1.800000 4.200000 -5.800000 8.431463 -2.762815 78.722717
1.840000 3.800000 -6.200000 27.914303 -33.160828 1878.848877
1.840000 3.800000 -6.160000 47.478588 -19.757404 2644.571289
1.840000 3.800000 -6.120000 50.932846 4.543825 2614.801025
1.840000 3.800000 -6.080000 36.693825 22.486088 1852.060913
1.840000 3.800000 -6.040000 17.596424 24.021729 886.677612
1.840000 3.800000 -6.000000 7.523563 14.106897 255.608551
1.840000 3.800000 -5.960000 8.990381 5.286657 108.775703
1.840000 3.800000 -5.920000 13.782806 4.435173 209.636520
1.840000 3.800000 -5.880000 13.950411 7.801959 255.484528
1.840000 3.800000 -5.840000 10.171269 8.051527 168.281799
1.840000 3.800000 -5.800000 8.996275 3.894426 96.099518
1.840000 3.840000 -6.200000 38.321297 -11.987511 1612.222168
1.840000 3.840000 -6.160000 50.726357 2.293827 2578.425049
1.840000 3.840000 -6.120000 51.125450 22.301525 3111.169922
1.840000 3.840000 -6.080000 39.883049 37.951500 3030.974121
1.840000 3.840000 -6.040000 23.844719 43.939373 2499.239014
1.840000 3.840000 -6.000000 9.729340 41.469700 1814.395996
1.840000 3.840000 -5.960000 0.345236 34.410065 1184.171753
1.840000 3.840000 -5.920000 -4.148104 25.625183 673.856812
1.840000 3.840000 -5.880000 -3.759149 17.027424 304.064362
1.840000 3.840000 -5.840000 1.166893 11.242628 127.758324
1.840000 3.840000 -5.800000 8.005749 11.064477 186.514664
1.840000 3.880000 -6.200000 28.702784 9.092628 906.525635
1.840000 3.880000 -6.160000 38.694359 20.398096 1913.335693
1.840000 3.880000 -6.120000 40.174927 39.614998 3183.372803
1.840000 3.880000 -6.080000 28.317257 58.978985 4280.387695
1.840000 3.880000 -6.040000 5.241268 68.632034 4737.826660
1.840000 3.880000 -6.000000 -19.906874 62.478455 4299.840820
1.840000 3.880000 -5.960000 -35.593941 42.798676 3098.655273
1.840000 3.880000 -5.920000 -35.185181 19.884655 1633.396484
1.840000 3.880000 -5.880000 -21.744450 5.733358 505.692474
1.840000 3.880000 -5.840000 -6.098547 5.871797 71.670273
1.840000 3.880000 -5.800000 1.132402 15.757300 249.574844
1.840000 3.920000 -6.200000 7.939472 13.746017 251.988190
1.840000 3.920000 -6.160000 20.221777 24.985752 1033.208008
1.840000 3.920000 -6.120000 20.281548 48.366936 2750.701416
1.840000 3.920000 -6.080000 -0.201649 69.723183 4861.362793
1.840000 3.920000 -6.040000 -34.326576 71.850601 6340.822754
1.840000 3.920000 -6.000000 -62.699615 49.048912 6337.037109
1.840000 3.920000 -5.960000 -67.923218 13.568069 4797.655762
1.840000 3.920000 -5.920000 -48.812813 -13.018345 2552.167969
1.840000 3.920000 -5.880000 -21.369244 -16.842829 740.325439
1.840000 3.920000 -5.840000 -5.186924 -2.130036 31.441231
1.840000 3.920000 -5.800000 -7.606690 14.277944 261.721436
1.840000 3.960000 -6.200000 -5.596313 0.992213 32.303200
1.840000 3.960000 -6.160000 7.352378 17.957634 376.534088
1.840000 3.960000 -6.120000 -1.011000 44.596790 1989.895752
1.840000 3.960000 -6.080000 -32.814365 57.873505 4426.125000
1.840000 3.960000 -6.040000 -68.728928 41.441044 6441.025391
1.840000 3.960000 -6.000000 -82.641281 1.865311 6833.061035
1.840000 3.960000 -5.960000 -64.184845 -35.106392 5352.153320
1.840000 3.960000 -5.920000 -28.047688 -46.004555 2903.091797
1.840000 3.960000 -5.880000 -0.895539 -29.145832 850.281555
1.840000 3.960000 -5.840000 1.741244 -4.087985 19.743553
1.840000 3.960000 -5.800000 -13.165662 7.626893 231.504150
1.840000 4.000000 -6.200000 -2.005724 -14.434959 212.390991
1.840000 4.000000 -6.160000 4.218866 9.246164 103.290390
1.840000 4.000000 -6.120000 -16.060251 30.623158 1195.709473
1.840000 4.000000 -6.080000 -50.727917 26.105824 3254.835449
1.840000 4.000000 -6.040000 -71.569626 -7.431511 5177.438965
1.840000 4.000000 -6.000000 -59.310570 -47.423248 5766.708008
1.840000 4.000000 -5.960000 -21.770702 -64.685966 4658.237793
1.840000 4.000000 -5.920000 12.917385 -49.241165 2591.551270
1.840000 4.000000 -5.880000 21.660858 -18.023121 794.025635
1.840000 4.000000 -5.840000 5.782397 2.331048 38.869904
1.840000 4.000000 -5.800000 -13.657849 -0.046406 186.539001
1.840000 4.040000 -6.200000 11.214233 -17.447084 430.159790
1.840000 4.040000 -6.160000 4.982836 5.758224 57.985794
1.840000 4.040000 -6.120000 -21.231876 12.320428 602.585510
1.840000 4.040000 -6.080000 -43.817848 -9.118837 2003.156982
1.840000 4.040000 -6.040000 -39.296272 -43.909912 3472.277344
1.840000 4.040000 -6.000000 -7.209115 -63.353245 4065.604980
1.840000 4.040000 -5.960000 28.361805 -51.119129 3417.557129
1.840000 4.040000 -5.920000 40.841778 -18.222881 2000.124146
1.840000 4.040000 -5.880000 25.139103 8.121011 697.925293
1.840000 4.040000 -5.840000 0.220217 10.203652 104.163017
1.840000 4.040000 -5.800000 -11.078326 -5.591076 153.989441
1.840000 4.080000 -6.200000 18.178816 -7.523410 387.071045
1.840000 4.080000 -6.160000 2.436643 4.916407 30.108284
1.840000 4.080000 -6.120000 -16.943300 -4.774325 309.869598
1.840000 4.080000 -6.080000 -17.773808 -29.940821 1212.360962
1.840000 4.080000 -6.040000 6.068233 -46.909161 2237.292725
1.840000 4.080000 -6.000000 36.957542 -37.254658 2753.769531
1.840000 4.080000 -5.960000 49.311440 -6.136662 2469.276855
1.840000 4.080000 -5.920000 33.665543 22.084274 1621.083984
1.840000 4.080000 -5.880000 5.054283 26.811424 744.398254
1.840000 4.080000 -5.840000 -12.349608 9.697752 246.559235
1.840000 4.080000 -5.800000 -8.203960 -9.339045 154.522720
1.840000 4.120000 -6.200000 11.551680 2.156637 138.092377
1.840000 4.120000 -6.160000 -2.821112 -0.489894 8.198670
1.840000 4.120000 -6.120000 -5.456449 -16.914799 315.883240
1.840000 4.120000 -6.080000 11.572131 -29.375839 996.854126
1.840000 4.120000 -6.040000 36.176006 -20.793770 1741.084351
1.840000 4.120000 -6.000000 46.110497 7.404900 2181.010498
1.840000 4.120000 -5.960000 30.130707 34.803314 2119.130127
1.840000 4.120000 -5.920000 -0.591043 40.409229 1633.255127
1.840000 4.120000 -5.880000 -22.593800 22.039654 996.226074
1.840000 4.120000 -5.840000 -21.790770 -2.579151 481.489655
1.840000 4.120000 -5.800000 -5.108490 -13.486619 207.985550
1.840000 4.160000 -6.200000 -0.521054 -0.411162 0.440552
1.840000 4.160000 -6.160000 -3.031116 -12.162378 157.111115
1.840000 4.160000 -6.120000 10.197847 -21.470171 564.964355
1.840000 4.160000 -6.080000 30.385689 -13.622208 1108.854614
1.840000 4.160000 -6.040000 38.619667 11.817077 1631.121948
1.840000 4.160000 -6.000000 23.239006 37.964947 1981.388550
1.840000 4.160000 -5.960000 -7.951690 44.573719 2050.045898
1.840000 4.160000 -5.920000 -33.340611 26.339344 1805.357422
1.840000 4.160000 -5.880000 -36.307953 -2.227440 1323.229004
1.840000 4.160000 -5.840000 -19.160719 -20.128571 772.292480
1.840000 4.160000 -5.800000 0.852649 -18.236130 333.283447
1.840000 4.200000 -6.200000 -4.031837 -13.475786 197.852524
1.840000 4.200000 -6.160000 7.237367 -22.646709 565.252930
1.840000 4.200000 -6.120000 25.635223 -16.915104 943.285400
1.840000 4.200000 -6.080000 34.687431 5.454951 1232.974365
1.840000 4.200000 -6.040000 22.458109 30.760357 1450.566284
1.840000 4.200000 -6.000000 -6.673949 40.016415 1645.855103
1.840000 4.200000 -5.960000 -34.094555 25.083115 1791.601318
1.840000 4.200000 -5.920000 -41.929039 -3.970740 1773.811035
1.840000 4.200000 -5.880000 -27.497105 -27.337442 1503.426514
1.840000 4.200000 -5.840000 -4.160570 -31.805984 1028.931030
1.840000 4.200000 -5.800000 11.313944 -20.019228 528.774841
1.880000 3.800000 -6.200000 59.520615 4.703441 3564.825928
1.880000 3.800000 -6.160000 58.478672 33.526276 4543.766113
1.880000 3.800000 -6.120000 35.956909 53.661499 4172.455566
1.880000 3.800000 -6.080000 7.993813 51.690575 2735.816650
1.880000 3.800000 -6.040000 -6.399239 34.000259 1196.968018
1.880000 3.800000 -6.000000 -3.381752 18.666935 359.890717
1.880000 3.800000 -5.960000 4.524921 16.372986 288.549591
1.880000 3.800000 -5.920000 4.094749 21.200420 466.224792
1.880000 3.800000 -5.880000 -4.221185 20.126518 422.895142
1.880000 3.800000 -5.840000 -8.649280 9.201452 159.476761
1.880000 3.800000 -5.800000 -1.148130 -1.986713 5.265234
1.880000 3.840000 -6.200000 39.370308 34.056702 2709.879883
1.880000 3.840000 -6.160000 34.786201 50.838116 3794.593750
1.880000 3.840000 -6.120000 20.750488 63.882057 4511.500000
1.880000 3.840000 -6.080000 1.912622 68.723053 4726.516113
1.880000 3.840000 -6.040000 -16.959305 65.220627 4541.348145
1.880000 3.840000 -6.000000 -33.106632 54.471523 4063.195801
1.880000 3.840000 -5.960000 -43.709755 37.124641 3288.781738
1.880000 3.840000 -5.920000 -44.495293 15.791519 2229.203125
1.880000 3.840000 -5.880000 -33.012959 -2.455503 1095.885010
1.880000 3.840000 -5.840000 -13.606793 -9.041301 266.889954
1.880000 3.840000 -5.800000 2.918212 -1.247247 10.071589
1.880000 3.880000 -6.200000 4.222736 37.513397 1425.086548
1.880000 3.880000 -6.160000 8.116343 48.726028 2440.100830
1.880000 3.880000 -6.120000 0.617771 68.793396 4732.913086
1.880000 3.880000 -6.080000 -25.850927 84.764809 7853.343262
1.880000 3.880000 -6.040000 -64.674973 79.791672 10549.562500
1.880000 3.880000 -6.000000 -95.847641 47.345032 11428.322266
1.880000 3.880000 -5.960000 -99.412636 -0.200615 9882.912109
1.880000 3.880000 -5.920000 -71.639137 -37.971554 6574.004883
1.880000 3.880000 -5.880000 -29.635796 -46.574844 3047.496582
1.880000 3.880000 -5.840000 1.050588 -26.843311 721.667114
1.880000 3.880000 -5.800000 5.847210 1.723495 37.160297
1.880000 3.920000 -6.200000 -18.766220 13.406393 531.902405
1.880000 3.920000 -6.160000 -6.899862 32.883652 1128.942749
1.880000 3.920000 -6.120000 -22.328630 64.326233 4636.432129
1.880000 3.920000 -6.080000 -68.966911 76.718391 10642.146484
1.880000 3.920000 -6.040000 -120.432594 46.307842 16648.425781
1.880000 3.920000 -6.000000 -138.397263 -18.865658 19509.714844
1.880000 3.920000 -5.960000 -105.098465 -80.997833 17606.335938
1.880000 3.920000 -5.920000 -40.297279 -101.951584 12017.996094
1.880000 3.920000 -5.880000 14.104619 -74.286751 5717.461914
1.880000 3.920000 -5.840000 28.317240 -25.643902 1459.475830
1.880000 3.920000 -5.800000 6.627428 6.788335 90.004288
1.880000 3.960000 -6.200000 -13.090145 -16.434036 441.429443
1.880000 3.960000 -6.160000 -6.699081 17.645187 356.230316
1.880000 3.960000 -6.120000 -42.047016 48.373550 4107.952148
1.880000 3.960000 -6.080000 -101.622261 36.182640 11636.267578
1.880000 3.960000 -6.040000 -138.181534 -27.354527 19842.406250
1.880000 3.960000 -6.000000 -114.908493 -105.719559 24380.585938
1.880000 3.960000 -5.960000 -40.180576 -145.241577 22709.593750
1.880000 3.960000 -5.920000 37.161800 -120.587044 15922.234375
1.880000 3.960000 -5.880000 68.891884 -55.582676 7835.525391
1.880000 3.960000 -5.840000 46.542061 -0.271423 2166.237061
1.880000 3.960000 -5.800000 2.999880 12.852640 174.189636
1.880000 4.000000 -6.200000 12.135633 -26.805862 865.827881
1.880000 4.000000 -6.160000 -0.508693 12.719568 162.046188
1.880000 4.000000 -6.120000 -51.545860 23.960947 3231.102783
1.880000 4.000000 -6.080000 -100.033852 -19.564674 10389.547852
1.880000 4.000000 -6.040000 -96.975616 -96.563293 18728.740234
1.880000 4.000000 -6.000000 -31.400354 -151.001404 23787.406250
1.880000 4.000000 -5.960000 55.771217 -140.005859 22712.070312
1.880000 4.000000 -5.920000 105.543495 -71.927925 16313.056641
1.880000 4.000000 -5.880000 91.142677 1.881237 8310.526367
1.880000 4.000000 -5.840000 37.484993 33.116795 2501.846680
1.880000 4.000000 -5.800000 -6.528317 15.739732 290.358093
1.880000 4.040000 -6.200000 31.797537 -12.191992 1159.728027
1.880000 4.040000 -6.160000 0.104553 15.075687 227.287277
1.880000 4.040000 -6.120000 -47.399220 -1.471672 2248.851807
1.880000 4.040000 -6.080000 -63.400524 -60.318451 7657.941895
1.880000 4.040000 -6.040000 -20.971933 -117.575623 14263.849609
1.880000 4.040000 -6.000000 57.400288 -123.366638 18514.121094
1.880000 4.040000 -5.960000 116.109352 -67.341667 18016.281250
1.880000 4.040000 -5.920000 114.579224 10.871757 13246.593750
1.880000 4.040000 -5.880000 61.604095 56.950443 7038.417969
1.880000 4.040000 -5.840000 3.744660 48.644394 2380.299561
1.880000 4.040000 -5.800000 -18.755142 9.728320 446.395569
1.880000 4.080000 -6.200000 29.081419 9.843809 942.629517
1.880000 4.080000 -6.160000 -6.877669 13.899509 240.498703
1.880000 4.080000 -6.120000 -31.825510 -20.118055 1417.599243
1.880000 4.080000 -6.080000 -14.271326 -67.233192 4723.973145
1.880000 4.080000 -6.040000 41.813305 -84.004242 8805.065430
1.880000 4.080000 -6.000000 95.793900 -48.177933 11497.583984
1.880000 4.080000 -5.960000 104.883301 18.631914 11347.655273
1.880000 4.080000 -5.920000 62.345535 68.717316 8609.035156
1.880000 4.080000 -5.880000 2.537757 70.140381 4926.113281
1.880000 4.080000 -5.840000 -31.445473 32.486183 2044.169800
1.880000 4.080000 -5.800000 -25.077269 -6.862937 675.969299
1.880000 4.120000 -6.200000 10.175678 17.383518 405.731140
1.880000 4.120000 -6.160000 -12.538836 3.126039 166.994522
1.880000 4.120000 -6.120000 -10.993629 -27.628944 884.218445
1.880000 4.120000 -6.080000 20.934866 -45.693520 2526.166260
1.880000 4.120000 -6.040000 60.233032 -28.023035 4413.308594
1.880000 4.120000 -6.000000 72.727463 18.672382 5637.941406
1.880000 4.120000 -5.960000 44.019737 61.017273 5660.844727
1.880000 4.120000 -5.920000 -6.449955 67.670425 4620.888672
1.880000 4.120000 -5.880000 -42.459595 36.595352 3142.037109
1.880000 4.120000 -5.840000 -42.762856 -5.056649 1854.231567
1.880000 4.120000 -5.800000 -16.956318 -27.203121 1027.526611
1.880000 4.160000 -6.200000 -4.333869 5.296430 46.834587
1.880000 4.160000 -6.160000 -7.214714 -11.584318 186.248520
1.880000 4.160000 -6.120000 8.446260 -24.156565 654.878906
1.880000 4.160000 -6.080000 31.750835 -16.386883 1276.645508
1.880000 4.160000 -6.040000 41.120991 11.636221 1826.337524
1.880000 4.160000 -6.000000 23.277596 40.479691 2180.451660
1.880000 4.160000 -5.960000 -13.032749 46.671318 2348.064453
1.880000 4.160000 -5.920000 -42.816410 23.360010 2378.935059
1.880000 4.160000 -5.880000 -45.783127 -13.249614 2271.646973
1.880000 4.160000 -5.840000 -23.019674 -38.088554 1980.643311
1.880000 4.160000 -5.800000 6.002055 -38.361763 1507.649536
1.880000 4.200000 -6.200000 -0.954309 -12.072631 146.659119
1.880000 4.200000 -6.160000 8.708334 -18.406008 414.616211
1.880000 4.200000 -6.120000 21.737659 -12.911587 639.234924
1.880000 4.200000 -6.080000 26.198864 4.018398 702.528015
1.880000 4.200000 -6.040000 14.186321 21.350916 657.113281
1.880000 4.200000 -6.000000 -9.976261 24.579285 703.666992
1.880000 4.200000 -5.960000 -30.948591 7.645764 1016.273010
1.880000 4.200000 -5.920000 -33.624439 -20.759228 1561.548462
1.880000 4.200000 -5.880000 -15.197363 -43.011467 2080.946289
1.880000 4.200000 -5.840000 12.568401 -45.989841 2273.030029
1.880000 4.200000 -5.800000 32.991119 -30.496571 2018.454834
1.920000 3.800000 -6.200000 50.278740 58.965485 6004.879883
1.920000 3.800000 -6.160000 21.298431 82.384987 7240.909180
1.920000 3.800000 -6.120000 -17.742571 77.980614 6395.774902
1.920000 3.800000 -6.080000 -40.238815 48.973526 4017.568359
1.920000 3.800000 -6.040000 -35.176300 19.307642 1610.157104
1.920000 3.800000 -6.000000 -16.713768 9.474831 369.122437
1.920000 3.800000 -5.960000 -7.630569 17.120071 351.322418
1.920000 3.800000 -5.920000 -15.181932 22.654102 743.699463
1.920000 3.800000 -5.880000 -25.447506 12.505043 803.951660
1.920000 3.800000 -5.840000 -21.074987 -6.099998 481.365082
1.920000 3.800000 -5.800000 -1.615110 -14.402073 210.028290
1.920000 3.840000 -6.200000 0.773724 67.163307 4511.508301
1.920000 3.840000 -6.160000 -17.577501 72.552193 5572.789551
1.920000 3.840000 -6.120000 -37.296078 69.208267 6180.781738
1.920000 3.840000 -6.080000 -54.137547 58.870872 6396.653320
1.920000 3.840000 -6.040000 -67.276451 43.684631 6434.468262
1.920000 3.840000 -6.000000 -75.939697 23.137833 6302.196777
1.920000 3.840000 -5.960000 -75.592751 -2.757202 5721.866211
1.920000 3.840000 -5.920000 -60.710945 -27.849220 4461.397949
1.920000 3.840000 -5.880000 -32.780582 -40.564754 2720.065918
1.920000 3.840000 -5.840000 -3.964375 -33.157303 1115.123047
1.920000 3.840000 -5.800000 10.329370 -10.858423 224.601257
1.920000 3.880000 -6.200000 -37.015114 35.007092 2595.615234
1.920000 3.880000 -6.160000 -36.718384 43.283901 3221.735840
1.920000 3.880000 -6.120000 -53.318615 57.747768 6177.679688
1.920000 3.880000 -6.080000 -89.832199 57.449524 11370.271484
1.920000 3.880000 -6.040000 -127.612930 25.121315 16916.140625
1.920000 3.880000 -6.000000 -137.544189 -33.890118 20066.945312
1.920000 3.880000 -5.960000 -104.168404 -90.231880 18992.847656
1.920000 3.880000 -5.920000 -41.602455 -111.162567 14087.880859
1.920000 3.880000 -5.880000 14.763809 -86.693024 7733.650391
1.920000 3.880000 -5.840000 35.256458 -37.944084 2682.771484
1.920000 3.880000 -5.800000 18.262550 0.410649 333.689392
1.920000 3.920000 -6.200000 -35.502213 -11.989780 1404.161987
1.920000 3.920000 -6.160000 -31.261774 16.457344 1248.142700
1.920000 3.920000 -6.120000 -67.991798 41.594349 6352.974609
1.920000 3.920000 -6.080000 -128.536209 22.382042 17022.511719
1.920000 3.920000 -6.040000 -163.441788 -50.776443 29291.466797
1.920000 3.920000 -6.000000 -132.544739 -139.394379 36998.898438
1.920000 3.920000 -5.960000 -43.545300 -184.484863 35930.855469
1.920000 3.920000 -5.920000 50.152168 -155.792313 26786.484375
1.920000 3.920000 -5.880000 92.502533 -77.467239 14557.892578
1.920000 3.920000 -5.840000 69.778717 -6.314247 4908.938965
1.920000 3.920000 -5.800000 16.805105 16.436604 552.573486
1.920000 3.960000 -6.200000 -0.001421 -36.741142 1349.911499
1.920000 3.960000 -6.160000 -15.066515 7.468082 282.772125
1.920000 3.960000 -6.120000 -77.560608 17.563824 6324.135742
1.920000 3.960000 -6.080000 -136.992477 -41.343300 20476.207031
1.920000 3.960000 -6.040000 -129.988266 -143.851273 37590.140625
1.920000 3.960000 -6.000000 -39.959724 -217.757355 49015.046875
1.920000 3.960000 -5.960000 81.558403 -204.555084 48494.554688
1.920000 3.960000 -5.920000 155.558685 -111.397079 36607.812500
1.920000 3.960000 -5.880000 141.766556 -4.941235 20122.171875
1.920000 3.960000 -5.840000 68.796776 46.844093 6927.365723
1.920000 3.960000 -5.800000 2.423509 29.431896 872.109924
1.920000 4.000000 -6.200000 36.783073 -23.291431 1895.485352
1.920000 4.000000 -6.160000 -6.597054 13.510752 226.061523
1.920000 4.000000 -6.120000 -74.813866 -11.600946 5731.696289
1.920000 4.000000 -6.080000 -98.956650 -100.476364 19887.917969
1.920000 4.000000 -6.040000 -35.331718 -190.814102 37658.355469
1.920000 4.000000 -6.000000 87.544121 -205.841110 50034.535156
1.920000 4.000000 -5.960000 187.021317 -123.433212 50212.730469
1.920000 4.000000 -5.920000 196.073334 1.715143 38447.695312
1.920000 4.000000 -5.880000 119.626709 85.264732 21580.625000
1.920000 4.000000 -5.840000 25.027563 84.780685 7814.143555
1.920000 4.000000 -5.800000 -21.114626 28.515184 1258.943115
1.920000 4.040000 -6.200000 45.067589 10.839909 2148.591064
1.920000 4.040000 -6.160000 -12.172609 19.093052 512.717041
1.920000 4.040000 -6.120000 -56.814777 -36.507202 4560.694824
1.920000 4.040000 -6.080000 -32.327702 -120.870148 15654.672852
1.920000 4.040000 -6.040000 63.492455 -160.816711 29893.306641
1.920000 4.040000 -6.000000 167.283325 -109.951492 40073.042969
1.920000 4.040000 -5.960000 201.507477 5.617344 40636.816406
1.920000 4.040000 -5.920000 142.080673 106.919411 31618.679688
1.920000 4.040000 -5.880000 37.920258 129.984558 18333.929688
1.920000 4.040000 -5.840000 -35.229019 77.562401 7257.009766
1.920000 4.040000 -5.800000 -40.383408 7.652930 1689.386963
1.920000 4.080000 -6.200000 23.591114 33.483406 1677.679077
1.920000 4.080000 -6.160000 -22.166317 12.376364 644.520020
1.920000 4.080000 -6.120000 -29.247372 -47.795807 3139.847900
1.920000 4.080000 -6.080000 25.508453 -96.286705 9921.811523
1.920000 4.080000 -6.040000 109.703041 -80.890465 18578.023438
1.920000 4.080000 -6.000000 157.435516 1.436462 24788.003906
1.920000 4.080000 -5.960000 126.577431 96.238884 25283.769531
1.920000 4.080000 -5.920000 37.289116 136.849686 20118.314453
1.920000 4.080000 -5.880000 -45.893051 101.390320 12386.168945
1.920000 4.080000 -5.840000 -70.884537 27.654236 5789.374512
1.920000 4.080000 -5.800000 -39.013145 -25.832258 2189.331055
1.920000 4.120000 -6.200000 -3.206432 28.104513 800.144836
1.920000 4.120000 -6.160000 -22.463579 -3.838379 519.345520
1.920000 4.120000 -6.120000 -2.848188 -43.292080 1882.316406
1.920000 4.120000 -6.080000 49.039349 -50.810921 4986.607422
1.920000 4.120000 -6.040000 92.710899 -8.104370 8660.991211
1.920000 4.120000 -6.000000 87.032425 59.933506 11166.667969
1.920000 4.120000 -5.960000 28.566601 102.808441 11385.625977
1.920000 4.120000 -5.920000 -42.718624 87.728973 9521.253906
1.920000 4.120000 -5.880000 -77.439964 27.903765 6775.568359
1.920000 4.120000 -5.840000 -58.432972 -30.990868 4374.846191
1.920000 4.120000 -5.800000 -10.931181 -51.915680 2814.728516
1.920000 4.160000 -6.200000 -11.128012 6.015301 160.016479
1.920000 4.160000 -6.160000 -8.866838 -16.221169 341.747131
1.920000 4.160000 -6.120000 14.219269 -28.658932 1023.521973
1.920000 4.160000 -6.080000 41.898232 -14.639050 1969.763550
1.920000 4.160000 -6.040000 48.047012 21.200703 2757.985107
1.920000 4.160000 -6.000000 20.391075 52.110176 3131.266357
1.920000 4.160000 -5.960000 -25.145256 50.611481 3193.805908
1.920000 4.160000 -5.920000 -55.432770 13.435251 3253.297852
1.920000 4.160000 -5.880000 -47.971657 -34.208290 3471.486816
1.920000 4.160000 -5.840000 -9.611985 -59.909824 3681.577148
1.920000 4.160000 -5.800000 31.214214 -50.806969 3555.675293
1.920000 4.200000 -6.200000 1.828780 -8.952471 83.491173
1.920000 4.200000 -6.160000 9.452309 -14.653678 304.076416
1.920000 4.200000 -6.120000 20.478489 -11.910906 561.238159
1.920000 4.200000 -6.080000 25.750130 0.754295 663.638123
1.920000 4.200000 -6.040000 17.041283 15.051976 516.967285
1.920000 4.200000 -6.000000 -3.286453 17.100288 303.220642
1.920000 4.200000 -5.960000 -20.571770 -0.333519 423.308960
1.920000 4.200000 -5.920000 -18.492949 -28.872509 1175.610840
1.920000 4.200000 -5.880000 6.409319 -48.949696 2437.152100
1.920000 4.200000 -5.840000 40.211811 -45.211365 3661.057129
1.920000 4.200000 -5.800000 62.225533 -19.110090 4237.212402
1.960000 3.800000 -6.200000 1.455326 90.272903 8151.315430
1.960000 3.800000 -6.160000 -43.934074 88.252007 9718.619141
1.960000 3.800000 -6.120000 -76.560371 52.601711 8628.429688
1.960000 3.800000 -6.080000 -74.022324 6.815653 5525.757324
1.960000 3.800000 -6.040000 -44.175362 -17.652081 2263.058594
1.960000 3.800000 -6.000000 -16.694696 -11.454369 409.915466
1.960000 3.800000 -5.960000 -12.874428 5.761711 198.948196
1.960000 3.800000 -5.920000 -25.816792 8.290314 735.236023
1.960000 3.800000 -5.880000 -31.254845 -8.385797 1047.186890
1.960000 3.800000 -5.840000 -15.725698 -25.025314 873.563965
1.960000 3.800000 -5.800000 9.170576 -21.846313 561.360901
1.960000 3.840000 -6.200000 -51.953323 59.612640 6252.814453
1.960000 3.840000 -6.160000 -71.493607 46.875389 7308.637695
1.960000 3.840000 -6.120000 -83.392807 26.977688 7682.156250
1.960000 3.840000 -6.080000 -86.967049 5.760324 7596.448730
1.960000 3.840000 -6.040000 -85.167709 -14.659149 7468.429199
1.960000 3.840000 -6.000000 -78.184273 -35.966476 7406.367676
1.960000 3.840000 -5.960000 -61.545307 -57.033512 7040.646484
1.960000 3.840000 -5.920000 -32.847595 -69.506256 5910.083984
1.960000 3.840000 -5.880000 0.297359 -63.395775 4019.112549
1.960000 3.840000 -5.840000 22.163769 -38.569576 1978.844849
1.960000 3.840000 -5.800000 21.694151 -9.124233 553.887817
1.960000 3.880000 -6.200000 -62.588764 -0.123760 3917.368896
1.960000 3.880000 -6.160000 -63.248634 4.880123 4024.205322
1.960000 3.880000 -6.120000 -83.596489 7.939863 7051.414551
1.960000 3.880000 -6.080000 -114.814529 -13.886433 13375.208984
1.960000 3.880000 -6.040000 -128.269699 -66.579567 20885.953125
1.960000 3.880000 -6.000000 -98.973419 -127.024849 25931.050781
1.960000 3.880000 -5.960000 -30.651237 -157.192657 25649.029297
1.960000 3.880000 -5.920000 41.999104 -134.913849 19965.669922
1.960000 3.880000 -5.880000 78.701782 -73.969650 11665.480469
1.960000 3.880000 -5.840000 65.374977 -14.195446 4475.398438
1.960000 3.880000 -5.800000 23.873114 10.477962 679.713257
1.960000 3.920000 -6.200000 -24.710009 -43.359352 2490.617920
1.960000 3.920000 -6.160000 -34.900024 -12.609711 1377.016479
1.960000 3.920000 -6.120000 -84.287781 -9.788857 7200.251953
1.960000 3.920000 -6.080000 -129.823700 -65.493393 21143.578125
1.960000 3.920000 -6.040000 -116.051994 -157.817444 38374.410156
1.960000 3.920000 -6.000000 -27.995598 -222.690063 50374.617188
1.960000 3.920000 -5.960000 88.201584 -206.918625 50594.835938
1.960000 3.920000 -5.920000 159.995163 -115.992447 39052.703125
1.960000 3.920000 -5.880000 148.407028 -10.983627 22145.287109
1.960000 3.920000 -5.840000 78.120819 43.119659 7962.167480
1.960000 3.920000 -5.800000 11.218462 29.434065 992.218079
1.960000 3.960000 -6.200000 28.083052 -39.759590 2369.482666
1.960000 3.960000 -6.160000 -13.422688 -4.246426 198.200668
1.960000 3.960000 -6.120000 -81.296371 -32.841965 7687.694824
1.960000 3.960000 -6.080000 -102.269142 -128.601089 26997.218750
1.960000 3.960000 -6.040000 -28.806709 -225.190598 51540.632812
1.960000 3.960000 -6.000000 109.005173 -239.235001 69115.515625
1.960000 3.960000 -5.960000 221.215271 -145.542389 70118.781250
1.960000 3.960000 -5.920000 233.124390 -3.119892 54356.714844
1.960000 3.960000 -5.880000 148.180344 94.467163 30881.458984
1.960000 3.960000 -5.840000 40.171555 97.791656 11176.961914
1.960000 3.960000 -5.800000 -15.001598 35.935696 1516.422241
1.960000 4.000000 -6.200000 53.525269 0.619434 2865.338135
1.960000 4.000000 -6.160000 -12.983879 10.508053 279.000305
1.960000 4.000000 -6.120000 -65.574570 -57.843590 7645.905273
1.960000 4.000000 -6.080000 -33.022774 -162.773773 27585.804688
1.960000 4.000000 -6.040000 89.567795 -213.083771 53427.082031
1.960000 4.000000 -6.000000 224.101059 -148.666809 72323.109375
1.960000 4.000000 -5.960000 271.943420 0.144772 73953.250000
1.960000 4.000000 -5.920000 199.576996 134.311325 57870.507812
1.960000 4.000000 -5.880000 66.292030 170.457520 33450.398438
1.960000 4.000000 -5.840000 -31.350504 108.276794 12706.718750
1.960000 4.000000 -5.800000 -42.863651 19.744356 2227.132324
1.960000 4.040000 -6.200000 37.321068 39.674351 2966.916016
1.960000 4.040000 -6.160000 -25.387445 12.059116 789.944702
1.960000 4.040000 -6.120000 -35.834766 -72.687500 6567.603027
1.960000 4.040000 -6.080000 42.421860 -143.972015 22527.554688
1.960000 4.040000 -6.040000 166.599747 -125.030960 43388.218750
1.960000 4.040000 -6.000000 242.465408 -6.937473 58837.601562
1.960000 4.040000 -5.960000 205.519592 135.258331 60533.121094
1.960000 4.040000 -5.920000 79.388611 204.245117 48018.617188
1.960000 4.040000 -5.880000 -45.244884 163.161774 28668.863281
1.960000 4.040000 -5.840000 -90.419586 61.436642 11950.162109
1.960000 4.040000 -5.800000 -52.594906 -17.108343 3058.919434
1.960000 4.080000 -6.200000 1.517739 47.347260 2244.066406
1.960000 4.080000 -6.160000 -31.897211 -1.849284 1020.851929
1.960000 4.080000 -6.120000 -2.787758 -68.459854 4694.522949
1.960000 4.080000 -6.080000 83.715790 -86.581055 14504.612305
1.960000 4.080000 -6.040000 163.574875 -20.341789 27170.529297
1.960000 4.080000 -6.000000 165.613815 95.326355 36515.050781
1.960000 4.080000 -5.960000 76.672523 178.333542 37681.527344
1.960000 4.080000 -5.920000 -43.307274 169.240952 30518.019531
1.960000 4.080000 -5.880000 -112.612846 81.665619 19350.925781
1.960000 4.080000 -5.840000 -96.719284 -13.990555 9550.355469
1.960000 4.080000 -5.800000 -30.125422 -55.166759 3950.912354
1.960000 4.120000 -6.200000 -20.503651 26.018898 1097.382690
1.960000 4.120000 -6.160000 -22.580673 -17.344795 810.728760
1.960000 4.120000 -6.120000 19.558458 -48.500393 2734.821289
1.960000 4.120000 -6.080000 79.283829 -29.183723 7137.615234
1.960000 4.120000 -6.040000 104.213814 39.662178 12433.607422
1.960000 4.120000 -6.000000 62.731472 110.374954 16117.868164
1.960000 4.120000 -5.960000 -23.210762 126.461105 16531.150391
1.960000 4.120000 -5.920000 -93.329163 72.433098 13956.886719
1.960000 4.120000 -5.880000 -100.071701 -12.206757 10163.350586
1.960000 4.120000 -5.840000 -47.430855 -68.353149 6921.838867
1.960000 4.120000 -5.800000 18.135664 -67.353310 4865.370605
1.960000 4.160000 -6.200000 -15.390638 2.024610 240.970795
1.960000 4.160000 -6.160000 -4.178814 -20.283911 428.899536
1.960000 4.160000 -6.120000 25.599800 -25.154663 1288.106934
1.960000 4.160000 -6.080000 50.929688 0.112736 2593.845703
1.960000 4.160000 -6.040000 44.816769 41.344513 3717.911621
1.960000 4.160000 -6.000000 3.414940 64.498680 4171.741211
1.960000 4.160000 -5.960000 -45.223354 44.965607 4067.057617
1.960000 4.160000 -5.920000 -62.720329 -8.153946 4000.326416
1.960000 4.160000 -5.880000 -33.604332 -57.565887 4443.082520
1.960000 4.160000 -5.840000 21.408010 -69.158195 5241.158691
1.960000 4.160000 -5.800000 64.531395 -39.595760 5732.125000
1.960000 4.200000 -6.200000 2.613374 -3.224081 17.224421
1.960000 4.200000 -6.160000 8.949793 -9.592189 172.108887
1.960000 4.200000 -6.120000 20.739506 -8.621878 504.463867
1.960000 4.200000 -6.080000 27.969007 3.504847 794.549316
1.960000 4.200000 -6.040000 20.451118 18.033859 743.468384
1.960000 4.200000 -6.000000 1.058491 19.043106 363.760284
1.960000 4.200000 -5.960000 -12.680964 -0.448349 161.007858
1.960000 4.200000 -5.920000 -3.249156 -28.210712 806.401306
1.960000 4.200000 -5.880000 29.215237 -40.784286 2516.888184
1.960000 4.200000 -5.840000 64.444275 -23.781887 4718.642578
1.960000 4.200000 -5.800000 78.359070 14.974401 6364.376953
2.000000 3.800000 -6.200000 -54.248428 76.513077 8797.142578
2.000000 3.800000 -6.160000 -93.067139 44.451027 10637.385742
2.000000 3.800000 -6.120000 -98.484268 -9.439941 9788.263672
2.000000 3.800000 -6.080000 -65.066406 -49.794163 6713.095703
2.000000 3.800000 -6.040000 -19.663864 -52.476002 3140.398193
2.000000 3.800000 -6.000000 4.076822 -26.818581 735.856750
2.000000 3.800000 -5.960000 -2.653503 -4.250195 25.105234
2.000000 3.800000 -5.920000 -18.664993 -5.822813 382.287140
2.000000 3.800000 -5.880000 -18.081749 -23.032034 857.424255
2.000000 3.800000 -5.840000 2.195984 -30.835154 955.629028
2.000000 3.800000 -5.800000 21.806145 -16.679302 753.707031
2.000000 3.840000 -6.200000 -81.536194 16.262871 6912.631836
2.000000 3.840000 -6.160000 -89.198090 -9.835464 8053.035645
2.000000 3.840000 -6.120000 -83.643845 -36.405212 8321.632812
2.000000 3.840000 -6.080000 -68.803802 -56.288414 7902.348633
2.000000 3.840000 -6.040000 -50.835884 -68.786636 7315.888672
2.000000 3.840000 -6.000000 -31.333649 -76.881882 6892.621094
2.000000 3.840000 -5.960000 -7.837601 -79.971603 6456.885742
2.000000 3.840000 -5.920000 18.592804 -72.166321 5553.670410
2.000000 3.840000 -5.880000 38.786469 -49.856590 3990.069824
2.000000 3.840000 -5.840000 41.586903 -20.141630 2135.155762
2.000000 3.840000 -5.800000 25.833225 1.306379 669.062134
2.000000 3.880000 -6.200000 -53.000366 -42.055321 4577.688965
2.000000 3.880000 -6.160000 -53.078571 -39.602352 4385.681152
2.000000 3.880000 -6.120000 -68.176666 -48.174118 6968.803223
2.000000 3.880000 -6.080000 -78.860092 -81.971855 12938.298828
2.000000 3.880000 -6.040000 -58.676712 -130.247253 20407.304688
2.000000 3.880000 -6.000000 -0.432899 -160.505157 25762.093750
2.000000 3.880000 -5.960000 71.317177 -144.405365 25939.050781
2.000000 3.880000 -5.920000 116.059296 -84.190399 20557.783203
2.000000 3.880000 -5.880000 109.633301 -14.324150 12224.642578
2.000000 3.880000 -5.840000 64.225632 25.057238 4752.796875
2.000000 3.880000 -5.800000 17.508020 19.799755 698.561096
2.000000 3.920000 -6.200000 6.879163 -55.385967 3114.928467
2.000000 3.920000 -6.160000 -16.960785 -33.624760 1418.292725
2.000000 3.920000 -6.120000 -59.414314 -57.246868 6807.264648
2.000000 3.920000 -6.080000 -66.312492 -128.542328 20920.476562
2.000000 3.920000 -6.040000 -2.551891 -197.549286 39032.230469
2.000000 3.920000 -6.000000 108.214134 -201.226364 52202.351562
2.000000 3.920000 -5.960000 196.363739 -120.905861 53176.945312
2.000000 3.920000 -5.920000 203.684784 -3.168999 41497.535156
2.000000 3.920000 -5.880000 132.871277 77.672424 23687.781250
2.000000 3.920000 -5.840000 42.980305 81.310165 8458.649414
2.000000 3.920000 -5.800000 -3.588722 30.398987 936.977295
2.000000 3.960000 -6.200000 50.074738 -19.364897 2882.478516
2.000000 3.960000 -6.160000 -5.542683 -10.394344 138.763733
2.000000 3.960000 -6.120000 -48.686127 -72.226440 7586.997559
2.000000 3.960000 -6.080000 -13.465109 -166.440308 27883.685547
2.000000 3.960000 -6.040000 104.271385 -208.311371 54266.148438
2.000000 3.960000 -6.000000 231.117538 -142.205475 73637.710938
2.000000 3.960000 -5.960000 274.480042 2.630760 75346.218750
2.000000 3.960000 -5.920000 203.202438 132.204346 58769.218750
2.000000 3.960000 -5.880000 74.087906 167.293167 33476.023438
2.000000 3.960000 -5.840000 -20.252857 107.723724 12014.578125
2.000000 3.960000 -5.800000 -30.934025 22.974314 1484.732910
2.000000 4.000000 -6.200000 47.405251 30.837013 3198.179199
2.000000 4.000000 -6.160000 -16.764336 2.968790 289.856659
2.000000 4.000000 -6.120000 -25.324566 -86.306953 8090.223633
2.000000 4.000000 -6.080000 61.635086 -160.622650 29598.519531
2.000000 4.000000 -6.040000 197.694153 -136.545761 57727.718750
2.000000 4.000000 -6.000000 280.197174 -4.471619 78530.445312
2.000000 4.000000 -5.960000 238.840057 153.546936 80621.234375
2.000000 4.000000 -5.920000 99.575546 231.058929 63303.519531
2.000000 4.000000 -5.880000 -38.181396 187.686523 36684.050781
2.000000 4.000000 -5.840000 -88.815308 77.736633 13931.142578
2.000000 4.000000 -5.800000 -48.476429 -6.415100 2391.117676
2.000000 4.040000 -6.200000 10.789114 54.752083 3114.195557
2.000000 4.040000 -6.160000 -29.432245 -3.983015 882.121460
2.000000 4.040000 -6.120000 7.742039 -85.063576 7295.750977
2.000000 4.040000 -6.080000 116.639725 -105.841400 24807.226562
2.000000 4.040000 -6.040000 217.354065 -20.921314 47680.492188
2.000000 4.040000 -6.000000 220.620560 126.410172 64652.960938
2.000000 4.040000 -5.960000 109.496696 233.655914 66584.609375
2.000000 4.040000 -5.920000 -41.668232 226.296402 52946.304688
2.000000 4.040000 -5.880000 -131.164719 120.734528 31781.009766
2.000000 4.040000 -5.840000 -115.840393 4.122726 13435.994141
2.000000 4.040000 -5.800000 -38.369095 -46.051308 3592.910400
2.000000 4.080000 -6.200000 -23.389555 41.513680 2270.457031
2.000000 4.080000 -6.160000 -26.732906 -19.508247 1095.219971
2.000000 4.080000 -6.120000 34.612804 -63.580162 5240.483398
2.000000 4.080000 -6.080000 122.105629 -34.171112 16077.449219
2.000000 4.080000 -6.040000 159.392944 67.883194 30014.238281
2.000000 4.080000 -6.000000 100.185646 173.880890 40271.726562
2.000000 4.080000 -5.960000 -24.636993 202.344727 41550.367188
2.000000 4.080000 -5.920000 -129.374146 130.397385 33741.148438
2.000000 4.080000 -5.880000 -146.443100 13.169815 21619.025391
2.000000 4.080000 -5.840000 -80.920639 -66.819016 11012.930664
2.000000 4.080000 -5.800000 2.972425 -70.042999 4914.857422
2.000000 4.120000 -6.200000 -30.147446 13.242472 1084.231567
2.000000 4.120000 -6.160000 -10.990533 -25.775753 785.181274
2.000000 4.120000 -6.120000 41.912357 -33.171947 2857.023926
2.000000 4.120000 -6.080000 86.602066 13.398979 7679.450684
2.000000 4.120000 -6.040000 75.697151 88.290756 13525.316406
2.000000 4.120000 -6.000000 2.981354 132.596664 17590.763672
2.000000 4.120000 -5.960000 -84.032639 104.759087 18035.949219
2.000000 4.120000 -5.920000 -121.925400 19.625278 15250.954102
2.000000 4.120000 -5.880000 -85.577576 -62.915703 11281.907227
2.000000 4.120000 -5.840000 -7.388468 -89.490257 8063.095703
2.000000 4.120000 -5.800000 55.147999 -55.613491 6134.162109
2.000000 4.160000 -6.200000 -15.115452 -1.863260 231.948624
2.000000 4.160000 -6.160000 2.752424 -17.450687 312.102325
2.000000 4.160000 -6.120000 31.522720 -10.776381 1109.812256
2.000000 4.160000 -6.080000 45.018871 22.004063 2510.877441
2.000000 4.160000 -6.040000 23.112137 57.316040 3819.299316
2.000000 4.160000 -6.000000 -24.372486 61.433735 4368.122070
2.000000 4.160000 -5.960000 -60.735603 22.460640 4193.293945
2.000000 4.160000 -5.920000 -53.205750 -34.827110 4043.779297
2.000000 4.160000 -5.880000 -2.891510 -68.080849 4643.362793
2.000000 4.160000 -5.840000 55.481880 -53.404892 5930.321289
2.000000 4.160000 -5.800000 83.844597 -4.007777 7045.979004
2.000000 4.200000 -6.200000 -1.715403 3.277461 13.684357
2.000000 4.200000 -6.160000 4.190880 -4.345513 36.446960
2.000000 4.200000 -6.120000 17.086411 -3.403686 303.530518
2.000000 4.200000 -6.080000 24.249523 9.702312 682.174194
2.000000 4.200000 -6.040000 15.594891 23.320440 787.043579
2.000000 4.200000 -6.000000 -2.238670 20.948395 443.846893
2.000000 4.200000 -5.960000 -9.129034 0.023972 83.339836
2.000000 4.200000 -5.920000 9.019287 -21.561459 546.244019
2.000000 4.200000 -5.880000 44.045689 -20.180031 2347.256348
2.000000 4.200000 -5.840000 70.272598 11.158336 5062.746582
2.000000 4.200000 -5.800000 66.554573 55.228836 7479.735352
2.040000 3.800000 -6.200000 -80.833290 30.597992 7470.258301
2.040000 3.800000 -6.160000 -94.802841 -17.666452 9299.682617
2.040000 3.800000 -6.120000 -68.822502 -65.932236 9083.595703
2.040000 3.800000 -6.080000 -16.902229 -81.516464 6930.619629
2.040000 3.800000 -6.040000 25.446827 -57.510712 3955.022949
2.040000 3.800000 -6.000000 33.422676 -18.914482 1474.833008
2.040000 3.800000 -5.960000 14.199165 2.098209 206.018784
2.040000 3.800000 -5.920000 -3.805435 -3.889236 29.607498
2.040000 3.800000 -5.880000 -1.059839 -18.653526 349.077301
2.040000 3.800000 -5.840000 15.570601 -19.334042 616.248779
2.040000 3.800000 -5.800000 24.559975 -3.012005 612.264526
2.040000 3.840000 -6.200000 -70.956894 -30.854010 5986.850586
2.040000 3.840000 -6.160000 -61.771400 -58.121109 7193.769043
2.040000 3.840000 -6.120000 -39.288456 -77.669296 7576.102539
2.040000 3.840000 -6.080000 -11.766516 -83.458206 7103.722656
2.040000 3.840000 -6.040000 12.126305 -77.642448 6175.396973
2.040000 3.840000 -6.000000 29.659256 -66.143318 5254.609863
2.040000 3.840000 -5.960000 42.623604 -51.748730 4494.702637
2.040000 3.840000 -5.920000 50.948547 -33.348007 3707.843994
2.040000 3.840000 -5.880000 50.351280 -11.851315 2675.705078
2.040000 3.840000 -5.840000 38.000462 5.595709 1475.347046
2.040000 3.840000 -5.800000 19.412607 10.190220 480.689880
2.040000 3.880000 -6.200000 -18.322149 -61.210884 4082.473389
2.040000 3.880000 -6.160000 -16.865547 -60.553032 3951.116455
2.040000 3.880000 -6.120000 -20.012808 -73.785751 5844.849609
2.040000 3.880000 -6.080000 -7.914116 -100.881325 10239.674805
2.040000 3.880000 -6.040000 31.554565 -121.533401 15766.058594
2.040000 3.880000 -6.000000 86.635925 -110.574249 19732.449219
2.040000 3.880000 -5.960000 126.403748 -61.822021 19799.869141
2.040000 3.880000 -5.920000 124.978775 2.137299 15624.262695
2.040000 3.880000 -5.880000 84.258102 45.486168 9168.418945
2.040000 3.880000 -5.840000 33.750896 47.618156 3406.611816
2.040000 3.880000 -5.800000 6.627968 19.137604 410.177826
2.040000 3.920000 -6.200000 34.747704 -40.244125 2826.992676
2.040000 3.920000 -6.160000 7.269876 -34.861427 1268.170166
2.040000 3.920000 -6.120000 -11.851351 -72.176430 5349.891602
2.040000 3.920000 -6.080000 18.597748 -126.966660 16466.408203
2.040000 3.920000 -6.040000 99.546974 -144.906525 30907.500000
2.040000 3.920000 -6.000000 181.950073 -91.570297 41490.945312
2.040000 3.920000 -5.960000 205.329437 11.486435 42292.117188
2.040000 3.920000 -5.920000 150.841339 100.466347 32846.597656
2.040000 3.920000 -5.880000 58.717171 122.412399 18432.501953
2.040000 3.920000 -5.840000 -6.878540 78.563927 6219.604980
2.040000 3.920000 -5.800000 -12.162834 18.390869 486.158600
2.040000 3.960000 -6.200000 49.225586 9.523727 2513.859619
2.040000 3.960000 -6.160000 2.206917 -10.400606 113.043091
2.040000 3.960000 -6.120000 -0.510468 -78.283157 6128.513672
2.040000 3.960000 -6.080000 72.338493 -132.299622 22736.046875
2.040000 3.960000 -6.040000 182.018814 -105.900887 44345.843750
2.040000 3.960000 -6.000000 245.143158 6.788963 60141.257812
2.040000 3.960000 -5.960000 206.017761 137.461639 61339.019531
2.040000 3.960000 -5.920000 88.081329 199.293365 47476.164062
2.040000 3.960000 -5.880000 -25.739246 160.928391 26560.457031
2.040000 3.960000 -5.840000 -65.289200 69.293106 9064.214844
2.040000 3.960000 -5.800000 -29.217815 2.076780 857.993713
2.040000 4.000000 -6.200000 22.077450 46.138580 2616.182373
2.040000 4.000000 -6.160000 -14.016296 -6.699406 241.338593
2.040000 4.000000 -6.120000 22.782299 -79.952621 6911.455078
2.040000 4.000000 -6.080000 126.188423 -95.155754 24978.136719
2.040000 4.000000 -6.040000 219.654388 -10.362515 48355.433594
2.040000 4.000000 -6.000000 219.071915 131.760162 65353.242188
2.040000 4.000000 -5.960000 110.208199 233.358582 66602.070312
2.040000 4.000000 -5.920000 -34.625832 224.890656 51774.757812
2.040000 4.000000 -5.880000 -118.721069 124.162933 29511.125000
2.040000 4.000000 -5.840000 -102.883812 15.569981 10827.502930
2.040000 4.000000 -5.800000 -30.272017 -27.619864 1679.251831
2.040000 4.040000 -6.200000 -16.465677 46.332199 2417.791016
2.040000 4.040000 -6.160000 -19.284630 -18.394234 710.244751
2.040000 4.040000 -6.120000 48.592499 -63.624508 6409.309082
2.040000 4.040000 -6.080000 143.574890 -27.676781 21379.753906
2.040000 4.040000 -6.040000 181.701904 86.878960 40563.535156
2.040000 4.040000 -6.000000 113.815948 203.637421 54422.269531
2.040000 4.040000 -5.960000 -24.357998 234.272598 55476.960938
2.040000 4.040000 -5.920000 -138.879791 156.023666 43630.980469
2.040000 4.040000 -5.880000 -157.914352 30.599693 25873.285156
2.040000 4.040000 -5.840000 -89.619804 -52.872372 10827.197266
2.040000 4.040000 -5.800000 -4.972029 -54.251324 2967.927246
2.040000 4.080000 -6.200000 -34.828506 21.628933 1680.835693
2.040000 4.080000 -6.160000 -9.222459 -26.557535 790.356445
2.040000 4.080000 -6.120000 58.707142 -32.207767 4483.869141
2.040000 4.080000 -6.080000 113.287766 31.369768 13818.180664
2.040000 4.080000 -6.040000 95.037964 128.656860 25584.802734
2.040000 4.080000 -6.000000 -0.891075 184.337677 33981.171875
2.040000 4.080000 -5.960000 -112.532845 148.372437 34678.023438
2.040000 4.080000 -5.920000 -161.505371 42.333557 27876.115234
2.040000 4.080000 -5.880000 -119.788239 -58.714622 17796.628906
2.040000 4.080000 -5.840000 -29.762779 -91.568954 9270.696289
2.040000 4.080000 -5.800000 39.092834 -54.642300 4514.030762
2.040000 4.120000 -6.200000 -27.662098 0.361572 765.322388
2.040000 4.120000 -6.160000 2.797615 -20.923313 445.611694
2.040000 4.120000 -6.120000 46.173893 -4.137579 2149.147949
2.040000 4.120000 -6.080000 60.436466 50.953129 6248.788086
2.040000 4.120000 -6.040000 19.140072 104.212234 11226.532227
2.040000 4.120000 -6.000000 -57.362583 106.430290 14617.872070
2.040000 4.120000 -5.960000 -113.288246 45.242302 14881.092773
2.040000 4.120000 -5.920000 -104.540558 -39.716637 12506.139648
2.040000 4.120000 -5.880000 -37.359436 -89.349854 9379.124023
2.040000 4.120000 -5.840000 38.582928 -74.989594 7112.081055
2.040000 4.120000 -5.800000 74.813774 -18.380461 5934.941895
2.040000 4.160000 -6.200000 -13.785535 -2.186753 194.822861
2.040000 4.160000 -6.160000 3.690340 -8.855343 92.035706
2.040000 4.160000 -6.120000 23.182556 4.973486 562.166443
2.040000 4.160000 -6.080000 22.242493 34.085861 1656.574463
2.040000 4.160000 -6.040000 -7.174171 52.565189 2814.567871
2.040000 4.160000 -6.000000 -44.801521 36.907951 3369.373047
2.040000 4.160000 -5.960000 -56.516560 -8.391899 3264.545654
2.040000 4.160000 -5.920000 -25.595711 -50.288139 3184.037354
2.040000 4.160000 -5.880000 29.876419 -54.739643 3889.028809
2.040000 4.160000 -5.840000 71.596947 -16.430117 5396.071289
2.040000 4.160000 -5.800000 73.609451 37.973122 6860.309570
2.040000 4.200000 -6.200000 -11.531676 5.181792 159.830521
2.040000 4.200000 -6.160000 -4.980492 -4.040591 41.131676
2.040000 4.200000 -6.120000 8.400671 -2.707150 77.899933
2.040000 4.200000 -6.080000 14.386757 10.008707 307.152985
2.040000 4.200000 -6.040000 5.975647 20.433033 453.217194
2.040000 4.200000 -6.000000 -6.471775 15.316376 276.475250
2.040000 4.200000 -5.960000 -4.679188 -1.595158 24.439325
2.040000 4.200000 -5.920000 17.418617 -10.455544 412.726624
2.040000 4.200000 -5.880000 44.511063 5.686977 2013.576416
2.040000 4.200000 -5.840000 52.405445 42.998337 4595.187500
2.040000 4.200000 -5.800000 30.047100 78.722153 7100.005371
2.080000 3.800000 -6.200000 -68.161392 -13.212791 4820.553223
2.080000 3.800000 -6.160000 -55.601715 -56.133152 6242.481445
2.080000 3.800000 -6.120000 -12.414101 -80.657867 6659.801270
2.080000 3.800000 -6.080000 36.328541 -67.642464 5895.265625
2.080000 3.800000 -6.040000 59.643333 -26.703838 4270.421875
2.080000 3.800000 -6.000000 47.679588 11.848711 2413.735107
2.080000 3.800000 -5.960000 18.696552 24.236258 936.957275
2.080000 3.800000 -5.920000 -0.283346 12.533699 157.173904
2.080000 3.800000 -5.880000 1.395288 -2.084953 6.293860
2.080000 3.800000 -5.840000 12.103766 -2.967839 155.309235
2.080000 3.800000 -5.800000 14.696367 6.921762 263.894012
2.080000 3.840000 -6.200000 -35.409111 -51.594276 3915.774414
2.080000 3.840000 -6.160000 -14.550034 -69.092323 4985.452637
2.080000 3.840000 -6.120000 14.891188 -72.949188 5543.331543
2.080000 3.840000 -6.080000 41.617626 -60.269012 5364.380859
2.080000 3.840000 -6.040000 56.220230 -37.470497 4564.752441
2.080000 3.840000 -6.000000 57.348942 -14.554640 3500.738770
2.080000 3.840000 -5.960000 50.053600 2.344131 2510.857666
2.080000 3.840000 -5.920000 39.549515 12.733322 1726.301514
2.080000 3.840000 -5.880000 27.912481 17.765848 1094.731934
2.080000 3.840000 -5.840000 16.444962 16.923395 556.838074
2.080000 3.840000 -5.800000 8.890016 9.925377 177.545486
2.080000 3.880000 -6.200000 13.288229 -50.026909 2679.268555
2.080000 3.880000 -6.160000 17.128450 -50.020847 2795.468994
2.080000 3.880000 -6.120000 25.036003 -58.111485 4003.746094
2.080000 3.880000 -6.080000 46.795380 -65.261551 6448.877441
2.080000 3.880000 -6.040000 78.992256 -55.650455 9336.750000
2.080000 3.880000 -6.000000 103.673897 -21.995811 11232.092773
2.080000 3.880000 -5.960000 101.776375 24.128067 10940.594727
2.080000 3.880000 -5.920000 70.438568 58.311096 8361.775391
2.080000 3.880000 -5.880000 27.998657 62.177711 4649.992676
2.080000 3.880000 -5.840000 0.641994 38.834473 1508.528320
2.080000 3.880000 -5.800000 1.641286 10.510235 113.158859
2.080000 3.920000 -6.200000 40.099579 -13.735666 1796.644775
2.080000 3.920000 -6.160000 21.438824 -21.661457 928.841919
2.080000 3.920000 -6.120000 26.315567 -52.279900 3425.697021
2.080000 3.920000 -6.080000 69.220291 -72.105591 9990.665039
2.080000 3.920000 -6.040000 127.032761 -47.203766 18365.517578
2.080000 3.920000 -6.000000 154.378922 22.176594 24324.652344
2.080000 3.920000 -5.960000 123.410507 96.020699 24450.128906
2.080000 3.920000 -5.920000 50.860683 126.468674 18581.134766
2.080000 3.920000 -5.880000 -14.493353 98.784683 9968.471680
2.080000 3.920000 -5.840000 -33.290520 43.000057 2957.263672
2.080000 3.920000 -5.800000 -7.292507 5.753683 86.285530
2.080000 3.960000 -6.200000 29.278248 24.939781 1479.208496
2.080000 3.960000 -6.160000 7.262684 -8.006268 116.846893
2.080000 3.960000 -6.120000 34.467831 -53.219139 4020.308105
2.080000 3.960000 -6.080000 104.899681 -57.304440 14287.742188
2.080000 3.960000 -6.040000 165.122528 6.509438 27307.822266
2.080000 3.960000 -6.000000 158.431763 106.566315 36457.003906
2.080000 3.960000 -5.960000 77.783569 174.672638 36560.816406
2.080000 3.960000 -5.920000 -24.291481 164.445831 27632.507812
2.080000 3.960000 -5.880000 -80.293610 91.399811 14800.990234
2.080000 3.960000 -5.840000 -65.080399 16.816677 4518.259277
2.080000 3.960000 -5.800000 -12.299627 -7.951324 214.504395
2.080000 4.000000 -6.200000 -2.436031 37.750229 1431.014038
2.080000 4.000000 -6.160000 -3.758364 -12.430824 168.650696
2.080000 4.000000 -6.120000 51.637932 -45.590233 4744.945312
2.080000 4.000000 -6.080000 127.027313 -12.430532 16290.457031
2.080000 4.000000 -6.040000 154.191956 83.101601 30681.035156
2.080000 4.000000 -6.000000 94.923630 177.670380 40577.257812
2.080000 4.000000 -5.960000 -19.479090 200.204025 40461.085938
2.080000 4.000000 -5.920000 -111.759346 134.608215 30609.523438
2.080000 4.000000 -5.880000 -124.957840 33.456367 16733.791016
2.080000 4.000000 -5.840000 -68.751389 -30.326912 5646.475098
2.080000 4.000000 -5.800000 -3.462269 -26.315258 704.480103
2.080000 4.040000 -6.200000 -26.057224 23.816031 1246.182251
2.080000 4.040000 -6.160000 -1.042722 -19.802696 393.234070
2.080000 4.040000 -6.120000 62.830521 -21.815443 4423.587891
2.080000 4.040000 -6.080000 111.773819 41.320324 14200.755859
2.080000 4.040000 -6.040000 90.644638 134.014145 26176.242188
2.080000 4.040000 -6.000000 -2.638525 185.047699 34249.613281
2.080000 4.040000 -5.960000 -108.141884 149.438950 34026.667969
2.080000 4.040000 -5.920000 -153.186935 50.133858 25979.640625
2.080000 4.040000 -5.880000 -114.492462 -41.723602 14849.382812
2.080000 4.040000 -5.840000 -34.346333 -69.160347 5962.824219
2.080000 4.040000 -5.800000 22.430799 -34.494644 1693.021240
2.080000 4.080000 -6.200000 -28.292030 4.019321 816.593933
2.080000 4.080000 -6.160000 6.900151 -16.848070 331.469543
2.080000 4.080000 -6.120000 53.458099 6.283142 2897.246094
2.080000 4.080000 -6.080000 64.305222 69.967316 9030.586914
2.080000 4.080000 -6.040000 13.407223 127.552216 16449.320312
2.080000 4.080000 -6.000000 -73.161301 126.545044 21366.224609
2.080000 4.080000 -5.960000 -133.901718 57.479172 21233.525391
2.080000 4.080000 -5.920000 -124.158722 -34.024971 16573.087891
2.080000 4.080000 -5.880000 -54.709839 -85.707779 10338.990234
2.080000 4.080000 -5.840000 20.225050 -71.331512 5497.237305
2.080000 4.080000 -5.800000 52.419346 -17.749409 3062.829346
2.080000 4.120000 -6.200000 -19.246861 -3.752407 384.522217
2.080000 4.120000 -6.160000 6.280278 -6.783336 85.455544
2.080000 4.120000 -6.120000 27.403423 18.650999 1098.807373
2.080000 4.120000 -6.080000 16.435844 58.568996 3700.464355
2.080000 4.120000 -6.040000 -30.037321 77.149963 6854.357422
2.080000 4.120000 -6.000000 -80.640114 48.972023 8901.086914
2.080000 4.120000 -5.960000 -93.329407 -13.603447 8895.431641
2.080000 4.120000 -5.920000 -53.198235 -67.108292 7333.575195
2.080000 4.120000 -5.880000 12.922947 -73.636978 5589.407227
2.080000 4.120000 -5.840000 59.896336 -32.633335 4652.505859
2.080000 4.120000 -5.800000 62.692524 22.149446 4420.950684
2.080000 4.160000 -6.200000 -15.745188 -1.093462 249.106598
2.080000 4.160000 -6.160000 -4.316335 -3.198056 28.858309
2.080000 4.160000 -6.120000 4.770159 8.365854 92.741936
2.080000 4.160000 -6.080000 -2.614159 24.827066 623.217041
2.080000 4.160000 -6.040000 -24.878876 26.676472 1330.592529
2.080000 4.160000 -6.000000 -41.500195 4.379532 1741.446411
2.080000 4.160000 -5.960000 -31.206461 -27.969231 1756.121094
2.080000 4.160000 -5.920000 5.851112 -42.422935 1833.940918
2.080000 4.160000 -5.880000 45.209206 -22.348732 2543.338135
2.080000 4.160000 -5.840000 58.644955 21.849625 3916.636719
2.080000 4.160000 -5.800000 38.080170 62.079422 5303.954102
2.080000 4.200000 -6.200000 -21.285484 -2.013463 457.125885
2.080000 4.200000 -6.160000 -12.509377 -12.385495 309.885010
2.080000 4.200000 -6.120000 1.619637 -10.817643 119.644623
2.080000 4.200000 -6.080000 7.927977 0.474346 63.077820
2.080000 4.200000 -6.040000 3.142505 8.790688 87.151520
2.080000 4.200000 -6.000000 -2.211376 6.163036 42.873203
2.080000 4.200000 -5.960000 3.870598 -0.389862 15.133520
2.080000 4.200000 -5.920000 19.890747 4.342987 414.503357
2.080000 4.200000 -5.880000 30.104458 26.876299 1628.613770
2.080000 4.200000 -5.840000 19.454386 56.266560 3544.398926
2.080000 4.200000 -5.800000 -11.459882 73.001007 5460.476074
2.120000 3.800000 -6.200000 -35.831688 -29.467823 2152.262451
2.120000 3.800000 -6.160000 -10.437579 -52.985298 2916.385010
2.120000 3.800000 -6.120000 29.013464 -52.453323 3593.132080
2.120000 3.800000 -6.080000 58.556908 -23.194279 3966.885986
2.120000 3.800000 -6.040000 59.147858 17.629515 3809.268799
2.120000 3.800000 -6.000000 33.005154 44.420471 3062.518555
2.120000 3.800000 -5.960000 1.023146 44.219284 1956.391968
2.120000 3.800000 -5.920000 -15.975918 25.501724 905.567871
2.120000 3.800000 -5.880000 -13.747431 7.438961 244.329987
2.120000 3.800000 -5.840000 -3.877121 1.598575 17.587509
2.120000 3.800000 -5.800000 1.037645 4.330596 19.830769
2.120000 3.840000 -6.200000 -4.815625 -41.727406 1764.366699
2.120000 3.840000 -6.160000 17.387608 -46.253342 2441.700439
2.120000 3.840000 -6.120000 41.507603 -35.807831 3005.082031
2.120000 3.840000 -6.080000 55.573078 -11.731901 3226.004395
2.120000 3.840000 -6.040000 52.407345 15.396671 2983.587158
2.120000 3.840000 -6.000000 35.161247 33.292824 2344.725586
2.120000 3.840000 -5.960000 14.300511 36.460735 1533.889893
2.120000 3.840000 -5.920000 -0.455608 28.340313 803.380920
2.120000 3.840000 -5.880000 -5.647827 16.537247 305.378479
2.120000 3.840000 -5.840000 -3.271376 6.900245 58.315277
2.120000 3.840000 -5.800000 3.288558 1.783880 13.996842
2.120000 3.880000 -6.200000 22.298132 -26.025188 1174.517090
2.120000 3.880000 -6.160000 28.512409 -24.800381 1428.016357
2.120000 3.880000 -6.120000 39.525841 -22.415531 2064.748047
2.120000 3.880000 -6.080000 53.515076 -11.913870 3005.803467
2.120000 3.880000 -6.040000 61.784813 9.546749 3908.503418
2.120000 3.880000 -6.000000 55.152512 35.533600 4304.436523
2.120000 3.880000 -5.960000 32.729301 52.989021 3879.043457
2.120000 3.880000 -5.920000 5.048290 51.831429 2711.982422
2.120000 3.880000 -5.880000 -12.379900 33.772568 1293.848267
2.120000 3.880000 -5.840000 -10.679812 12.279737 264.850342
2.120000 3.880000 -5.800000 5.290372 2.804038 35.850666
2.120000 3.920000 -6.200000 26.378897 1.646604 698.557495
2.120000 3.920000 -6.160000 21.736652 -8.235056 540.298218
2.120000 3.920000 -6.120000 36.179825 -19.792084 1700.706299
2.120000 3.920000 -6.080000 64.220955 -12.241036 4274.173828
2.120000 3.920000 -6.040000 82.647751 21.871035 7308.993164
2.120000 3.920000 -6.000000 70.077774 65.798691 9240.362305
2.120000 3.920000 -5.960000 27.962179 90.136719 8906.511719
2.120000 3.920000 -5.920000 -17.788280 78.018234 6403.267578
2.120000 3.920000 -5.880000 -37.780479 40.688354 3082.906738
2.120000 3.920000 -5.840000 -24.087217 8.204454 647.507080
2.120000 3.920000 -5.800000 4.003070 3.460212 27.997635
2.120000 3.960000 -6.200000 10.270503 18.877670 461.849670
2.120000 3.960000 -6.160000 11.353636 -5.422326 158.306671
2.120000 3.960000 -6.120000 41.703720 -18.750244 2090.771973
2.120000 3.960000 -6.080000 80.064873 4.059874 6426.866211
2.120000 3.960000 -6.040000 89.801598 58.635651 11502.466797
2.120000 3.960000 -6.000000 52.225250 109.260223 14665.273438
2.120000 3.960000 -5.960000 -13.100929 117.890709 14069.854492
2.120000 3.960000 -5.920000 -62.643318 78.198074 10039.124023
2.120000 3.960000 -5.880000 -66.127083 21.877251 4851.405273
2.120000 3.960000 -5.840000 -31.903923 -9.537988 1108.833496
2.120000 3.960000 -5.800000 3.232611 -0.622738 10.837575
2.120000 4.000000 -6.200000 -8.132295 17.540373 373.798889
2.120000 4.000000 -6.160000 9.024247 -8.589752 155.220886
2.120000 4.000000 -6.120000 50.065132 -6.830729 2553.176514
2.120000 4.000000 -6.080000 79.679085 36.830090 7705.211914
2.120000 4.000000 -6.040000 62.781517 98.137878 13572.561523
2.120000 4.000000 -6.000000 -0.602047 130.581146 17051.798828
2.120000 4.000000 -5.960000 -70.336868 105.827194 16146.669922
2.120000 4.000000 -5.920000 -99.026596 40.458755 11443.177734
2.120000 4.000000 -5.880000 -72.905693 -17.830276 5633.159180
2.120000 4.000000 -5.840000 -21.909683 -32.137695 1512.865601
2.120000 4.000000 -5.800000 9.976886 -6.398211 140.475357
2.120000 4.040000 -6.200000 -15.566157 7.240144 294.724945
2.120000 4.040000 -6.160000 11.751528 -6.265780 177.358414
2.120000 4.040000 -6.120000 46.047852 14.117619 2319.711670
2.120000 4.040000 -6.080000 51.699684 64.375793 6817.100098
2.120000 4.040000 -6.040000 10.112310 108.332901 11838.276367
2.120000 4.040000 -6.000000 -57.638500 106.619324 14689.876953
2.120000 4.040000 -5.960000 -104.520523 53.371925 13773.102539
2.120000 4.040000 -5.920000 -97.589851 -15.682758 9769.728516
2.120000 4.040000 -5.880000 -46.703957 -53.460773 5039.313477
2.120000 4.040000 -5.840000 5.902719 -41.829365 1784.537842
2.120000 4.040000 -5.800000 24.467073 -3.636745 611.863586
2.120000 4.080000 -6.200000 -14.349996 0.881066 206.698654
2.120000 4.080000 -6.160000 8.523461 1.526491 74.979568
2.120000 4.080000 -6.120000 24.578646 27.381447 1353.853516
2.120000 4.080000 -6.080000 10.324917 63.631271 4155.542480
2.120000 4.080000 -6.040000 -34.637806 78.104172 7300.039062
2.120000 4.080000 -6.000000 -80.807640 50.237019 9053.632812
2.120000 4.080000 -5.960000 -91.788307 -6.620806 8468.928711
2.120000 4.080000 -5.920000 -56.920746 -53.616524 6114.703125
2.120000 4.080000 -5.880000 -1.613014 -59.409904 3532.138672
2.120000 4.080000 -5.840000 35.351719 -26.442446 1948.947021
2.120000 4.080000 -5.800000 35.345314 14.525655 1460.285889
2.120000 4.120000 -6.200000 -14.803852 0.097507 219.163544
2.120000 4.120000 -6.160000 -3.727221 3.570235 26.638756
2.120000 4.120000 -6.120000 -0.415270 19.296909 372.543152
2.120000 4.120000 -6.080000 -15.793934 34.342537 1428.858154
2.120000 4.120000 -6.040000 -42.966106 29.606907 2722.655273
2.120000 4.120000 -6.000000 -58.967869 0.120205 3477.223877
2.120000 4.120000 -5.960000 -45.019188 -35.837391 3311.045898
2.120000 4.120000 -5.920000 -5.794317 -50.526733 2586.524902
2.120000 4.120000 -5.880000 32.575134 -31.318481 2041.986694
2.120000 4.120000 -5.840000 44.887169 8.096901 2080.417725
2.120000 4.120000 -5.800000 27.794432 40.914783 2446.550049
2.120000 4.160000 -6.200000 -20.241652 -3.719203 423.556946
2.120000 4.160000 -6.160000 -14.343809 -7.808377 266.715607
2.120000 4.160000 -6.120000 -8.735879 -4.385607 95.549133
2.120000 4.160000 -6.080000 -10.806804 0.863899 117.533325
2.120000 4.160000 -6.040000 -17.433784 -1.921490 307.628937
2.120000 4.160000 -6.000000 -16.722713 -13.862305 471.812622
2.120000 4.160000 -5.960000 -1.271694 -23.188148 539.307434
2.120000 4.160000 -5.920000 21.552002 -15.812572 714.526245
2.120000 4.160000 -5.880000 34.314972 9.859193 1274.721069
2.120000 4.160000 -5.840000 25.227806 39.766369 2217.806396
2.120000 4.160000 -5.800000 -1.311956 56.273861 3168.468506
2.120000 4.200000 -6.200000 -22.483444 -15.939416 759.570251
2.120000 4.200000 -6.160000 -10.373411 -25.412685 753.412231
2.120000 4.200000 -6.120000 5.120629 -22.621042 537.932373
2.120000 4.200000 -6.080000 13.387925 -11.093060 302.292511
2.120000 4.200000 -6.040000 12.804902 -0.502007 164.217529
2.120000 4.200000 -6.000000 10.359768 4.613904 128.612900
2.120000 4.200000 -5.960000 11.683083 9.009030 217.657043
2.120000 4.200000 -5.920000 13.473213 19.504932 561.969849
2.120000 4.200000 -5.880000 6.962871 35.242489 1290.514648
2.120000 4.200000 -5.840000 -11.771576 46.759499 2325.020752
2.120000 4.200000 -5.800000 -36.448208 44.793491 3334.928711
2.160000 3.800000 -6.200000 -11.552444 -19.273945 504.943909
2.160000 3.800000 -6.160000 9.500463 -24.481609 689.607971
2.160000 3.800000 -6.120000 32.311222 -11.998392 1187.976440
2.160000 3.800000 -6.080000 41.385597 15.739756 1960.507568
2.160000 3.800000 -6.040000 28.111027 43.669971 2697.296143
2.160000 3.800000 -6.000000 -0.901570 54.739288 2997.202393
2.160000 3.800000 -5.960000 -28.140308 43.282814 2665.278809
2.160000 3.800000 -5.920000 -38.787529 18.970673 1864.358887
2.160000 3.800000 -5.880000 -31.369236 -2.066723 988.300354
2.160000 3.800000 -5.840000 -16.225698 -10.328421 369.949554
2.160000 3.800000 -5.800000 -4.551356 -8.178425 87.601479
2.160000 3.840000 -6.200000 3.453347 -20.569996 435.050323
2.160000 3.840000 -6.160000 18.863678 -16.921318 642.169312
2.160000 3.840000 -6.120000 31.191025 -1.383328 974.793579
2.160000 3.840000 -6.080000 30.569275 21.255737 1386.286987
2.160000 3.840000 -6.040000 14.261580 38.932354 1719.120850
2.160000 3.840000 -6.000000 -9.680702 41.164665 1788.245605
2.160000 3.840000 -5.960000 -27.856812 27.305702 1521.603271
2.160000 3.840000 -5.920000 -31.327396 6.776794 1027.330688
2.160000 3.840000 -5.880000 -21.234039 -8.529835 523.642517
2.160000 3.840000 -5.840000 -6.000017 -12.490439 192.011276
2.160000 3.840000 -5.800000 6.056445 -6.862342 83.772270
2.160000 3.880000 -6.200000 12.727491 -11.613829 296.870056
2.160000 3.880000 -6.160000 19.595472 -7.703592 443.327881
2.160000 3.880000 -6.120000 25.288023 2.187254 644.268188
2.160000 3.880000 -6.080000 24.082985 16.316685 846.224365
2.160000 3.880000 -6.040000 13.460529 28.150707 973.648193
2.160000 3.880000 -6.000000 -2.856205 30.782557 955.723694
2.160000 3.880000 -5.960000 -16.622135 22.218029 769.936157
2.160000 3.880000 -5.920000 -20.458010 7.359906 472.698364
2.160000 3.880000 -5.880000 -12.813378 -4.880476 188.001709
2.160000 3.880000 -5.840000 0.959584 -7.199406 52.752251
2.160000 3.880000 -5.800000 12.007550 1.646781 146.893143
2.160000 3.920000 -6.200000 12.758095 -1.539587 165.139313
2.160000 3.920000 -6.160000 16.586180 -3.221044 285.476471
2.160000 3.920000 -6.120000 24.145384 0.650373 583.422546
2.160000 3.920000 -6.080000 28.644514 12.529938 977.507507
2.160000 3.920000 -6.040000 23.117855 27.659840 1299.501953
2.160000 3.920000 -6.000000 7.142176 36.347187 1372.128662
2.160000 3.920000 -5.960000 -10.935410 31.642025 1120.800903
2.160000 3.920000 -5.920000 -19.564919 16.157246 643.842651
2.160000 3.920000 -5.880000 -13.527056 1.376153 184.875031
2.160000 3.920000 -5.840000 0.852871 -1.152797 2.056330
2.160000 3.920000 -5.800000 10.162066 10.399346 211.413986
2.160000 3.960000 -6.200000 8.385420 3.913387 85.629868
2.160000 3.960000 -6.160000 15.832464 -1.082548 251.838821
2.160000 3.960000 -6.120000 28.479624 3.720706 824.932617
2.160000 3.960000 -6.080000 35.288151 20.993473 1685.979492
2.160000 3.960000 -6.040000 26.184202 42.030273 2452.156250
2.160000 3.960000 -6.000000 2.429420 51.808769 2690.050781
2.160000 3.960000 -5.960000 -21.874870 41.760372 2222.438721
2.160000 3.960000 -5.920000 -30.611877 18.678724 1285.981812
2.160000 3.960000 -5.880000 -19.907211 0.165171 396.324341
2.160000 3.960000 -5.840000 -2.174667 -0.516232 4.995674
2.160000 3.960000 -5.800000 4.796204 13.639524 209.040192
2.160000 4.000000 -6.200000 4.510909 6.328080 60.392899
2.160000 4.000000 -6.160000 15.717384 4.388223 266.292664
2.160000 4.000000 -6.120000 28.211388 15.228863 1027.800659
2.160000 4.000000 -6.080000 28.867931 37.268181 2222.274902
2.160000 4.000000 -6.040000 10.231639 56.603329 3308.623291
2.160000 4.000000 -6.000000 -19.768267 57.079430 3648.845703
2.160000 4.000000 -5.960000 -41.722580 35.394394 2993.536621
2.160000 4.000000 -5.920000 -40.905281 6.154502 1711.119995
2.160000 4.000000 -5.880000 -20.905296 -9.836740 533.792847
2.160000 4.000000 -5.840000 -0.768860 -3.988696 16.500839
2.160000 4.000000 -5.800000 2.503708 12.706761 167.730331
2.160000 4.040000 -6.200000 0.219425 8.985025 80.778831
2.160000 4.040000 -6.160000 9.316707 12.172355 234.967239
2.160000 4.040000 -6.120000 14.899644 25.701513 882.567200
2.160000 4.040000 -6.080000 6.612583 43.824032 1964.271973
2.160000 4.040000 -6.040000 -16.688164 51.958805 2978.212402
2.160000 4.040000 -6.000000 -41.780029 39.330910 3292.491211
2.160000 4.040000 -5.960000 -50.392860 11.044348 2661.417969
2.160000 4.040000 -5.920000 -35.751045 -13.887366 1470.996094
2.160000 4.040000 -5.880000 -9.848951 -18.656420 445.063843
2.160000 4.040000 -5.840000 6.938332 -3.754451 62.236347
2.160000 4.040000 -5.800000 4.405060 14.172122 220.253601
2.160000 4.080000 -6.200000 -7.852616 10.017267 162.009216
2.160000 4.080000 -6.160000 -4.944695 13.203459 198.781342
2.160000 4.080000 -6.120000 -5.655881 21.338165 487.306274
2.160000 4.080000 -6.080000 -15.641330 28.769028 1072.308228
2.160000 4.080000 -6.040000 -31.980076 25.498507 1672.899170
2.160000 4.080000 -6.000000 -42.400822 8.140423 1864.096191
2.160000 4.080000 -5.960000 -35.854164 -13.624437 1471.146362
2.160000 4.080000 -5.920000 -14.305669 -23.789545 770.594604
2.160000 4.080000 -5.880000 7.238154 -14.566998 264.588318
2.160000 4.080000 -5.840000 13.870138 6.000270 228.383972
2.160000 4.080000 -5.800000 4.151332 21.702713 488.241302
2.160000 4.120000 -6.200000 -17.893276 3.680052 333.712128
2.160000 4.120000 -6.160000 -17.606249 0.617103 310.360840
2.160000 4.120000 -6.120000 -16.343086 0.345433 267.215790
2.160000 4.120000 -6.080000 -18.076889 0.635212 327.177429
2.160000 4.120000 -6.040000 -21.155571 -3.571550 460.314178
2.160000 4.120000 -6.000000 -18.841312 -12.399191 508.734985
2.160000 4.120000 -5.960000 -7.322553 -18.351021 390.379761
2.160000 4.120000 -5.920000 7.993855 -13.051379 234.240234
2.160000 4.120000 -5.880000 15.959884 3.460466 266.692719
2.160000 4.120000 -5.840000 10.076893 21.440075 561.220581
2.160000 4.120000 -5.800000 -5.299111 30.191391 939.600647
2.160000 4.160000 -6.200000 -21.489515 -11.346682 590.546448
2.160000 4.160000 -6.160000 -15.832347 -19.909227 647.040527
2.160000 4.160000 -6.120000 -5.788980 -21.997723 517.412109
2.160000 4.160000 -6.080000 2.342494 -17.990379 329.141022
2.160000 4.160000 -6.040000 6.631775 -12.296982 195.196198
2.160000 4.160000 -6.000000 9.596646 -7.067714 142.048187
2.160000 4.160000 -5.960000 12.812487 -0.117557 164.173645
2.160000 4.160000 -5.920000 13.384240 10.770462 295.140747
2.160000 4.160000 -5.880000 6.885807 23.067101 579.505493
2.160000 4.160000 -5.840000 -6.909758 30.553560 981.264771
2.160000 4.160000 -5.800000 -22.684889 29.211861 1367.937012
2.160000 4.200000 -6.200000 -11.617638 -26.859949 856.426331
2.160000 4.200000 -6.160000 2.678524 -32.591492 1069.379761
2.160000 4.200000 -6.120000 18.517223 -26.793968 1060.804321
2.160000 4.200000 -6.080000 27.502968 -12.406683 910.339050
2.160000 4.200000 -6.040000 27.110947 3.467855 747.029419
2.160000 4.200000 -6.000000 20.180531 15.891712 659.800293
2.160000 4.200000 -5.960000 10.173158 24.067947 682.759277
2.160000 4.200000 -5.920000 -1.684954 28.574364 819.333313
2.160000 4.200000 -5.880000 -14.956629 28.708195 1047.861206
2.160000 4.200000 -5.840000 -27.667248 23.344273 1310.431641
2.160000 4.200000 -5.800000 -36.856407 13.345118 1536.486938
2.200000 3.800000 -6.200000 -7.497189 -2.065862 60.475624
2.200000 3.800000 -6.160000 0.612904 -0.826108 1.058106
2.200000 3.800000 -6.120000 8.297588 8.138837 135.090637
2.200000 3.800000 -6.080000 7.591695 23.754190 621.895386
2.200000 3.800000 -6.040000 -6.394904 37.077969 1415.670532
2.200000 3.800000 -6.000000 -28.817043 37.055534 2203.534668
2.200000 3.800000 -5.960000 -46.629517 20.291462 2586.055176
2.200000 3.800000 -5.920000 -48.429703 -4.681304 2367.350586
2.200000 3.800000 -5.880000 -33.773434 -23.588549 1697.064453
2.200000 3.800000 -5.840000 -13.021975 -27.728477 938.440308
2.200000 3.800000 -5.800000 2.038141 -19.723513 393.170959
2.200000 3.840000 -6.200000 -4.864073 -8.722979 99.749565
2.200000 3.840000 -6.160000 2.169703 -4.899415 28.711880
2.200000 3.840000 -6.120000 5.291683 6.007139 64.087631
2.200000 3.840000 -6.080000 -1.926721 18.545071 347.631897
2.200000 3.840000 -6.040000 -18.587530 22.774014 864.151978
2.200000 3.840000 -6.000000 -35.110641 12.778283 1396.041748
2.200000 3.840000 -5.960000 -40.121742 -7.225883 1661.967529
2.200000 3.840000 -5.920000 -29.706444 -25.394953 1527.376465
2.200000 3.840000 -5.880000 -10.441292 -31.432678 1097.033813
2.200000 3.840000 -5.840000 6.384473 -23.987837 616.177795
2.200000 3.840000 -5.800000 13.594414 -9.951485 283.840149
2.200000 3.880000 -6.200000 2.570858 -13.151237 179.564362
2.200000 3.880000 -6.160000 7.626601 -7.246613 110.678436
2.200000 3.880000 -6.120000 5.987910 2.275548 41.033188
2.200000 3.880000 -6.080000 -3.574583 7.969881 76.296646
2.200000 3.880000 -6.040000 -15.185041 4.115925 247.526321
2.200000 3.880000 -6.000000 -20.305984 -7.902236 474.778351
2.200000 3.880000 -5.960000 -14.696152 -20.353798 630.253967
2.200000 3.880000 -5.920000 -1.571492 -25.216961 638.364746
2.200000 3.880000 -5.880000 11.364175 -19.845127 522.973511
2.200000 3.880000 -5.840000 17.679199 -7.733111 372.355103
2.200000 3.880000 -5.800000 15.637871 5.153508 271.101654
2.200000 3.920000 -6.200000 13.069026 -11.289176 298.244934
2.200000 3.920000 -6.160000 15.124993 -3.782183 243.070343
2.200000 3.920000 -6.120000 10.487612 2.245323 115.031471
2.200000 3.920000 -6.080000 3.487138 1.955896 15.985662
2.200000 3.920000 -6.040000 0.324026 -3.633387 13.306491
2.200000 3.920000 -6.000000 3.452280 -9.125598 95.194771
2.200000 3.920000 -5.960000 10.155379 -9.836450 199.887482
2.200000 3.920000 -5.920000 15.792466 -5.121346 275.630188
2.200000 3.920000 -5.880000 17.462357 2.621971 311.808624
2.200000 3.920000 -5.840000 14.629463 10.709685 328.718567
2.200000 3.920000 -5.800000 7.559566 17.205378 353.172058
2.200000 3.960000 -6.200000 20.705162 -0.905849 429.524292
2.200000 3.960000 -6.160000 18.322151 6.833221 382.394135
2.200000 3.960000 -6.120000 12.576554 8.725281 234.300247
2.200000 3.960000 -6.080000 10.088037 5.798884 135.395538
2.200000 3.960000 -6.040000 12.714108 3.897869 176.841904
2.200000 3.960000 -6.000000 16.387558 6.890700 316.033813
2.200000 3.960000 -5.960000 16.348650 13.039802 437.314758
2.200000 3.960000 -5.920000 12.087933 17.993183 469.872742
2.200000 3.960000 -5.880000 6.526204 19.957230 440.882355
2.200000 3.960000 -5.840000 1.355322 20.498232 422.014404
2.200000 3.960000 -5.800000 -4.909115 20.559328 446.785400
2.200000 4.000000 -6.200000 18.265354 13.984308 529.184082
2.200000 4.000000 -6.160000 10.904626 18.863937 474.759003
2.200000 4.000000 -6.120000 5.656505 16.290951 297.391144
2.200000 4.000000 -6.080000 7.036730 12.992953 218.332397
2.200000 4.000000 -6.040000 11.088739 15.375593 359.369019
2.200000 4.000000 -6.000000 10.740276 22.499378 621.575562
2.200000 4.000000 -5.960000 3.964826 27.882742 793.167175
2.200000 4.000000 -5.920000 -4.618249 27.216177 762.048523
2.200000 4.000000 -5.880000 -9.848041 22.596684 607.593994
2.200000 4.000000 -5.840000 -11.843292 18.647989 488.011047
2.200000 4.000000 -5.800000 -14.412758 16.030949 464.718872
2.200000 4.040000 -6.200000 4.034179 23.446751 566.024719
2.200000 4.040000 -6.160000 -5.940429 21.812916 511.091980
2.200000 4.040000 -6.120000 -8.323333 14.685756 284.949280
2.200000 4.040000 -6.080000 -3.437777 11.589226 146.128464
2.200000 4.040000 -6.040000 0.681675 16.166632 261.824677
2.200000 4.040000 -6.000000 -2.277527 23.157974 541.478882
2.200000 4.040000 -5.960000 -10.489880 25.160061 743.066284
2.200000 4.040000 -5.920000 -17.183407 20.713985 724.338623
2.200000 4.040000 -5.880000 -18.690197 14.608688 562.737244
2.200000 4.040000 -5.840000 -17.541368 11.147629 431.969238
2.200000 4.040000 -5.800000 -17.613714 9.233961 395.508972
2.200000 4.080000 -6.200000 -14.144414 18.758224 551.935425
2.200000 4.080000 -6.160000 -21.364265 9.522543 547.110657
2.200000 4.080000 -6.120000 -17.711927 -0.319998 313.814758
2.200000 4.080000 -6.080000 -8.458195 -1.895293 75.133194
2.200000 4.080000 -6.040000 -3.020830 4.693117 31.150761
2.200000 4.080000 -6.000000 -5.491784 12.091827 176.371994
2.200000 4.080000 -5.960000 -12.014436 14.121395 343.760468
2.200000 4.080000 -5.920000 -16.547127 11.191031 399.046570
2.200000 4.080000 -5.880000 -17.287281 7.726951 358.555847
2.200000 4.080000 -5.840000 -16.762810 6.164285 318.990204
2.200000 4.080000 -5.800000 -16.953270 5.157638 314.014587
2.200000 4.120000 -6.200000 -23.202873 0.861411 539.115356
2.200000 4.120000 -6.160000 -22.440281 -12.217944 652.844360
2.200000 4.120000 -6.120000 -11.227037 -19.981102 525.290833
2.200000 4.120000 -6.080000 1.947337 -16.616020 279.884247
2.200000 4.120000 -6.040000 8.248613 -5.430988 97.535255
2.200000 4.120000 -6.000000 5.492342 5.607979 61.615250
2.200000 4.120000 -5.960000 -2.097332 11.131819 128.316193
2.200000 4.120000 -5.920000 -9.277919 11.240808 212.435547
2.200000 4.120000 -5.880000 -13.833642 8.844713 269.598602
2.200000 4.120000 -5.840000 -16.191259 6.117891 299.585480
2.200000 4.120000 -5.800000 -17.120148 3.902366 308.327911
2.200000 4.160000 -6.200000 -15.336025 -18.455395 575.795288
2.200000 4.160000 -6.160000 -5.870502 -28.237911 831.842407
2.200000 4.160000 -6.120000 9.898010 -28.447781 907.246826
2.200000 4.160000 -6.080000 22.744938 -17.254820 815.061035
2.200000 4.160000 -6.040000 25.646397 -0.195795 657.776001
2.200000 4.160000 -6.000000 17.988194 14.573880 535.973083
2.200000 4.160000 -5.960000 4.492999 21.612700 487.295837
2.200000 4.160000 -5.920000 -8.692816 20.278015 486.762939
2.200000 4.160000 -5.880000 -17.276201 13.637892 484.459229
2.200000 4.160000 -5.840000 -20.217918 6.172362 446.862274
2.200000 4.160000 -5.800000 -19.705019 1.497266 390.529572
2.200000 4.200000 -6.200000 4.624355 -25.207104 656.782715
2.200000 4.200000 -6.160000 17.480127 -26.171188 990.485962
2.200000 4.200000 -6.120000 30.776657 -17.293640 1246.272583
2.200000 4.200000 -6.080000 37.072876 -0.079413 1374.404541
2.200000 4.200000 -6.040000 31.968040 19.071186 1385.665771
2.200000 4.200000 -6.000000 16.521893 32.394730 1322.391357
2.200000 4.200000 -5.960000 -3.338795 34.737255 1217.824463
2.200000 4.200000 -5.920000 -19.778097 26.208061 1078.035645
2.200000 4.200000 -5.880000 -27.249842 12.216913 891.806885
2.200000 4.200000 -5.840000 -25.866560 0.291562 669.163940
2.200000 4.200000 -5.800000 -21.253088 -5.076415 477.463745
