#kx 	ky 	kz 	real 	imag 	intensity
1.800000 7.800000 1.983333 -116.071960 -95.435471 22580.628906
1.800000 7.800000 1.991667 86.836655 -103.576881 18268.773438
1.800000 7.800000 2.000000 -14.717648 64.485641 4375.007324
1.800000 7.800000 2.008333 -91.264275 -133.393738 26123.056641
1.800000 7.800000 2.016667 115.095955 -117.100967 26959.714844
1.800000 7.900000 1.983333 7.189747 -78.772476 6256.795410
1.800000 7.900000 1.991667 76.980789 2.026674 5930.149414
1.800000 7.900000 2.000000 -22.576939 -21.283867 962.721191
1.800000 7.900000 2.008333 65.645248 -94.908943 13317.005859
1.800000 7.900000 2.016667 142.130432 -16.833706 20484.433594
1.800000 8.000000 1.983333 -21.961824 -51.222832 3106.100342
1.800000 8.000000 1.991667 146.694305 -50.800903 24099.951172
1.800000 8.000000 2.000000 57.878838 122.117142 18262.556641
1.800000 8.000000 2.008333 44.837330 -21.798294 2485.551758
1.800000 8.000000 2.016667 116.518265 173.978653 43845.078125
1.800000 8.100000 1.983333 6.075012 -71.467636 5144.528809
1.800000 8.100000 1.991667 168.595978 165.450623 55798.511719
1.800000 8.100000 2.000000 -195.464676 103.305222 48878.410156
1.800000 8.100000 2.008333 42.002350 10.133820 1866.891724
1.800000 8.100000 2.016667 -222.253510 73.967392 54867.796875
1.800000 8.200000 1.983333 27.926603 -49.337479 3214.082031
1.800000 8.200000 1.991667 -44.506207 163.406921 28682.625000
1.800000 8.200000 2.000000 -99.046608 -113.632050 22722.472656
1.800000 8.200000 2.008333 -16.907803 20.553230 708.309082
1.800000 8.200000 2.016667 11.994884 -216.596680 47058.000000
1.900000 7.800000 1.983333 -16.983429 -54.707279 3281.323242
1.900000 7.800000 1.991667 92.169991 -97.370407 17976.304688
1.900000 7.800000 2.000000 6.411332 104.178696 10894.305664
1.900000 7.800000 2.008333 -21.971828 -154.010803 24202.089844
1.900000 7.800000 2.016667 186.732010 59.953346 38463.246094
1.900000 7.900000 1.983333 288.942413 -603.803345 448066.187500
1.900000 7.900000 1.991667 82.461952 313.487122 105074.148438
1.900000 7.900000 2.000000 -271.494202 -219.176575 121747.468750
1.900000 7.900000 2.008333 -90.891670 -236.754364 64313.925781
1.900000 7.900000 2.016667 141.811035 -535.574890 306950.843750
1.900000 8.000000 1.983333 956.801758 210.627777 959833.687500
1.900000 8.000000 1.991667 -322.813141 126.341629 120170.531250
1.900000 8.000000 2.000000 273.706512 -300.909698 165461.906250
1.900000 8.000000 2.008333 249.771744 -311.567200 159460.046875
1.900000 8.000000 2.016667 993.423340 96.971886 996293.500000
1.900000 8.100000 1.983333 61.568451 571.778748 330721.625000
1.900000 8.100000 1.991667 -97.957512 -41.128494 11287.226562
1.900000 8.100000 2.000000 92.158226 137.924194 27516.222656
1.900000 8.100000 2.008333 198.262695 82.223457 46068.792969
1.900000 8.100000 2.016667 32.435093 583.953125 342053.281250
1.900000 8.200000 1.983333 82.121597 129.422897 23494.244141
1.900000 8.200000 1.991667 -197.447083 42.047146 40753.312500
1.900000 8.200000 2.000000 -22.319912 -118.595230 14563.006836
1.900000 8.200000 2.008333 -8.172960 -71.377411 5161.532227
1.900000 8.200000 2.016667 114.537430 -33.087627 14213.614258
2.000000 7.800000 1.983333 -61.237076 -82.095154 10489.593750
2.000000 7.800000 1.991667 162.274521 -55.172394 29377.011719
2.000000 7.800000 2.000000 -60.975159 77.383820 9706.225586
2.000000 7.800000 2.008333 62.526276 -153.044724 27332.222656
2.000000 7.800000 2.016667 126.209785 104.385208 26825.181641
2.000000 7.900000 1.983333 1079.865356 235.576569 1221605.625000
2.000000 7.900000 1.991667 -350.707764 189.512680 158911.000000
2.000000 7.900000 2.000000 295.104431 -425.799377 268391.750000
2.000000 7.900000 2.008333 383.916046 -293.615631 233601.671875
2.000000 7.900000 2.016667 1032.094849 110.731766 1077481.250000
2.000000 8.000000 1.983333 -154.912155 1596.478760 2572742.250000
2.000000 8.000000 1.991667 -220.679657 -541.650635 342084.906250
2.000000 8.000000 2.000000 620.505005 454.449890 591551.187500
2.000000 8.000000 2.008333 534.553528 306.062531 379421.750000
2.000000 8.000000 2.016667 225.002518 1659.099365 2803237.000000
2.000000 8.100000 1.983333 -933.466675 115.529022 884707.000000
2.000000 8.100000 1.991667 265.103638 -124.655357 85818.898438
2.000000 8.100000 2.000000 -300.274078 348.956909 211935.437500
2.000000 8.100000 2.008333 -62.923767 303.253754 95922.234375
2.000000 8.100000 2.016667 -1016.908264 305.864838 1127655.750000
2.000000 8.200000 1.983333 -108.808426 97.896606 21423.019531
2.000000 8.200000 1.991667 -73.250366 -77.308632 11342.240234
2.000000 8.200000 2.000000 52.901382 -99.997711 12798.097656
2.000000 8.200000 2.008333 88.558754 5.426331 7872.097656
2.000000 8.200000 2.016667 62.479881 -13.030472 4073.528809
2.100000 7.800000 1.983333 38.586849 -97.048164 10907.291992
2.100000 7.800000 1.991667 129.086014 15.752296 16911.333984
2.100000 7.800000 2.000000 -35.535217 90.697563 9488.799805
2.100000 7.800000 2.008333 61.621086 -85.488609 11105.460938
2.100000 7.800000 2.016667 89.975418 178.328308 39896.562500
2.100000 7.900000 1.983333 -48.900940 833.166382 696557.562500
2.100000 7.900000 1.991667 -152.904694 -165.137817 50650.343750
2.100000 7.900000 2.000000 217.994095 198.371887 86872.828125
2.100000 7.900000 2.008333 263.742493 179.342529 101723.843750
2.100000 7.900000 2.016667 -18.816866 782.891479 613273.125000
2.100000 8.000000 1.983333 -1187.662598 5.575607 1410573.625000
2.100000 8.000000 1.991667 322.310486 -277.904053 181114.718750
2.100000 8.000000 2.000000 -250.306549 424.484192 242840.187500
2.100000 8.000000 2.008333 -139.496796 324.328735 124648.484375
2.100000 8.000000 2.016667 -1027.841187 292.856140 1142222.250000
2.100000 8.100000 1.983333 -86.540924 -669.371704 455547.812500
2.100000 8.100000 1.991667 191.373642 186.148941 71275.296875
2.100000 8.100000 2.000000 -256.953918 -131.314697 83268.859375
2.100000 8.100000 2.008333 -161.121826 -24.258926 26548.738281
2.100000 8.100000 2.016667 -264.719299 -568.533691 393306.875000
2.100000 8.200000 1.983333 -47.428581 14.440535 2457.999268
2.100000 8.200000 1.991667 -15.469924 -12.371735 392.378357
2.100000 8.200000 2.000000 35.034462 45.918594 3335.930908
2.100000 8.200000 2.008333 -30.183403 38.907997 2424.870117
2.100000 8.200000 2.016667 25.553127 66.539917 5080.522949
2.200000 7.800000 1.983333 44.968342 -14.205986 2223.961670
2.200000 7.800000 1.991667 112.303680 38.346657 14082.582031
2.200000 7.800000 2.000000 -129.541809 40.289520 18404.326172
2.200000 7.800000 2.008333 118.257568 -107.314819 25501.324219
2.200000 7.800000 2.016667 -28.086855 163.384308 27483.302734
2.200000 7.900000 1.983333 -185.088089 -24.322731 34849.195312
2.200000 7.900000 1.991667 9.534576 -15.742790 338.743591
2.200000 7.900000 2.000000 -64.886948 -94.187302 13081.564453
2.200000 7.900000 2.008333 102.602997 39.637180 12098.481445
2.200000 7.900000 2.016667 -128.614532 -17.152327 16835.900391
2.200000 8.000000 1.983333 61.319550 -249.266022 65893.640625
2.200000 8.000000 1.991667 155.084457 -21.437935 24510.775391
2.200000 8.000000 2.000000 74.127426 -10.296795 5600.899414
2.200000 8.000000 2.008333 65.349922 31.525421 5264.464355
2.200000 8.000000 2.016667 64.235092 20.919464 4563.770996
2.200000 8.100000 1.983333 132.720734 85.267029 24885.259766
2.200000 8.100000 1.991667 54.302231 128.722534 19518.222656
2.200000 8.100000 2.000000 -42.060978 97.367668 11249.588867
2.200000 8.100000 2.008333 11.066486 49.372612 2560.121826
2.200000 8.100000 2.016667 -73.554474 120.515701 19934.294922
2.200000 8.200000 1.983333 -89.552780 25.504187 8670.164062
2.200000 8.200000 1.991667 -26.660212 6.283247 750.246094
2.200000 8.200000 2.000000 -110.642700 -36.137665 13547.737305
2.200000 8.200000 2.008333 25.629147 -52.397606 3402.362305
2.200000 8.200000 2.016667 -71.691467 -15.983440 5395.136719
