#kx 	ky 	kz 	real 	imag 	intensity
3.800000 1.800000 5.800000 -22.699568 1.878737 518.800049
3.800000 1.800000 5.840000 -21.210154 -4.691113 471.877136
3.800000 1.800000 5.880000 -17.561977 -10.863910 426.447571
3.800000 1.800000 5.920000 -11.038467 -15.953005 376.346130
3.800000 1.800000 5.960000 -1.590958 -17.802282 319.452423
3.800000 1.800000 6.000000 8.508196 -14.133492 272.145020
3.800000 1.800000 6.040000 15.236443 -5.093072 258.088562
3.800000 1.800000 6.080000 15.703550 5.936039 281.838043
3.800000 1.800000 6.120000 10.497091 14.570346 322.483917
3.800000 1.800000 6.160000 2.884665 18.672436 356.981140
3.800000 1.800000 6.200000 -4.373354 19.138954 385.425781
3.800000 1.840000 5.800000 -19.389050 -14.000637 571.953064
3.800000 1.840000 5.840000 -15.028830 -15.471413 465.230347
3.800000 1.840000 5.880000 -11.064379 -17.102591 414.919067
3.800000 1.840000 5.920000 -5.405350 -17.888256 349.207520
3.800000 1.840000 5.960000 0.931781 -15.089557 228.562927
3.800000 1.840000 6.000000 4.130934 -8.697740 92.715286
3.800000 1.840000 6.040000 2.142735 -2.776461 12.300045
3.800000 1.840000 6.080000 -2.089949 -1.409326 6.354084
3.800000 1.840000 6.120000 -3.303879 -3.685765 24.500481
3.800000 1.840000 6.160000 -0.114727 -4.104317 16.858578
3.800000 1.840000 6.200000 2.487888 1.146601 7.504282
3.800000 1.880000 5.800000 -5.108851 -24.540838 628.353088
3.800000 1.880000 5.840000 -1.839603 -20.615858 428.397766
3.800000 1.880000 5.880000 -0.364832 -18.496170 342.241425
3.800000 1.880000 5.920000 1.335587 -16.418306 271.344574
3.800000 1.880000 5.960000 1.362488 -13.225735 176.776428
3.800000 1.880000 6.000000 -1.890596 -11.930240 145.904968
3.800000 1.880000 6.040000 -4.854431 -16.211170 286.367523
3.800000 1.880000 6.080000 -0.883991 -23.810493 567.721008
3.800000 1.880000 6.120000 11.540525 -25.852242 801.522095
3.800000 1.880000 6.160000 24.019405 -15.184643 807.505188
3.800000 1.880000 6.200000 24.126614 4.296356 600.552185
3.800000 1.920000 5.800000 13.554226 -22.255394 679.019592
3.800000 1.920000 5.840000 12.564203 -15.077168 385.180237
3.800000 1.920000 5.880000 9.574156 -11.798237 230.862854
3.800000 1.920000 5.920000 6.141219 -10.848509 155.404709
3.800000 1.920000 5.960000 1.892280 -13.039701 173.614502
3.800000 1.920000 6.000000 -0.088604 -20.788208 432.157440
3.800000 1.920000 6.040000 6.843742 -31.579983 1044.132080
3.800000 1.920000 6.080000 24.970982 -35.293011 1869.146484
3.800000 1.920000 6.120000 45.032982 -21.917944 2508.365723
3.800000 1.920000 6.160000 50.459900 6.373745 2586.825928
3.800000 1.920000 6.200000 32.001816 32.496841 2080.160889
3.800000 1.960000 5.800000 25.596653 -7.141201 706.185425
3.800000 1.960000 5.840000 19.146812 -0.296668 366.688446
3.800000 1.960000 5.880000 11.886934 0.466168 141.516525
3.800000 1.960000 5.920000 5.974195 -3.747568 49.735264
3.800000 1.960000 5.960000 4.095411 -13.127422 189.101624
3.800000 1.960000 6.000000 11.614277 -24.997669 759.774902
3.800000 1.960000 6.040000 31.100140 -29.910381 1861.849609
3.800000 1.960000 6.080000 54.452652 -16.787382 3246.907471
3.800000 1.960000 6.120000 64.093895 14.852812 4328.633301
3.800000 1.960000 6.160000 46.662998 48.656799 4544.919434
3.800000 1.960000 6.200000 7.597602 61.162945 3798.629395
3.800000 2.000000 5.800000 23.483185 12.029989 696.180603
3.800000 2.000000 5.840000 12.800168 14.915695 386.322266
3.800000 2.000000 5.880000 4.212911 10.288086 123.593323
3.800000 2.000000 5.920000 1.211632 0.291643 1.553107
3.800000 2.000000 5.960000 7.582989 -11.472988 189.131180
3.800000 2.000000 6.000000 25.103504 -16.969231 918.140747
3.800000 2.000000 6.040000 47.350552 -6.143074 2279.812012
3.800000 2.000000 6.080000 58.632576 23.327244 3981.939453
3.800000 2.000000 6.120000 44.302834 58.275532 5358.778809
3.800000 2.000000 6.160000 5.524474 75.572357 5741.701172
3.800000 2.000000 6.200000 -36.667027 59.978928 4941.942383
3.800000 2.040000 5.800000 9.073368 23.826248 650.016113
3.800000 2.040000 5.840000 -2.596691 20.563030 429.581024
3.800000 2.040000 5.880000 -8.005329 10.504620 174.432327
3.800000 2.040000 5.920000 -3.796008 -1.189646 15.824935
3.800000 2.040000 5.960000 10.441706 -7.131751 159.891098
3.800000 2.040000 6.000000 29.044720 0.725187 844.121643
3.800000 2.040000 6.040000 39.306118 24.711494 2155.628906
3.800000 2.040000 6.080000 28.282286 55.005539 3825.497070
3.800000 2.040000 6.120000 -5.285634 72.126579 5230.181641
3.800000 2.040000 6.160000 -45.225132 60.545238 5711.038574
3.800000 2.040000 6.200000 -66.990471 23.024033 5017.829102
3.800000 2.080000 5.800000 -8.113726 22.690014 580.669250
3.800000 2.080000 5.840000 -16.795750 13.540607 465.445251
3.800000 2.080000 5.880000 -15.587883 1.359759 244.831039
3.800000 2.080000 5.920000 -4.504665 -5.771480 53.601990
3.800000 2.080000 5.960000 10.505857 -0.901392 111.185532
3.800000 2.080000 6.000000 18.663374 17.168177 643.067810
3.800000 2.080000 6.040000 9.913571 40.262543 1719.351318
3.800000 2.080000 6.080000 -16.720024 53.144802 3103.929199
3.800000 2.080000 6.120000 -48.953789 43.336067 4274.488281
3.800000 2.080000 6.160000 -67.362640 12.017571 4682.146973
3.800000 2.080000 6.200000 -59.340244 -24.133450 4103.687988
3.800000 2.120000 5.800000 -18.860268 12.198872 504.522156
3.800000 2.120000 5.840000 -21.616053 -0.232190 467.307648
3.800000 2.120000 5.880000 -13.631526 -9.711085 280.123657
3.800000 2.120000 5.920000 -0.700725 -8.336798 69.993210
3.800000 2.120000 5.960000 6.539979 4.888428 66.668045
3.800000 2.120000 6.000000 -0.479357 21.884739 479.171600
3.800000 2.120000 6.040000 -21.263329 29.657700 1331.708252
3.800000 2.120000 6.080000 -44.747337 19.272800 2373.765137
3.800000 2.120000 6.120000 -55.851055 -6.587456 3162.734863
3.800000 2.120000 6.160000 -46.329227 -34.083523 3308.083740
3.800000 2.120000 6.200000 -21.445303 -47.556648 2721.535889
3.800000 2.160000 5.800000 -20.932117 0.286412 438.235565
3.800000 2.160000 5.840000 -17.042065 -11.827769 430.328125
3.800000 2.160000 5.880000 -5.356962 -15.172050 258.888123
3.800000 2.160000 5.920000 3.311093 -6.379701 51.663918
3.800000 2.160000 5.960000 -0.742099 7.169745 51.955959
3.800000 2.160000 6.000000 -17.178398 12.402817 448.927216
3.800000 2.160000 6.040000 -34.569160 1.353124 1196.857788
3.800000 2.160000 6.080000 -39.004086 -21.411745 1979.781494
3.800000 2.160000 6.120000 -25.501827 -41.645985 2384.731201
3.800000 2.160000 6.160000 -2.348741 -46.601372 2177.204346
3.800000 2.160000 6.200000 15.555433 -35.058922 1471.099609
3.800000 2.200000 5.800000 -18.426262 -8.353335 409.305359
3.800000 2.200000 5.840000 -9.175763 -17.229092 381.036255
3.800000 2.200000 5.880000 2.157681 -14.061657 202.385788
3.800000 2.200000 5.920000 3.539304 -2.674339 19.678761
3.800000 2.200000 5.960000 -8.164747 3.741643 80.662994
3.800000 2.200000 6.000000 -22.635918 -5.080761 538.198914
3.800000 2.200000 6.040000 -24.690481 -25.669117 1268.523438
3.800000 2.200000 6.080000 -8.634416 -42.580730 1887.671753
3.800000 2.200000 6.120000 15.484353 -41.947197 1999.332520
3.800000 2.200000 6.160000 30.211439 -24.280273 1502.262695
3.800000 2.200000 6.200000 26.089664 -4.279847 698.987671
3.840000 1.800000 5.800000 -29.681110 -3.329545 892.054199
3.840000 1.800000 5.840000 -24.029993 -12.264512 727.858826
3.840000 1.800000 5.880000 -15.239867 -17.259304 530.137146
3.840000 1.800000 5.920000 -5.785649 -17.898914 353.844849
3.840000 1.800000 5.960000 2.713568 -14.874324 228.608963
3.840000 1.800000 6.000000 9.338876 -8.800108 164.656494
3.840000 1.800000 6.040000 12.941083 -0.176317 167.502716
3.840000 1.800000 6.080000 12.048411 9.633396 237.966537
3.840000 1.800000 6.120000 6.029896 17.948071 358.492889
3.840000 1.800000 6.160000 -3.708313 21.789682 488.541840
3.840000 1.800000 6.200000 -13.943401 19.605715 578.802490
3.840000 1.840000 5.800000 -16.634014 -22.332001 775.408691
3.840000 1.840000 5.840000 -4.389730 -22.181870 511.305084
3.840000 1.840000 5.880000 4.798455 -14.656069 237.825531
3.840000 1.840000 5.920000 6.339434 -3.893969 55.351410
3.840000 1.840000 5.960000 0.375095 3.402657 11.718768
3.840000 1.840000 6.000000 -7.538019 2.964741 65.611420
3.840000 1.840000 6.040000 -10.524969 -3.293879 121.624603
3.840000 1.840000 6.080000 -6.156742 -8.575121 111.438171
3.840000 1.840000 6.120000 1.228653 -6.994341 50.430389
3.840000 1.840000 6.160000 4.147931 1.078913 18.369385
3.840000 1.840000 6.200000 -1.387389 8.983274 82.624069
3.840000 1.880000 5.800000 7.789650 -25.900734 731.526672
3.840000 1.880000 5.840000 18.780499 -12.318852 504.461243
3.840000 1.880000 5.880000 17.065964 6.808212 337.598877
3.840000 1.880000 5.920000 0.516615 19.454592 378.748016
3.840000 1.880000 5.960000 -21.460617 14.668761 675.730652
3.840000 1.880000 6.000000 -32.510117 -6.892338 1104.411987
3.840000 1.880000 6.040000 -22.222233 -30.616079 1431.171875
3.840000 1.880000 6.080000 3.749317 -38.215279 1474.464844
3.840000 1.880000 6.120000 26.647165 -22.916378 1235.231812
3.840000 1.880000 6.160000 29.490486 4.093555 886.445984
3.840000 1.880000 6.200000 11.143297 22.541874 632.309143
3.840000 1.920000 5.800000 27.307224 -9.312321 832.403809
3.840000 1.920000 5.840000 26.572392 14.451943 914.950684
3.840000 1.920000 5.880000 6.000002 33.688869 1170.939941
3.840000 1.920000 5.920000 -26.620264 31.356487 1691.867798
3.840000 1.920000 5.960000 -49.399986 1.959482 2444.198242
3.840000 1.920000 6.000000 -41.766899 -38.600636 3234.482910
3.840000 1.920000 6.040000 -3.607792 -61.454502 3789.671875
3.840000 1.920000 6.080000 40.601654 -47.507778 3905.483398
3.840000 1.920000 6.120000 59.475060 -4.882710 3561.123535
3.840000 1.920000 6.160000 40.235096 36.051651 2918.584473
3.840000 1.920000 6.200000 -0.762735 47.086079 2217.680664
3.840000 1.960000 5.800000 27.321360 16.686230 1024.886963
3.840000 1.960000 5.840000 9.485997 39.209324 1627.355225
3.840000 1.960000 5.880000 -25.538271 43.058720 2506.256592
3.840000 1.960000 5.920000 -57.455261 15.847480 3552.249512
3.840000 1.960000 5.960000 -59.279121 -32.489254 4569.565918
3.840000 1.960000 6.000000 -20.786650 -70.295509 5373.543457
3.840000 1.960000 6.040000 37.210548 -66.903061 5860.644531
3.840000 1.960000 6.080000 74.863266 -19.765636 5995.188965
3.840000 1.960000 6.120000 64.615387 39.774445 5757.154785
3.840000 1.960000 6.160000 14.716585 70.152084 5137.892578
3.840000 1.960000 6.200000 -37.217781 53.042290 4198.647949
3.840000 2.000000 5.800000 7.554186 33.399807 1172.612793
3.840000 2.000000 5.840000 -21.945345 42.010094 2246.446289
3.840000 2.000000 5.880000 -55.320084 23.462864 3610.817871
3.840000 2.000000 5.920000 -66.810333 -20.863781 4898.917969
3.840000 2.000000 5.960000 -38.379143 -65.520416 5765.883301
3.840000 2.000000 6.000000 19.704729 -75.888092 6147.278809
3.840000 2.000000 6.040000 69.944946 -37.207458 6276.690430
3.840000 2.000000 6.080000 74.923508 28.350597 6417.288574
3.840000 2.000000 6.120000 29.049147 75.606491 6560.194336
3.840000 2.000000 6.160000 -34.707161 72.083633 6400.637207
3.840000 2.000000 6.200000 -71.053223 24.301674 5639.131836
3.840000 2.040000 5.800000 -17.258875 29.452469 1165.316650
3.840000 2.040000 5.840000 -44.767323 19.774368 2395.138672
3.840000 2.040000 5.880000 -60.285545 -12.843294 3799.297119
3.840000 2.040000 5.920000 -45.057060 -53.220570 4862.567383
3.840000 2.040000 5.960000 0.828478 -72.265457 5222.982910
3.840000 2.040000 6.000000 50.906857 -49.118439 5004.128906
3.840000 2.040000 6.040000 68.578506 7.365656 4757.264648
3.840000 2.040000 6.080000 37.019093 60.094521 4981.764648
3.840000 2.040000 6.120000 -23.824219 71.239204 5642.617676
3.840000 2.040000 6.160000 -70.952438 33.391891 6149.267090
3.840000 2.040000 6.200000 -72.649414 -23.967419 5852.374512
3.840000 2.080000 5.800000 -29.951813 9.805155 993.252136
3.840000 2.080000 5.840000 -43.382446 -10.686760 1996.243408
3.840000 2.080000 5.880000 -37.391819 -39.735710 2977.074707
3.840000 2.080000 5.920000 -8.049255 -58.435616 3479.511719
3.840000 2.080000 5.960000 30.266649 -48.725849 3290.278564
3.840000 2.080000 6.000000 50.894913 -10.361475 2697.652344
3.840000 2.080000 6.040000 35.019287 33.538692 2351.194336
3.840000 2.080000 6.080000 -10.337284 51.402008 2749.025879
3.840000 2.080000 6.120000 -54.383507 28.545107 3772.389160
3.840000 2.080000 6.160000 -65.855331 -19.302713 4709.519531
3.840000 2.080000 6.200000 -38.205139 -57.790775 4799.406250
3.840000 2.120000 5.800000 -25.106476 -9.964244 729.621277
3.840000 2.120000 5.840000 -22.589384 -28.029831 1295.951660
3.840000 2.120000 5.880000 -5.980897 -40.523151 1677.896973
3.840000 2.120000 5.920000 16.929958 -36.822304 1642.505615
3.840000 2.120000 5.960000 30.982506 -15.582027 1202.715210
3.840000 2.120000 6.000000 23.882385 11.085215 693.250305
3.840000 2.120000 6.040000 -2.712444 24.112999 588.794067
3.840000 2.120000 6.080000 -31.646563 11.856753 1142.087524
3.840000 2.120000 6.120000 -41.949181 -19.242609 2130.011719
3.840000 2.120000 6.160000 -25.377392 -48.070133 2954.749756
3.840000 2.120000 6.200000 6.446148 -54.991005 3065.563477
3.840000 2.160000 5.800000 -11.550567 -18.200859 464.686859
3.840000 2.160000 5.840000 -1.216910 -25.191074 636.071106
3.840000 2.160000 5.880000 10.903566 -21.859451 596.723389
3.840000 2.160000 5.920000 15.867157 -10.283741 357.522003
3.840000 2.160000 5.960000 9.383609 0.945419 88.945930
3.840000 2.160000 6.000000 -4.492674 2.605785 26.974236
3.840000 2.160000 6.040000 -15.624897 -8.208708 311.520294
3.840000 2.160000 6.080000 -14.941570 -25.351606 865.954468
3.840000 2.160000 6.120000 -1.305306 -37.615387 1416.621216
3.840000 2.160000 6.160000 17.309319 -36.845814 1657.226562
3.840000 2.160000 6.200000 29.604582 -23.986275 1451.772705
3.840000 2.200000 5.800000 -1.700971 -16.250355 266.967346
3.840000 2.200000 5.840000 6.700547 -13.276706 221.168243
3.840000 2.200000 5.880000 7.491601 -4.864981 79.792122
3.840000 2.200000 5.920000 -0.846950 -0.655762 1.147347
3.840000 2.200000 5.960000 -10.495011 -7.477341 166.055893
3.840000 2.200000 6.000000 -10.801136 -22.345781 615.998474
3.840000 2.200000 6.040000 1.986816 -34.225815 1175.353760
3.840000 2.200000 6.080000 20.801098 -33.297840 1541.431885
3.840000 2.200000 6.120000 33.375763 -19.475086 1493.220459
3.840000 2.200000 6.160000 32.387360 -2.466341 1055.023926
3.840000 2.200000 6.200000 21.146311 6.412325 488.284393
3.880000 1.800000 5.800000 -31.608322 -16.669638 1276.962891
3.880000 1.800000 5.840000 -19.997309 -23.897896 971.001831
3.880000 1.800000 5.880000 -7.711412 -23.638012 618.221497
3.880000 1.800000 5.920000 0.917019 -18.514101 343.612854
3.880000 1.800000 5.960000 5.617012 -12.429582 186.045334
3.880000 1.800000 6.000000 8.603769 -6.681561 118.668098
3.880000 1.800000 6.040000 10.670814 0.185932 113.900833
3.880000 1.800000 6.080000 9.655510 8.946175 173.262909
3.880000 1.800000 6.120000 3.118582 16.931911 296.415192
3.880000 1.800000 6.160000 -7.836639 19.441372 439.379883
3.880000 1.800000 6.200000 -18.034695 14.072631 523.289185
3.880000 1.840000 5.800000 -6.182602 -29.779789 925.060364
3.880000 1.840000 5.840000 10.877127 -19.283749 490.174866
3.880000 1.840000 5.880000 14.382607 0.989788 207.839050
3.880000 1.840000 5.920000 0.919044 16.094187 259.867493
3.880000 1.840000 5.960000 -18.531042 14.072742 541.441650
3.880000 1.840000 6.000000 -27.445951 -2.687160 760.501099
3.880000 1.840000 6.040000 -18.557755 -19.054565 707.466736
3.880000 1.840000 6.080000 -0.364822 -20.807426 433.082092
3.880000 1.840000 6.120000 11.011345 -7.306540 174.635239
3.880000 1.840000 6.160000 6.645289 8.761806 120.929123
3.880000 1.840000 6.200000 -7.912445 13.746725 251.579254
3.880000 1.880000 5.800000 21.629969 -17.600178 777.621826
3.880000 1.880000 5.840000 27.486824 13.611705 940.804016
3.880000 1.880000 5.880000 3.647427 42.655952 1832.833984
3.880000 1.880000 5.920000 -39.004059 43.027405 3372.674316
3.880000 1.880000 5.960000 -69.336807 7.597263 4865.311035
3.880000 1.880000 6.000000 -61.576740 -40.873131 5462.307617
3.880000 1.880000 6.040000 -19.229420 -66.688507 4817.127441
3.880000 1.880000 6.080000 26.318531 -51.584454 3353.620850
3.880000 1.880000 6.120000 42.480896 -10.178427 1908.226807
3.880000 1.880000 6.160000 22.623138 23.951208 1085.466797
3.880000 1.880000 6.200000 -11.033224 27.829548 896.215820
3.880000 1.920000 5.800000 29.332298 12.956873 1028.264282
3.880000 1.920000 5.840000 8.339565 51.566948 2728.698486
3.880000 1.920000 5.880000 -45.506607 63.163559 6060.486328
3.880000 1.920000 5.920000 -97.917404 24.435841 10184.928711
3.880000 1.920000 5.960000 -104.828140 -48.329494 13324.679688
3.880000 1.920000 6.000000 -52.253632 -105.785156 13920.941406
3.880000 1.920000 6.040000 26.657234 -105.189804 11775.502930
3.880000 1.920000 6.080000 76.728821 -47.840782 8176.052734
3.880000 1.920000 6.120000 66.698151 21.513493 4911.473633
3.880000 1.920000 6.160000 13.733641 53.359489 3035.847900
3.880000 1.920000 6.200000 -35.209438 34.012833 2396.577393
3.880000 1.960000 5.800000 9.085806 38.178356 1540.138794
3.880000 1.960000 5.840000 -38.365284 60.767540 5164.588867
3.880000 1.960000 5.880000 -100.493050 34.137527 11264.223633
3.880000 1.960000 5.920000 -127.067001 -42.667530 17966.541016
3.880000 1.960000 5.960000 -83.727890 -123.755402 22325.757812
3.880000 1.960000 6.000000 11.299568 -148.840698 22281.232422
3.880000 1.960000 6.040000 95.221420 -95.237198 18137.242188
3.880000 1.960000 6.080000 110.905930 -0.617538 12300.506836
3.880000 1.960000 6.120000 54.595058 67.186249 7494.612305
3.880000 1.960000 6.160000 -23.144464 66.673302 4980.995117
3.880000 1.960000 6.200000 -63.203369 13.670070 4181.536621
3.880000 2.000000 5.800000 -23.807941 37.316185 1959.315674
3.880000 2.000000 5.840000 -77.903305 28.187290 6863.448242
3.880000 2.000000 5.880000 -116.140533 -32.175610 14523.892578
3.880000 2.000000 5.920000 -94.192688 -115.902008 22305.539062
3.880000 2.000000 5.960000 -8.014446 -163.114304 26670.505859
3.880000 2.000000 6.000000 92.044785 -130.817123 25585.361328
3.880000 2.000000 6.040000 137.203125 -34.375298 20006.359375
3.880000 2.000000 6.080000 97.540649 60.160172 13133.424805
3.880000 2.000000 6.120000 7.924166 89.496445 8072.406250
3.880000 2.000000 6.160000 -62.389202 44.445805 5867.842285
3.880000 2.000000 6.200000 -68.307777 -27.305441 5411.539551
3.880000 2.040000 5.800000 -43.439384 10.945496 2006.783936
3.880000 2.040000 5.840000 -78.835571 -24.257889 6803.492676
3.880000 2.040000 5.880000 -76.330582 -89.578079 13850.589844
3.880000 2.040000 5.920000 -16.801016 -142.146759 20487.974609
3.880000 2.040000 5.960000 73.179794 -134.942627 23564.792969
3.880000 2.040000 6.000000 134.281433 -60.127613 21646.833984
3.880000 2.040000 6.040000 121.461754 36.853783 16111.159180
3.880000 2.040000 6.080000 43.965408 90.513542 10125.658203
3.880000 2.040000 6.120000 -40.265350 68.748695 6347.681641
3.880000 2.040000 6.160000 -72.573425 -1.860267 5270.362305
3.880000 2.040000 6.200000 -40.587952 -61.693554 5453.476562
3.880000 2.080000 5.800000 -35.803951 -19.818369 1674.690674
3.880000 2.080000 5.840000 -41.383553 -58.229691 5103.294922
3.880000 2.080000 5.880000 -10.202250 -98.216003 9750.469727
3.880000 2.080000 5.920000 50.889503 -105.358559 13690.166992
3.880000 2.080000 5.960000 105.437477 -61.810753 14937.630859
3.880000 2.080000 6.000000 112.891563 12.418076 12898.713867
3.880000 2.080000 6.040000 63.572468 69.657562 8893.634766
3.880000 2.080000 6.080000 -9.395813 71.622986 5218.133301
3.880000 2.080000 6.120000 -55.021599 21.404980 3485.549316
3.880000 2.080000 6.160000 -45.632828 -39.245014 3622.526123
3.880000 2.080000 6.200000 2.411486 -65.400543 4283.046387
3.880000 2.120000 5.800000 -9.999097 -32.669487 1167.277344
3.880000 2.120000 5.840000 3.649036 -53.036488 2826.184326
3.880000 2.120000 5.880000 34.209969 -59.651722 4728.649902
3.880000 2.120000 5.920000 66.095009 -40.258286 5989.279785
3.880000 2.120000 5.960000 76.814415 0.221317 5900.503418
3.880000 2.120000 6.000000 54.667240 38.761292 4490.944824
3.880000 2.120000 6.040000 11.083611 49.733330 2596.250488
3.880000 2.120000 6.080000 -25.336172 25.664183 1300.571899
3.880000 2.120000 6.120000 -30.481215 -15.216867 1160.657471
3.880000 2.120000 6.160000 -3.992487 -42.810181 1848.651489
3.880000 2.120000 6.200000 31.078638 -39.185410 2501.378174
3.880000 2.160000 5.800000 12.148276 -23.327305 691.743774
3.880000 2.160000 5.840000 24.179947 -22.114126 1073.704468
3.880000 2.160000 5.880000 33.157074 -12.361109 1252.188599
3.880000 2.160000 5.920000 33.683941 1.534992 1136.964111
3.880000 2.160000 5.960000 24.886906 12.542797 776.679871
3.880000 2.160000 6.000000 11.123985 14.731697 340.765961
3.880000 2.160000 6.040000 0.024887 6.805473 46.315086
3.880000 2.160000 6.080000 -1.752468 -6.492001 45.217216
3.880000 2.160000 6.120000 6.996468 -16.656879 326.402191
3.880000 2.160000 6.160000 20.571608 -16.837641 706.697144
3.880000 2.160000 6.200000 29.866592 -6.839060 938.786133
3.880000 2.200000 5.800000 17.026863 -6.483327 331.947601
3.880000 2.200000 5.840000 15.102493 3.272671 238.795670
3.880000 2.200000 5.880000 4.792946 6.581963 66.294563
3.880000 2.200000 5.920000 -4.181271 -1.458702 19.610836
3.880000 2.200000 5.960000 -2.216553 -14.881742 226.379364
3.880000 2.200000 6.000000 10.819973 -22.101170 605.533508
3.880000 2.200000 6.040000 25.318979 -16.636726 917.831421
3.880000 2.200000 6.080000 30.812958 -2.722683 956.851379
3.880000 2.200000 6.120000 25.057833 9.178559 712.140930
3.880000 2.200000 6.160000 14.889245 11.987843 365.398010
3.880000 2.200000 6.200000 8.944939 7.306683 133.399536
3.920000 1.800000 5.800000 -21.327105 -29.941589 1351.344238
3.920000 1.800000 5.840000 -6.567978 -30.632698 981.500488
3.920000 1.800000 5.880000 3.978771 -23.730026 578.944763
3.920000 1.800000 5.920000 7.832554 -15.413591 298.927704
3.920000 1.800000 5.960000 8.446697 -10.024651 171.840317
3.920000 1.800000 6.000000 10.109561 -6.285538 141.711212
3.920000 1.800000 6.040000 12.570219 -0.185303 158.044739
3.920000 1.800000 6.080000 11.409477 9.083771 212.691071
3.920000 1.800000 6.120000 3.609299 16.958677 300.623779
3.920000 1.800000 6.160000 -7.970969 17.701603 376.883087
3.920000 1.800000 6.200000 -16.350231 10.419603 375.898193
3.920000 1.840000 5.800000 9.312023 -27.448368 840.126709
3.920000 1.840000 5.840000 19.956978 -4.054611 414.720856
3.920000 1.840000 5.880000 6.881153 20.248785 457.363586
3.920000 1.840000 5.920000 -21.610596 24.108650 1048.244873
3.920000 1.840000 5.960000 -41.753830 2.515877 1749.711914
3.920000 1.840000 6.000000 -35.713291 -26.884621 1998.222046
3.920000 1.840000 6.040000 -8.411526 -39.282719 1613.885742
3.920000 1.840000 6.080000 17.061317 -25.244282 928.362305
3.920000 1.840000 6.120000 20.894444 1.589607 439.104614
3.920000 1.840000 6.160000 3.739148 18.521439 357.024933
3.920000 1.840000 6.200000 -16.377384 14.829145 488.122253
3.920000 1.880000 5.800000 26.327702 0.515577 693.413696
3.920000 1.880000 5.840000 10.225540 40.918610 1778.894287
3.920000 1.880000 5.880000 -40.897106 55.820198 4788.467773
3.920000 1.880000 5.920000 -91.861404 20.964737 8878.038086
3.920000 1.880000 5.960000 -98.929047 -46.621037 11960.476562
3.920000 1.880000 6.000000 -50.378899 -98.431763 12226.844727
3.920000 1.880000 6.040000 19.969990 -95.825790 9581.382812
3.920000 1.880000 6.080000 61.208920 -44.060337 5687.845215
3.920000 1.880000 6.120000 49.216354 13.691689 2609.711914
3.920000 1.880000 6.160000 4.497440 35.835594 1304.416748
3.920000 1.880000 6.200000 -31.053179 16.844254 1248.028809
3.920000 1.920000 5.800000 12.547211 32.167858 1192.203613
3.920000 1.920000 5.840000 -40.245018 62.787251 5561.900391
3.920000 1.920000 5.880000 -113.493256 35.148384 14116.127930
3.920000 1.920000 5.920000 -146.086578 -52.422890 24089.449219
3.920000 1.920000 5.960000 -97.910408 -145.036682 30622.085938
3.920000 1.920000 6.000000 7.947708 -173.457626 30150.714844
3.920000 1.920000 6.040000 99.303391 -115.092987 23107.558594
3.920000 1.920000 6.080000 115.435791 -15.234280 13557.504883
3.920000 1.920000 6.120000 57.705368 52.745110 6111.956055
3.920000 1.920000 6.160000 -16.843801 50.291687 2812.967285
3.920000 1.920000 6.200000 -49.975777 0.573245 2497.906982
3.920000 1.960000 5.800000 -23.070356 39.453510 2088.820801
3.920000 1.960000 5.840000 -95.688393 32.602673 10219.203125
3.920000 1.960000 5.880000 -150.082397 -46.029198 24643.414062
3.920000 1.960000 5.920000 -123.569855 -158.477219 40384.539062
3.920000 1.960000 5.960000 -10.853931 -222.929840 49815.523438
3.920000 1.960000 6.000000 119.782455 -183.207672 47912.886719
3.920000 1.960000 6.040000 179.226257 -62.169735 35987.125000
3.920000 1.960000 6.080000 133.086121 54.411938 20672.574219
3.920000 1.960000 6.120000 29.143085 90.580551 9054.155273
3.920000 1.960000 6.160000 -48.394524 41.553505 4068.723633
3.920000 1.960000 6.200000 -52.381348 -31.909998 3762.053711
3.920000 2.000000 5.800000 -51.152626 13.695354 2804.153809
3.920000 2.000000 5.840000 -109.035965 -34.973740 13112.003906
3.920000 2.000000 5.880000 -110.226753 -135.344727 30468.132812
3.920000 2.000000 5.920000 -21.558853 -219.389984 48596.750000
3.920000 2.000000 5.960000 116.063332 -212.592758 58666.375000
3.920000 2.000000 6.000000 211.389999 -103.266861 55349.773438
3.920000 2.000000 6.040000 198.005264 39.258217 40747.292969
3.920000 2.000000 6.080000 92.218933 119.661972 22823.320312
3.920000 2.000000 6.120000 -21.763456 95.851959 9661.246094
3.920000 2.000000 6.160000 -65.400566 9.126213 4360.521484
3.920000 2.000000 6.200000 -28.639801 -59.996437 4419.810547
3.920000 2.040000 5.800000 -47.596107 -25.384193 2909.746582
3.920000 2.040000 5.840000 -65.307236 -90.917099 12530.954102
3.920000 2.040000 5.880000 -15.229599 -166.855255 28072.617188
3.920000 2.040000 5.920000 94.374413 -186.450897 43670.468750
3.920000 2.040000 5.960000 196.977554 -113.353432 51649.156250
3.920000 2.040000 6.000000 217.858093 17.779938 47778.273438
3.920000 2.040000 6.040000 139.147751 122.585045 34389.187500
3.920000 2.040000 6.080000 18.211714 135.434372 18674.134766
3.920000 2.040000 6.120000 -60.067894 63.075333 7586.649414
3.920000 2.040000 6.160000 -53.573448 -25.810564 3536.299561
3.920000 2.040000 6.200000 8.498652 -63.252380 4073.090576
3.920000 2.080000 5.800000 -15.102722 -46.951038 2432.492188
3.920000 2.080000 5.840000 3.349968 -94.823807 9002.777344
3.920000 2.080000 5.880000 67.897545 -120.323624 19087.851562
3.920000 2.080000 5.920000 146.095520 -85.846123 28713.457031
3.920000 2.080000 5.960000 181.812775 4.379250 33075.066406
3.920000 2.080000 6.000000 141.722168 98.706871 29828.220703
3.920000 2.080000 6.040000 47.641308 136.228104 20827.789062
3.920000 2.080000 6.080000 -37.819145 96.899422 10819.786133
3.920000 2.080000 6.120000 -61.814526 17.831663 4139.003906
3.920000 2.080000 6.160000 -22.671387 -39.545532 2077.840820
3.920000 2.080000 6.200000 34.496529 -40.723358 2848.402344
3.920000 2.120000 5.800000 20.098604 -36.450165 1732.568359
3.920000 2.120000 5.840000 46.742718 -50.338768 4718.873047
3.920000 2.120000 5.880000 85.933395 -38.336830 8854.260742
3.920000 2.120000 5.920000 111.372131 5.558212 12434.645508
3.920000 2.120000 5.960000 98.973106 62.027111 13643.038086
3.920000 2.120000 6.000000 48.696133 96.993919 11779.133789
3.920000 2.120000 6.040000 -11.268883 87.640480 7807.841309
3.920000 2.120000 6.080000 -44.487469 41.860023 3731.396484
3.920000 2.120000 6.120000 -34.590111 -7.103783 1246.939453
3.920000 2.120000 6.160000 2.818359 -27.131660 744.070190
3.920000 2.120000 6.200000 34.922630 -11.718620 1356.916138
3.920000 2.160000 5.800000 32.880180 -6.929650 1129.126221
3.920000 2.160000 5.840000 41.399918 1.249184 1715.513550
3.920000 2.160000 5.880000 44.214378 15.251968 2187.533691
3.920000 2.160000 5.920000 38.280468 30.363083 2387.311035
3.920000 2.160000 5.960000 23.960747 40.708244 2231.278564
3.920000 2.160000 6.000000 5.473686 41.325531 1737.760742
3.920000 2.160000 6.040000 -9.903145 30.881695 1051.751343
3.920000 2.160000 6.080000 -15.066206 13.773254 416.693115
3.920000 2.160000 6.120000 -7.872406 -1.047392 63.071808
3.920000 2.160000 6.160000 6.260099 -5.384117 68.177559
3.920000 2.160000 6.200000 17.252068 2.142555 302.224396
3.920000 2.200000 5.800000 20.924204 15.653854 682.865479
3.920000 2.200000 5.840000 7.544065 21.431190 516.208862
3.920000 2.200000 5.880000 -5.728489 13.127548 205.148102
3.920000 2.200000 5.920000 -5.976349 -2.860302 43.898075
3.920000 2.200000 5.960000 7.705238 -11.454024 190.565369
3.920000 2.200000 6.000000 22.402557 -4.008629 517.943665
3.920000 2.200000 6.040000 23.952835 12.686325 734.681152
3.920000 2.200000 6.080000 10.999594 23.060883 652.795410
3.920000 2.200000 6.120000 -3.959099 18.245434 348.570312
3.920000 2.200000 6.160000 -7.414380 4.400023 74.333229
3.920000 2.200000 6.200000 1.935768 -4.299950 22.236765
3.960000 1.800000 5.800000 -2.940224 -31.278034 986.960327
3.960000 1.800000 5.840000 8.435505 -24.796318 686.015137
3.960000 1.800000 5.880000 12.470230 -15.187365 386.162659
3.960000 1.800000 5.920000 11.374062 -8.850182 207.694992
3.960000 1.800000 5.960000 11.002863 -6.497711 163.283249
3.960000 1.800000 6.000000 13.845085 -3.426125 203.424713
3.960000 1.800000 6.040000 16.251045 4.250340 282.161865
3.960000 1.800000 6.080000 12.774796 14.471664 372.624481
3.960000 1.800000 6.120000 2.630247 20.830229 440.816650
3.960000 1.800000 6.160000 -8.793238 19.064676 440.782898
3.960000 1.800000 6.200000 -14.906838 11.339129 350.789673
3.960000 1.840000 5.800000 18.538803 -12.907587 510.293030
3.960000 1.840000 5.840000 12.895954 14.139439 366.229370
3.960000 1.840000 5.880000 -15.613037 26.443771 943.039978
3.960000 1.840000 5.920000 -44.594040 8.920280 2068.199707
3.960000 1.840000 5.960000 -47.691833 -27.017601 3004.461670
3.960000 1.840000 6.000000 -19.801285 -51.994202 3095.487793
3.960000 1.840000 6.040000 17.198334 -45.232246 2341.738770
3.960000 1.840000 6.080000 34.289219 -13.242722 1351.120117
3.960000 1.840000 6.120000 21.196476 17.356613 750.542603
3.960000 1.840000 6.160000 -6.620031 24.901936 663.931213
3.960000 1.840000 6.200000 -25.038116 10.576729 738.774475
3.960000 1.880000 5.800000 14.410049 17.518890 514.561035
3.960000 1.880000 5.840000 -26.524691 45.213657 2747.833984
3.960000 1.880000 5.880000 -85.512306 25.266899 7950.770508
3.960000 1.880000 5.920000 -111.625320 -43.327888 14337.517578
3.960000 1.880000 5.960000 -73.071808 -114.841667 18528.097656
3.960000 1.880000 6.000000 9.387848 -134.079346 18065.402344
3.960000 1.880000 6.040000 77.278915 -85.968399 13362.595703
3.960000 1.880000 6.080000 85.029724 -9.238899 7315.411621
3.960000 1.880000 6.120000 38.055611 39.065929 2974.376465
3.960000 1.880000 6.160000 -17.124010 33.252480 1398.959106
3.960000 1.880000 6.200000 -38.208054 -4.412979 1479.329712
3.960000 1.920000 5.800000 -15.912842 31.852448 1267.796997
3.960000 1.920000 5.840000 -86.078949 28.231815 8206.621094
3.960000 1.920000 5.880000 -139.701340 -46.443810 21673.492188
3.960000 1.920000 5.920000 -114.526176 -154.220871 36900.320312
3.960000 1.920000 5.960000 -6.670677 -214.703461 46142.070312
3.960000 1.920000 6.000000 116.121964 -175.233612 44191.128906
3.960000 1.920000 6.040000 169.247040 -60.979229 32363.027344
3.960000 1.920000 6.080000 124.047287 45.247860 17435.097656
3.960000 1.920000 6.120000 29.365440 75.095787 6501.706543
3.960000 1.920000 6.160000 -36.917000 29.736502 2247.124512
3.960000 1.920000 6.200000 -36.941902 -31.953465 2385.728027
3.960000 1.960000 5.800000 -47.533161 13.177111 2433.037598
3.960000 1.960000 5.840000 -114.033455 -38.503651 14486.160156
3.960000 1.960000 5.880000 -117.213089 -150.670609 36440.539062
3.960000 1.960000 5.920000 -18.607529 -244.954254 60348.824219
3.960000 1.960000 5.960000 134.279694 -236.988159 74194.421875
3.960000 1.960000 6.000000 238.450516 -115.887665 70288.601562
3.960000 1.960000 6.040000 222.547531 38.905388 51041.031250
3.960000 1.960000 6.080000 108.849243 123.575920 27119.166016
3.960000 1.960000 6.120000 -9.225008 97.456055 9582.783203
3.960000 1.960000 6.160000 -51.127213 9.999201 2713.976074
3.960000 1.960000 6.200000 -13.484884 -53.891560 3086.142334
3.960000 2.000000 5.800000 -51.200287 -26.471027 3322.184814
3.960000 2.000000 5.840000 -78.016525 -109.501907 18077.246094
3.960000 2.000000 5.880000 -15.667601 -209.263351 44036.621094
3.960000 2.000000 5.920000 125.797134 -236.198807 71614.796875
3.960000 2.000000 5.960000 258.208374 -142.634430 87016.140625
3.960000 2.000000 6.000000 284.875854 24.555014 81757.195312
3.960000 2.000000 6.040000 185.881226 156.176422 58942.902344
3.960000 2.000000 6.080000 37.171509 171.961182 30952.369141
3.960000 2.000000 6.120000 -56.017803 85.767532 10494.064453
3.960000 2.000000 6.160000 -47.874435 -15.164370 2521.919678
3.960000 2.000000 6.200000 19.718555 -52.695995 3165.689453
3.960000 2.040000 5.800000 -20.415941 -55.153709 3458.742188
3.960000 2.040000 5.840000 1.744476 -130.001328 16903.388672
3.960000 2.040000 5.880000 98.792984 -173.683197 39925.906250
3.960000 2.040000 5.920000 220.187225 -124.005684 63859.824219
3.960000 2.040000 5.960000 276.780884 13.010494 76776.929688
3.960000 2.040000 6.000000 217.300781 156.201843 71618.640625
3.960000 2.040000 6.040000 77.557060 212.897232 51340.328125
3.960000 2.040000 6.080000 -47.003849 156.606567 26734.978516
3.960000 2.040000 6.120000 -81.492485 46.220737 8777.381836
3.960000 2.040000 6.160000 -29.883358 -29.812904 1781.824341
3.960000 2.040000 6.200000 40.186920 -29.292952 2473.065430
3.960000 2.080000 5.800000 21.875244 -49.398712 2918.759033
3.960000 2.080000 5.840000 68.032410 -85.328743 11909.402344
3.960000 2.080000 5.880000 147.674713 -70.720627 26809.226562
3.960000 2.080000 5.920000 204.328720 12.573868 41908.328125
3.960000 2.080000 5.960000 184.460968 125.348747 49738.156250
3.960000 2.080000 6.000000 87.312119 196.086914 46073.484375
3.960000 2.080000 6.040000 -28.531837 179.224884 32935.625000
3.960000 2.080000 6.080000 -91.348831 93.735161 17130.890625
3.960000 2.080000 6.120000 -74.151932 5.813370 5532.304199
3.960000 2.080000 6.160000 -11.686302 -27.793863 909.068481
3.960000 2.080000 6.200000 36.224930 -3.069412 1321.666748
3.960000 2.120000 5.800000 43.959293 -14.863838 2153.353027
3.960000 2.120000 5.840000 77.236725 -13.382229 6144.595703
3.960000 2.120000 5.880000 108.821335 21.962593 12324.438477
3.960000 2.120000 5.920000 107.755074 81.859085 18312.066406
3.960000 2.120000 5.960000 60.979897 132.330078 21229.796875
3.960000 2.120000 6.000000 -11.469162 139.325241 19543.064453
3.960000 2.120000 6.040000 -68.763214 96.777245 14094.214844
3.960000 2.120000 6.080000 -80.315643 32.786423 7525.551758
3.960000 2.120000 6.120000 -48.839767 -12.468088 2540.776123
3.960000 2.120000 6.160000 -5.482231 -17.759396 345.450989
3.960000 2.120000 6.200000 17.395588 6.114067 339.988281
3.960000 2.160000 5.800000 33.399666 20.333786 1529.000610
3.960000 2.160000 5.840000 35.866737 31.592709 2284.521973
3.960000 2.160000 5.880000 30.853981 46.202202 3086.611816
3.960000 2.160000 5.920000 16.697128 58.631584 3716.456787
3.960000 2.160000 5.960000 -4.573776 62.932793 3981.455811
3.960000 2.160000 6.000000 -27.066658 54.944279 3751.477783
3.960000 2.160000 6.040000 -42.362736 35.128510 3028.613770
3.960000 2.160000 6.080000 -43.494278 10.256050 1996.938721
3.960000 2.160000 6.120000 -30.025278 -8.824928 979.396667
3.960000 2.160000 6.160000 -9.970223 -13.593775 284.196075
3.960000 2.160000 6.200000 4.509327 -4.196020 37.940613
3.960000 2.200000 5.800000 5.678585 32.241859 1071.783813
3.960000 2.200000 5.840000 -11.265154 27.391699 877.208862
3.960000 2.200000 5.880000 -17.957989 10.152174 425.555969
3.960000 2.200000 5.920000 -7.594620 -4.304856 76.210037
3.960000 2.200000 5.960000 9.094284 -1.853611 86.141876
3.960000 2.200000 6.000000 13.640896 14.803482 405.217102
3.960000 2.200000 6.040000 -0.866339 27.496796 756.824341
3.960000 2.200000 6.080000 -21.543079 20.760021 895.082764
3.960000 2.200000 6.120000 -28.019571 -1.782379 788.273254
3.960000 2.200000 6.160000 -13.088573 -20.329252 584.589233
3.960000 2.200000 6.200000 9.727327 -18.563276 439.216125
4.000000 1.800000 5.800000 9.835119 -17.566589 405.314636
4.000000 1.800000 5.840000 13.026505 -9.480295 259.565826
4.000000 1.800000 5.880000 11.158684 -3.890640 139.653305
4.000000 1.800000 5.920000 9.585058 -2.630577 98.793282
4.000000 1.800000 5.960000 11.813534 -1.704819 142.465988
4.000000 1.800000 6.000000 15.447845 3.664185 252.062180
4.000000 1.800000 6.040000 14.826973 13.293113 396.545959
4.000000 1.800000 6.080000 7.222019 21.830021 528.707397
4.000000 1.800000 6.120000 -4.215470 24.005093 594.014648
4.000000 1.800000 6.160000 -13.574873 19.499868 564.522034
4.000000 1.800000 6.200000 -17.608215 12.525313 466.932739
4.000000 1.840000 5.800000 12.086273 3.973282 161.864975
4.000000 1.840000 5.840000 -7.721132 19.732203 448.975677
4.000000 1.840000 5.880000 -36.542053 10.898582 1454.100708
4.000000 1.840000 5.920000 -47.876755 -21.508728 2754.809082
4.000000 1.840000 5.960000 -27.406845 -52.952755 3555.129395
4.000000 1.840000 6.000000 11.755608 -56.810635 3365.642578
4.000000 1.840000 6.040000 39.773190 -28.913849 2417.917236
4.000000 1.840000 6.080000 36.598892 8.849106 1417.785522
4.000000 1.840000 6.120000 8.588942 28.889587 908.378174
4.000000 1.840000 6.160000 -19.911119 21.729488 868.623291
4.000000 1.840000 6.200000 -29.880453 0.840447 893.547852
4.000000 1.880000 5.800000 -8.333113 18.448853 409.800934
4.000000 1.880000 5.840000 -56.110359 16.804058 3430.748779
4.000000 1.880000 5.880000 -92.121658 -34.018326 9643.646484
4.000000 1.880000 5.920000 -73.387970 -106.337723 16693.503906
4.000000 1.880000 5.960000 0.742668 -144.198990 20793.900391
4.000000 1.880000 6.000000 81.827530 -113.435219 19563.292969
4.000000 1.880000 6.040000 112.754715 -34.473732 13902.064453
4.000000 1.880000 6.080000 77.398552 34.980576 7214.176270
4.000000 1.880000 6.120000 11.968939 50.728184 2716.604004
4.000000 1.880000 6.160000 -31.084150 17.290634 1265.190430
4.000000 1.880000 6.200000 -29.479176 -24.021309 1446.045044
4.000000 1.920000 5.800000 -35.351242 7.189461 1301.398682
4.000000 1.920000 5.840000 -90.068336 -34.599899 9309.458008
4.000000 1.920000 5.880000 -92.006432 -126.938362 24578.531250
4.000000 1.920000 5.920000 -9.410019 -203.300232 41419.531250
4.000000 1.920000 5.960000 116.320877 -193.753479 51070.957031
4.000000 1.920000 6.000000 198.921112 -91.815109 47999.625000
4.000000 1.920000 6.040000 181.606461 34.298752 34157.312500
4.000000 1.920000 6.080000 86.570198 99.660080 17426.531250
4.000000 1.920000 6.120000 -7.823240 74.816170 5658.662598
4.000000 1.920000 6.160000 -38.351391 3.903769 1486.068604
4.000000 1.920000 6.200000 -7.055839 -44.343922 2016.168335
4.000000 1.960000 5.800000 -42.514198 -25.847317 2475.540771
4.000000 1.960000 5.840000 -68.963272 -104.434982 15662.599609
4.000000 1.960000 5.880000 -8.914291 -200.013626 40084.914062
4.000000 1.960000 5.920000 127.481461 -224.510803 66656.625000
4.000000 1.960000 5.960000 253.319214 -132.546448 81739.187500
4.000000 1.960000 6.000000 275.618317 28.031845 76751.234375
4.000000 1.960000 6.040000 178.516907 150.986069 54665.078125
4.000000 1.960000 6.080000 38.089081 162.133911 27738.181641
4.000000 1.960000 6.120000 -45.981163 79.606789 8451.507812
4.000000 1.960000 6.160000 -35.345467 -11.573845 1383.255859
4.000000 1.960000 6.200000 25.395435 -41.232689 2345.062744
4.000000 2.000000 5.800000 -17.921268 -54.669922 3309.972168
4.000000 2.000000 5.840000 4.474995 -137.833984 19018.232422
4.000000 2.000000 5.880000 112.165260 -187.251251 47644.078125
4.000000 2.000000 5.920000 247.465683 -131.375458 78498.781250
4.000000 2.000000 5.960000 308.891113 21.912909 95893.890625
4.000000 2.000000 6.000000 240.412201 179.511414 90022.375000
4.000000 2.000000 6.040000 85.619255 238.612411 64266.539062
4.000000 2.000000 6.080000 -47.898426 174.272430 32665.140625
4.000000 2.000000 6.120000 -81.093658 55.958591 9707.545898
4.000000 2.000000 6.160000 -24.948154 -20.183144 1029.769653
4.000000 2.000000 6.200000 43.733578 -15.089859 2140.329590
4.000000 2.040000 5.800000 22.809879 -53.791851 3413.853760
4.000000 2.040000 5.840000 81.062836 -104.477280 17486.685547
4.000000 2.040000 5.880000 187.230896 -88.020271 42802.976562
4.000000 2.040000 5.920000 263.410767 21.811964 69861.000000
4.000000 2.040000 5.960000 236.417053 170.768188 85054.796875
4.000000 2.040000 6.000000 107.418365 261.554138 79949.273438
4.000000 2.040000 6.040000 -42.360489 235.875839 57431.820312
4.000000 2.040000 6.080000 -118.894188 124.136253 29545.636719
4.000000 2.040000 6.120000 -92.969643 15.722095 8890.539062
4.000000 2.040000 6.160000 -16.187754 -20.200005 670.083557
4.000000 2.040000 6.200000 34.943180 12.548075 1378.480103
4.000000 2.080000 5.800000 49.275681 -21.627573 2895.844727
4.000000 2.080000 5.840000 106.965881 -27.662418 12206.909180
4.000000 2.080000 5.880000 166.872681 28.487030 28658.003906
4.000000 2.080000 5.920000 169.455887 131.685669 46056.414062
4.000000 2.080000 5.960000 90.019867 218.464691 55830.398438
4.000000 2.080000 6.000000 -32.670479 227.273621 52720.656250
4.000000 2.080000 6.040000 -124.174088 151.793900 38460.593750
4.000000 2.080000 6.080000 -135.153015 46.834839 20459.839844
4.000000 2.080000 6.120000 -79.221931 -18.932579 6634.556641
4.000000 2.080000 6.160000 -14.465376 -18.699181 558.906494
4.000000 2.080000 6.200000 10.485655 18.921015 467.953735
4.000000 2.120000 5.800000 43.082123 18.021400 2180.840332
4.000000 2.120000 5.840000 70.666985 36.330433 6313.723145
4.000000 2.120000 5.880000 78.651642 84.229080 13280.619141
4.000000 2.120000 5.920000 44.331642 136.136475 20498.435547
4.000000 2.120000 5.960000 -24.944458 154.881256 24610.429688
4.000000 2.120000 6.000000 -93.165329 122.047295 23575.320312
4.000000 2.120000 6.040000 -122.404045 54.530289 17956.302734
4.000000 2.120000 6.080000 -102.001022 -8.159599 10470.788086
4.000000 2.120000 6.120000 -54.688946 -34.678768 4193.498047
4.000000 2.120000 6.160000 -15.603909 -23.513718 796.376831
4.000000 2.120000 6.200000 -4.464600 1.792791 23.146751
4.000000 2.160000 5.800000 12.982546 37.762142 1594.525879
4.000000 2.160000 5.840000 9.758604 48.414558 2439.199951
4.000000 2.160000 5.880000 -2.548859 59.099552 3499.253662
4.000000 2.160000 5.920000 -22.846771 62.992794 4490.066895
4.000000 2.160000 5.960000 -45.811832 55.286911 5155.366211
4.000000 2.160000 6.000000 -63.762291 35.199684 5304.647461
4.000000 2.160000 6.040000 -69.257507 7.081116 4846.744629
4.000000 2.160000 6.080000 -58.665749 -20.004419 3841.846924
4.000000 2.160000 6.120000 -35.469685 -35.645786 2528.720703
4.000000 2.160000 6.160000 -10.232244 -34.078732 1266.058838
4.000000 2.160000 6.200000 4.806087 -18.956165 382.434692
4.000000 2.200000 5.800000 -15.524750 30.188477 1152.361938
4.000000 2.200000 5.840000 -27.139980 17.367899 1038.222412
4.000000 2.200000 5.880000 -24.317535 -0.447027 591.542358
4.000000 2.200000 5.920000 -9.208946 -7.189964 136.500275
4.000000 2.200000 5.960000 1.552584 2.985336 11.322748
4.000000 2.200000 6.000000 -5.906366 17.051605 325.642395
4.000000 2.200000 6.040000 -26.193554 15.218868 917.716248
4.000000 2.200000 6.080000 -37.851852 -7.630539 1490.987793
4.000000 2.200000 6.120000 -24.820057 -34.265499 1790.159668
4.000000 2.200000 6.160000 5.829113 -40.897434 1706.578613
4.000000 2.200000 6.200000 29.216600 -21.105146 1299.036987
4.040000 1.800000 5.800000 6.074686 0.566847 37.223125
4.040000 1.800000 5.840000 3.074509 2.552181 15.966232
4.040000 1.800000 5.880000 1.617599 0.733772 3.155050
4.040000 1.800000 5.920000 4.706905 -0.774834 22.755325
4.040000 1.800000 5.960000 9.689156 2.783684 101.628632
4.040000 1.800000 6.000000 10.779648 11.291471 243.698135
4.040000 1.800000 6.040000 5.047592 19.590637 409.271240
4.040000 1.800000 6.080000 -4.835476 22.583645 533.402832
4.040000 1.800000 6.120000 -13.716710 19.733719 577.567749
4.040000 1.800000 6.160000 -18.940275 14.329193 564.059814
4.040000 1.800000 6.200000 -21.623947 9.169955 551.683167
4.040000 1.840000 5.800000 -6.463687 8.293163 110.555801
4.040000 1.840000 5.840000 -26.105854 5.414845 710.836182
4.040000 1.840000 5.880000 -38.172783 -17.172264 1752.048096
4.040000 1.840000 5.920000 -26.375313 -45.171108 2736.086182
4.040000 1.840000 5.960000 5.790901 -55.304745 3092.149170
4.040000 1.840000 6.000000 35.983086 -36.837540 2651.786621
4.040000 1.840000 6.040000 42.166721 -2.080383 1782.360352
4.040000 1.840000 6.080000 21.544502 24.322166 1055.733398
4.040000 1.840000 6.120000 -8.519001 26.585745 779.375183
4.040000 1.840000 6.160000 -27.154427 9.209791 822.183105
4.040000 1.840000 6.200000 -27.197002 -10.610726 852.264465
4.040000 1.880000 5.800000 -24.045401 -0.999725 579.180725
4.040000 1.880000 5.840000 -53.352661 -26.781235 3563.740967
4.040000 1.880000 5.880000 -50.765915 -80.062813 8987.232422
4.040000 1.880000 5.920000 0.202255 -120.995941 14640.058594
4.040000 1.880000 5.960000 72.846069 -110.232193 17457.687500
4.040000 1.880000 6.000000 116.512482 -47.315399 15813.905273
4.040000 1.880000 6.040000 100.713692 25.639725 10800.643555
4.040000 1.880000 6.080000 41.726265 59.892181 5328.154785
4.040000 1.880000 6.120000 -13.655851 41.190422 1883.133179
4.040000 1.880000 6.160000 -30.238457 -2.648645 921.379578
4.040000 1.880000 6.200000 -11.336666 -32.046188 1155.478149
4.040000 1.920000 5.800000 -27.562876 -26.150038 1443.536621
4.040000 1.920000 5.840000 -43.342350 -80.689362 8389.332031
4.040000 1.920000 5.880000 1.692390 -145.824371 21267.611328
4.040000 1.920000 5.920000 99.004105 -159.024490 35090.601562
4.040000 1.920000 5.960000 185.651031 -89.832413 42536.167969
4.040000 1.920000 6.000000 196.523758 25.148674 39254.042969
4.040000 1.920000 6.040000 123.405090 109.570374 27234.484375
4.040000 1.920000 6.080000 22.964626 112.848412 13262.137695
4.040000 1.920000 6.120000 -34.309296 51.227814 3801.416504
4.040000 1.920000 6.160000 -24.120680 -13.473379 763.339111
4.040000 1.920000 6.200000 19.281021 -33.231110 1476.064453
4.040000 1.960000 5.800000 -6.691692 -48.353233 2382.813965
4.040000 1.960000 5.840000 12.713945 -114.278763 13221.280273
4.040000 1.960000 5.880000 101.892075 -152.236633 33557.988281
4.040000 1.960000 5.920000 212.367691 -102.840981 55676.304688
4.040000 1.960000 5.960000 259.504425 25.864525 68011.523438
4.040000 1.960000 6.000000 198.482574 154.841019 63371.070312
4.040000 1.960000 6.040000 68.554001 199.344177 44437.753906
4.040000 1.960000 6.080000 -39.605328 142.055130 21748.242188
4.040000 1.960000 6.120000 -62.758999 43.894493 5865.418457
4.040000 1.960000 6.160000 -14.326645 -15.728098 452.625793
4.040000 1.960000 6.200000 40.012314 -8.566198 1674.364990
4.040000 2.000000 5.800000 27.735249 -46.795723 2959.083496
4.040000 2.000000 5.840000 81.969345 -93.715607 15501.588867
4.040000 2.000000 5.880000 182.576111 -76.781479 39229.429688
4.040000 2.000000 5.920000 253.644394 29.821323 65224.792969
4.040000 2.000000 5.960000 224.369370 172.367310 80052.101562
4.040000 2.000000 6.000000 98.068771 256.003876 75155.468750
4.040000 2.000000 6.040000 -44.261131 226.580902 53297.953125
4.040000 2.000000 6.080000 -112.533867 117.627083 26500.001953
4.040000 2.000000 6.120000 -83.204132 17.267269 7221.086426
4.040000 2.000000 6.160000 -10.600391 -11.200628 237.822372
4.040000 2.000000 6.200000 32.134178 22.246265 1527.501709
4.040000 2.040000 5.800000 51.046593 -18.339272 2942.083496
4.040000 2.040000 5.840000 115.181900 -26.962439 13993.842773
4.040000 2.040000 5.880000 183.589493 36.021755 35002.667969
4.040000 2.040000 5.920000 185.842987 153.557617 58117.558594
4.040000 2.040000 5.960000 93.516235 250.664001 71577.726562
4.040000 2.040000 6.000000 -45.960041 256.268097 67785.664062
4.040000 2.040000 6.040000 -145.165192 166.733276 48872.921875
4.040000 2.040000 6.080000 -150.500397 49.368652 25087.632812
4.040000 2.040000 6.120000 -84.060326 -17.599819 7375.891602
4.040000 2.040000 6.160000 -15.765034 -10.190552 352.383636
4.040000 2.040000 6.200000 3.170702 31.662050 1012.538757
4.040000 2.080000 5.800000 46.025856 18.306097 2453.492676
4.040000 2.080000 5.840000 89.925095 40.471348 9724.452148
4.040000 2.080000 5.880000 106.406700 110.366379 23503.123047
4.040000 2.080000 5.920000 57.678230 188.009186 38674.230469
4.040000 2.080000 5.960000 -44.100861 214.009521 47744.960938
4.040000 2.080000 6.000000 -140.434708 161.572876 45827.703125
4.040000 2.080000 6.040000 -173.757538 62.069176 34044.265625
4.040000 2.080000 6.080000 -134.807404 -21.103266 18618.382812
4.040000 2.080000 6.120000 -66.164284 -45.648193 6461.469727
4.040000 2.080000 6.160000 -21.019276 -20.592150 865.846558
4.040000 2.080000 6.200000 -18.601099 11.556968 479.564392
4.040000 2.120000 5.800000 17.808193 38.662643 1811.931763
4.040000 2.120000 5.840000 29.729921 64.955750 5103.117676
4.040000 2.120000 5.880000 12.021538 104.766220 11120.478516
4.040000 2.120000 5.920000 -40.032814 126.798637 17680.521484
4.040000 2.120000 5.960000 -102.180168 106.537384 21791.000000
4.040000 2.120000 6.000000 -138.460220 48.203934 21494.851562
4.040000 2.120000 6.040000 -129.488770 -17.319767 17067.316406
4.040000 2.120000 6.080000 -86.527603 -56.749348 10707.514648
4.040000 2.120000 6.120000 -39.862610 -58.796085 5046.007324
4.040000 2.120000 6.160000 -13.817442 -38.003090 1635.156616
4.040000 2.120000 6.200000 -11.188360 -17.850950 443.835846
4.040000 2.160000 5.800000 -11.927531 33.393738 1257.407715
4.040000 2.160000 5.840000 -19.190289 41.098930 2057.389160
4.040000 2.160000 5.880000 -35.209480 43.914101 3168.155762
4.040000 2.160000 5.920000 -54.395153 36.074520 4260.203613
4.040000 2.160000 5.960000 -69.132446 17.201256 5075.178223
4.040000 2.160000 6.000000 -73.459198 -8.643906 5470.971191
4.040000 2.160000 6.040000 -64.490807 -34.912994 5377.981445
4.040000 2.160000 6.080000 -43.148933 -53.915436 4768.704590
4.040000 2.160000 6.120000 -15.264248 -58.869648 3698.632812
4.040000 2.160000 6.160000 8.959633 -47.866711 2371.497070
4.040000 2.160000 6.200000 19.642941 -27.171030 1124.109985
4.040000 2.200000 5.800000 -25.202686 13.976887 830.528809
4.040000 2.200000 5.840000 -29.520660 0.730984 872.003723
4.040000 2.200000 5.880000 -21.632702 -11.795757 607.113647
4.040000 2.200000 5.920000 -8.670640 -12.044968 220.261261
4.040000 2.200000 5.960000 -5.503347 -1.987068 34.235271
4.040000 2.200000 6.000000 -17.112267 2.480122 298.980682
4.040000 2.200000 6.040000 -29.973259 -11.475285 1030.078369
4.040000 2.200000 6.080000 -24.325115 -37.098774 1968.030273
4.040000 2.200000 6.120000 4.001741 -51.614693 2680.090332
4.040000 2.200000 6.160000 35.973297 -38.519089 2777.798340
4.040000 2.200000 6.200000 46.146896 -5.959763 2165.054932
4.080000 1.800000 5.800000 -11.294650 7.406971 182.432343
4.080000 1.800000 5.840000 -12.600189 0.435808 158.954697
4.080000 1.800000 5.880000 -7.132463 -5.202099 77.933868
4.080000 1.800000 5.920000 1.256832 -3.718525 15.407055
4.080000 1.800000 5.960000 5.206352 4.531971 47.644859
4.080000 1.800000 6.000000 1.136902 13.066944 172.037567
4.080000 1.800000 6.040000 -7.487492 15.773178 304.855682
4.080000 1.800000 6.080000 -14.413584 12.560940 365.528625
4.080000 1.800000 6.120000 -17.182903 8.001080 359.269440
4.080000 1.800000 6.160000 -18.500963 5.188167 369.202728
4.080000 1.800000 6.200000 -21.329174 2.326537 460.346436
4.080000 1.840000 5.800000 -21.565540 -5.573590 496.137451
4.080000 1.840000 5.840000 -26.439871 -19.393051 1075.157227
4.080000 1.840000 5.880000 -17.903542 -37.347237 1715.352783
4.080000 1.840000 5.920000 4.474030 -45.323853 2074.268555
4.080000 1.840000 5.960000 27.985420 -34.103199 1946.211914
4.080000 1.840000 6.000000 36.748383 -8.825962 1428.341187
4.080000 1.840000 6.040000 25.180597 14.502174 844.375549
4.080000 1.840000 6.080000 2.221487 22.050735 491.169922
4.080000 1.840000 6.120000 -16.900629 12.423004 439.962280
4.080000 1.840000 6.160000 -22.900196 -4.557564 545.190369
4.080000 1.840000 6.200000 -17.531118 -17.683426 620.043701
4.080000 1.880000 5.800000 -17.710882 -27.440477 1066.655151
4.080000 1.880000 5.840000 -18.082273 -53.495327 3188.718750
4.080000 1.880000 5.880000 9.268139 -80.045708 6493.213867
4.080000 1.880000 5.920000 57.183006 -79.148460 9534.375000
4.080000 1.880000 5.960000 94.943871 -40.126850 10624.502930
4.080000 1.880000 6.000000 93.979187 16.530807 9105.355469
4.080000 1.880000 6.040000 54.005684 54.382378 5874.057129
4.080000 1.880000 6.080000 4.011162 51.726151 2691.684082
4.080000 1.880000 6.120000 -22.987251 18.636890 875.747375
4.080000 1.880000 6.160000 -16.933983 -14.918818 509.330872
4.080000 1.880000 6.200000 5.357386 -26.786430 746.214478
4.080000 1.920000 5.800000 5.230273 -42.118042 1801.285156
4.080000 1.920000 5.840000 21.326469 -75.563972 6164.732422
4.080000 1.920000 5.880000 74.768471 -91.083092 13886.454102
4.080000 1.920000 5.920000 136.763245 -56.128654 21854.611328
4.080000 1.920000 5.960000 158.862823 22.304497 25734.886719
4.080000 1.920000 6.000000 117.332283 96.840759 23144.996094
4.080000 1.920000 6.040000 37.799877 118.816208 15546.122070
4.080000 1.920000 6.080000 -25.526882 80.570335 7143.200684
4.080000 1.920000 6.120000 -36.621834 20.062654 1743.668823
4.080000 1.920000 6.160000 -5.411686 -15.631845 273.640930
4.080000 1.920000 6.200000 28.273081 -11.081984 922.177490
4.080000 1.960000 5.800000 35.427364 -34.459801 2442.576172
4.080000 1.960000 5.840000 72.112076 -60.112785 8813.698242
4.080000 1.960000 5.880000 137.919952 -43.515030 20915.472656
4.080000 1.960000 5.920000 181.740875 32.297104 34072.847656
4.080000 1.960000 5.960000 156.166962 129.741837 41221.062500
4.080000 1.960000 6.000000 65.405350 183.624237 37995.718750
4.080000 1.960000 6.040000 -33.000061 158.326065 26156.146484
4.080000 1.960000 6.080000 -77.011803 79.752487 12291.277344
4.080000 1.960000 6.120000 -52.769135 10.520411 2895.260498
4.080000 1.960000 6.160000 -0.719531 -6.580198 43.816734
4.080000 1.960000 6.200000 27.794127 18.577906 1117.652100
4.080000 2.000000 5.800000 51.848186 -5.253775 2715.836426
4.080000 2.000000 5.840000 98.602707 -8.702288 9798.223633
4.080000 2.000000 5.880000 148.642456 42.534691 23903.779297
4.080000 2.000000 5.920000 146.149872 135.474518 39713.132812
4.080000 2.000000 5.960000 68.940865 209.993958 48850.304688
4.080000 2.000000 6.000000 -43.454308 209.612869 45825.832031
4.080000 2.000000 6.040000 -119.903046 133.738480 32262.720703
4.080000 2.000000 6.080000 -119.015953 39.266827 15706.680664
4.080000 2.000000 6.120000 -62.424667 -10.601473 4009.230225
4.080000 2.000000 6.160000 -9.043842 -0.010027 81.791183
4.080000 2.000000 6.200000 1.529457 34.448826 1189.060791
4.080000 2.040000 5.800000 42.091888 27.237652 2513.616699
4.080000 2.040000 5.840000 79.975891 47.085472 8613.184570
4.080000 2.040000 5.880000 93.501526 111.492577 21173.128906
4.080000 2.040000 5.920000 45.676498 182.883835 35532.839844
4.080000 2.040000 5.960000 -51.520962 203.912109 44234.558594
4.080000 2.040000 6.000000 -140.519592 149.883057 42210.687500
4.080000 2.040000 6.040000 -166.307419 53.952229 30569.001953
4.080000 2.040000 6.080000 -123.707397 -21.017813 15745.268555
4.080000 2.040000 6.120000 -58.212845 -36.901184 4750.432617
4.080000 2.040000 6.160000 -21.401571 -8.430529 529.101074
4.080000 2.040000 6.200000 -26.349174 19.434908 1071.994629
4.080000 2.080000 5.800000 13.578113 42.135803 1959.791016
4.080000 2.080000 5.840000 29.600899 71.335022 5964.898926
4.080000 2.080000 5.880000 10.214651 119.328323 14343.587891
4.080000 2.080000 5.920000 -52.407360 145.880554 24027.667969
4.080000 2.080000 5.960000 -126.587555 118.953262 30174.289062
4.080000 2.080000 6.000000 -165.264069 45.998470 29428.072266
4.080000 2.080000 6.040000 -146.205475 -30.119354 22283.216797
4.080000 2.080000 6.080000 -89.951546 -67.386444 12632.212891
4.080000 2.080000 6.120000 -39.090225 -58.295227 4926.378906
4.080000 2.080000 6.160000 -20.566952 -29.919859 1318.197510
4.080000 2.080000 6.200000 -27.461191 -13.867952 946.437134
4.080000 2.120000 5.800000 -13.261630 33.524612 1299.770508
4.080000 2.120000 5.840000 -16.772984 54.089676 3207.026123
4.080000 2.120000 5.880000 -45.134163 70.803925 7050.288574
4.080000 2.120000 5.920000 -87.568680 61.438633 11442.979492
4.080000 2.120000 5.960000 -118.074966 21.293674 14395.118164
4.080000 2.120000 6.000000 -116.487854 -31.401970 14555.503906
4.080000 2.120000 6.040000 -84.419472 -69.960823 12021.164062
4.080000 2.120000 6.080000 -42.133682 -79.783745 8140.692871
4.080000 2.120000 6.120000 -10.968745 -66.544701 4548.510742
4.080000 2.120000 6.160000 1.608944 -46.985268 2210.204102
4.080000 2.120000 6.200000 2.267627 -33.595757 1133.816895
4.080000 2.160000 5.800000 -23.359625 13.796567 736.017334
4.080000 2.160000 5.840000 -32.543499 17.021338 1348.805298
4.080000 2.160000 5.880000 -46.136024 11.121758 2252.226318
4.080000 2.160000 5.920000 -55.777401 -4.557220 3131.886719
4.080000 2.160000 5.960000 -56.227947 -24.942299 3783.700195
4.080000 2.160000 6.000000 -47.075977 -44.274681 4176.395020
4.080000 2.160000 6.040000 -30.047577 -58.662701 4344.169434
4.080000 2.160000 6.080000 -7.347292 -64.793625 4252.196777
4.080000 2.160000 6.120000 16.624184 -59.258759 3787.964111
4.080000 2.160000 6.160000 34.001328 -41.808624 2904.051270
4.080000 2.160000 6.200000 37.371647 -19.191713 1764.961914
4.080000 2.200000 5.800000 -18.884644 -0.050267 356.632294
4.080000 2.200000 5.840000 -20.486040 -9.723928 514.232605
4.080000 2.200000 5.880000 -13.035393 -17.707100 483.462830
4.080000 2.200000 5.920000 -3.961632 -16.391445 284.373993
4.080000 2.200000 5.960000 -3.619339 -10.614204 125.760956
4.080000 2.200000 6.000000 -10.932861 -13.133400 292.013641
4.080000 2.200000 6.040000 -11.746883 -28.459866 947.953186
4.080000 2.200000 6.080000 5.819498 -43.878204 1959.163452
4.080000 2.200000 6.120000 35.289848 -40.358822 2874.208008
4.080000 2.200000 6.160000 54.507607 -13.476706 3152.700684
4.080000 2.200000 6.200000 46.909279 18.628365 2547.496338
4.120000 1.800000 5.800000 -27.372656 -3.514232 761.612122
4.120000 1.800000 5.840000 -20.002369 -14.391459 607.208862
4.120000 1.800000 5.880000 -7.100071 -16.310909 316.456787
4.120000 1.800000 5.920000 1.868938 -8.325565 72.807968
4.120000 1.800000 5.960000 0.988846 2.052441 5.190329
4.120000 1.800000 6.000000 -6.557735 6.245762 82.013435
4.120000 1.800000 6.040000 -12.503369 2.915989 164.837234
4.120000 1.800000 6.080000 -12.496570 -1.913536 159.825867
4.120000 1.800000 6.120000 -9.978195 -2.661829 106.649704
4.120000 1.800000 6.160000 -10.832663 -0.733773 117.885002
4.120000 1.800000 6.200000 -15.433563 -2.234720 243.188843
4.120000 1.840000 5.800000 -19.426043 -27.408484 1128.596069
4.120000 1.840000 5.840000 -7.610643 -35.973656 1352.025757
4.120000 1.840000 5.880000 8.937017 -36.057003 1379.977661
4.120000 1.840000 5.920000 22.730921 -25.447428 1164.266357
4.120000 1.840000 5.960000 26.644590 -8.782013 787.057983
4.120000 1.840000 6.000000 19.460358 5.421028 408.093048
4.120000 1.840000 6.040000 6.415518 10.892420 159.803680
4.120000 1.840000 6.080000 -5.227198 7.268182 80.150063
4.120000 1.840000 6.120000 -11.044323 -1.327798 123.740112
4.120000 1.840000 6.160000 -10.749674 -10.241895 220.451904
4.120000 1.840000 6.200000 -6.248371 -16.765285 320.116943
4.120000 1.880000 5.800000 7.992091 -39.824093 1649.831909
4.120000 1.880000 5.840000 23.240314 -44.689655 2537.277588
4.120000 1.880000 5.880000 44.937515 -39.358444 3568.467285
4.120000 1.880000 5.920000 62.490379 -18.107391 4232.925293
4.120000 1.880000 5.960000 62.674706 12.710743 4089.681641
4.120000 1.880000 6.000000 41.992268 36.835464 3120.202148
4.120000 1.880000 6.040000 11.667297 40.516373 1777.702271
4.120000 1.880000 6.080000 -10.340454 23.888298 677.575745
4.120000 1.880000 6.120000 -13.352915 0.569730 178.624924
4.120000 1.880000 6.160000 -1.237018 -14.015959 197.977310
4.120000 1.880000 6.200000 13.113626 -14.516307 382.690369
4.120000 1.920000 5.800000 39.328087 -26.703705 2259.786133
4.120000 1.920000 5.840000 56.694023 -26.269863 3904.317871
4.120000 1.920000 5.880000 80.139572 -9.809959 6518.586426
4.120000 1.920000 5.920000 90.887344 26.974070 8988.110352
4.120000 1.920000 5.960000 72.355293 67.876732 9842.539062
4.120000 1.920000 6.000000 28.748056 86.912628 8380.255859
4.120000 1.920000 6.040000 -14.752787 71.193481 5286.156250
4.120000 1.920000 6.080000 -32.281204 33.554237 2167.962891
4.120000 1.920000 6.120000 -19.061171 1.677313 366.141602
4.120000 1.920000 6.160000 6.411257 -5.927682 76.241623
4.120000 1.920000 6.200000 21.156900 6.098889 484.810883
4.120000 1.960000 5.800000 51.928787 7.383378 2751.113037
4.120000 1.960000 5.840000 68.708618 14.472215 4930.318848
4.120000 1.960000 5.880000 84.847382 43.530830 9094.011719
4.120000 1.960000 5.920000 75.639038 88.814125 13609.212891
4.120000 1.960000 5.960000 31.529213 121.971832 15871.218750
4.120000 1.960000 6.000000 -27.130806 116.275047 14255.967773
4.120000 1.960000 6.040000 -64.514702 72.997238 9490.744141
4.120000 1.960000 6.080000 -60.544304 22.498404 4171.791016
4.120000 1.960000 6.120000 -28.097837 -2.371511 795.112549
4.120000 1.960000 6.160000 0.805114 5.522101 31.141813
4.120000 1.960000 6.200000 5.472322 25.231764 666.588196
4.120000 2.000000 5.800000 35.380051 40.282501 2874.427734
4.120000 2.000000 5.840000 47.637119 53.430408 5124.103516
4.120000 2.000000 5.880000 47.852158 87.985504 10031.277344
4.120000 2.000000 5.920000 15.377380 124.628136 15768.635742
4.120000 2.000000 5.960000 -43.189663 131.282806 19100.523438
4.120000 2.000000 6.000000 -94.219887 94.311317 17772.011719
4.120000 2.000000 6.040000 -105.621841 34.626785 12354.988281
4.120000 2.000000 6.080000 -76.052475 -9.279657 5870.090820
4.120000 2.000000 6.120000 -35.225365 -15.376580 1477.265503
4.120000 2.000000 6.160000 -15.108534 4.583124 249.272827
4.120000 2.000000 6.200000 -21.459486 20.794119 892.904907
4.120000 2.040000 5.800000 1.607133 50.072678 2509.855713
4.120000 2.040000 5.840000 6.160922 65.807831 4368.627441
4.120000 2.040000 5.880000 -10.078431 93.424332 8829.680664
4.120000 2.040000 5.920000 -53.862015 106.684418 14282.681641
4.120000 2.040000 5.960000 -103.868996 83.376663 17740.437500
4.120000 2.040000 6.000000 -127.054871 29.341619 17003.871094
4.120000 2.040000 6.040000 -108.757599 -23.770561 12393.253906
4.120000 2.040000 6.080000 -66.269318 -46.083298 6515.292969
4.120000 2.040000 6.120000 -32.073204 -35.093853 2260.269043
4.120000 2.040000 6.160000 -23.998585 -14.203425 777.669373
4.120000 2.040000 6.200000 -32.302841 -7.174837 1094.951782
4.120000 2.080000 5.800000 -25.082109 33.773830 1769.783936
4.120000 2.080000 5.840000 -28.479252 46.961952 3016.492920
4.120000 2.080000 5.880000 -52.008373 58.550331 6133.012207
4.120000 2.080000 5.920000 -87.741669 47.984936 10001.154297
4.120000 2.080000 5.960000 -111.819305 10.351978 12610.719727
4.120000 2.080000 6.000000 -105.553513 -36.450249 12470.164062
4.120000 2.080000 6.040000 -72.656845 -66.499420 9701.189453
4.120000 2.080000 6.080000 -35.389801 -68.121567 5892.985840
4.120000 2.080000 6.120000 -14.080610 -51.784454 2879.893311
4.120000 2.080000 6.160000 -10.795013 -37.059978 1489.974365
4.120000 2.080000 6.200000 -12.426443 -33.465672 1274.367676
4.120000 2.120000 5.800000 -29.400436 8.828645 942.330627
4.120000 2.120000 5.840000 -37.620155 15.196178 1646.199951
4.120000 2.120000 5.880000 -55.858963 11.332287 3248.644287
4.120000 2.120000 5.920000 -71.186615 -9.127396 5150.843750
4.120000 2.120000 5.960000 -70.449173 -38.955891 6480.647461
4.120000 2.120000 6.000000 -51.550617 -63.348160 6670.455078
4.120000 2.120000 6.040000 -24.183874 -72.153015 5790.917480
4.120000 2.120000 6.080000 -0.604462 -66.355446 4403.410645
4.120000 2.120000 6.120000 13.582188 -54.043129 3105.135498
4.120000 2.120000 6.160000 20.334717 -41.880360 2167.465088
4.120000 2.120000 6.200000 23.362417 -31.259407 1522.953125
4.120000 2.160000 5.800000 -17.416183 -4.332344 322.092651
4.120000 2.160000 5.840000 -25.381256 -6.281263 683.662476
4.120000 2.160000 5.880000 -30.839668 -16.765749 1232.175537
4.120000 2.160000 5.920000 -28.272127 -30.380161 1722.267334
4.120000 2.160000 5.960000 -18.949368 -40.883419 2030.532471
4.120000 2.160000 6.000000 -6.997684 -46.696789 2229.557617
4.120000 2.160000 6.040000 6.200825 -49.233265 2462.364502
4.120000 2.160000 6.080000 21.724066 -47.626427 2740.211670
4.120000 2.160000 6.120000 37.715446 -38.039238 2869.438477
4.120000 2.160000 6.160000 47.134026 -19.541460 2603.485107
4.120000 2.160000 6.200000 43.494709 0.909047 1892.616089
4.120000 2.200000 5.800000 -7.912330 -1.407878 64.587082
4.120000 2.200000 5.840000 -10.621279 -9.948882 211.791809
4.120000 2.200000 5.880000 -4.359123 -17.074137 310.528107
4.120000 2.200000 5.920000 3.585609 -16.400793 281.842621
4.120000 2.200000 5.960000 5.322315 -12.782742 191.725525
4.120000 2.200000 6.000000 3.617828 -15.399498 250.233215
4.120000 2.200000 6.040000 9.425653 -24.151424 672.134277
4.120000 2.200000 6.080000 27.351616 -26.689379 1460.433838
4.120000 2.200000 6.120000 46.412750 -11.652930 2289.934082
4.120000 2.200000 6.160000 48.966816 16.068882 2655.958008
4.120000 2.200000 6.200000 29.867750 36.775444 2244.515625
4.160000 1.800000 5.800000 -28.674273 -23.627411 1380.468506
4.160000 1.800000 5.840000 -12.909291 -29.820091 1055.887695
4.160000 1.800000 5.880000 1.428234 -23.617601 559.830933
4.160000 1.800000 5.920000 5.639280 -11.444694 162.782501
4.160000 1.800000 5.960000 0.466315 -3.689500 13.829860
4.160000 1.800000 6.000000 -5.434572 -4.621959 50.897079
4.160000 1.800000 6.040000 -4.984510 -9.034821 106.473320
4.160000 1.800000 6.080000 0.145530 -9.070412 82.293549
4.160000 1.800000 6.120000 2.451523 -3.416149 17.680038
4.160000 1.800000 6.160000 -2.011346 1.444700 6.132670
4.160000 1.800000 6.200000 -8.623802 -0.845525 75.084877
4.160000 1.840000 5.800000 -0.962355 -40.050114 1604.937744
4.160000 1.840000 5.840000 15.680554 -33.244816 1351.097534
4.160000 1.840000 5.880000 23.360622 -18.484531 887.396606
4.160000 1.840000 5.920000 20.013130 -4.864598 424.189697
4.160000 1.840000 5.960000 11.193690 0.981397 126.261848
4.160000 1.840000 6.000000 4.431295 -0.335799 19.749140
4.160000 1.840000 6.040000 2.590925 -3.332081 17.815657
4.160000 1.840000 6.080000 2.883772 -4.108180 25.193283
4.160000 1.840000 6.120000 1.790337 -3.795001 17.607342
4.160000 1.840000 6.160000 -0.182601 -5.656021 32.023918
4.160000 1.840000 6.200000 0.636444 -9.861072 97.645790
4.160000 1.880000 5.800000 33.766773 -28.410408 1947.346191
4.160000 1.880000 5.840000 40.953285 -11.509022 1809.629150
4.160000 1.880000 5.880000 37.570099 4.963995 1436.153564
4.160000 1.880000 5.920000 27.234215 15.114904 970.162781
4.160000 1.880000 5.960000 15.677044 17.502674 552.113281
4.160000 1.880000 6.000000 6.996595 14.400974 256.340393
4.160000 1.880000 6.040000 2.352102 8.993322 86.412231
4.160000 1.880000 6.080000 1.224119 3.355666 12.758963
4.160000 1.880000 6.120000 2.992402 -1.379341 10.857051
4.160000 1.880000 6.160000 7.046135 -4.038515 65.957626
4.160000 1.880000 6.200000 11.927225 -3.509867 154.577866
4.160000 1.920000 5.800000 49.100510 8.436388 2482.032715
4.160000 1.920000 5.840000 42.284065 25.356125 2430.875244
4.160000 1.920000 5.880000 29.760405 35.644093 2156.183105
4.160000 1.920000 5.920000 15.862978 38.978043 1770.921875
4.160000 1.920000 5.960000 3.198290 36.420166 1336.657471
4.160000 1.920000 6.000000 -6.221281 28.954655 877.076355
4.160000 1.920000 6.040000 -10.089315 18.465527 442.769958
4.160000 1.920000 6.080000 -7.254444 8.807299 130.195465
4.160000 1.920000 6.120000 0.100266 4.264216 18.193596
4.160000 1.920000 6.160000 6.946471 6.140458 85.958679
4.160000 1.920000 6.200000 9.160948 11.270070 210.937439
4.160000 1.960000 5.800000 30.797873 45.775639 3043.918213
4.160000 1.960000 5.840000 14.822512 52.901360 3018.260742
4.160000 1.960000 5.880000 -0.077562 53.193390 2829.542725
4.160000 1.960000 5.920000 -13.028315 49.260735 2596.356934
4.160000 1.960000 5.960000 -23.989151 41.117256 2266.108154
4.160000 1.960000 6.000000 -30.384449 28.475845 1734.088501
4.160000 1.960000 6.040000 -28.797289 14.657553 1044.127686
4.160000 1.960000 6.080000 -19.899549 5.970935 431.644135
4.160000 1.960000 6.120000 -9.961494 6.118313 136.665115
4.160000 1.960000 6.160000 -5.886561 11.864737 175.423569
4.160000 1.960000 6.200000 -8.510339 15.748890 320.453400
4.160000 2.000000 5.800000 -9.014577 56.517548 3275.495850
4.160000 2.000000 5.840000 -24.043945 51.682968 3249.240479
4.160000 2.000000 5.880000 -34.662827 44.183014 3153.650391
4.160000 2.000000 5.920000 -43.187386 35.184532 3103.101562
4.160000 2.000000 5.960000 -49.210850 22.861250 2944.344482
4.160000 2.000000 6.000000 -48.930653 7.930634 2457.103760
4.160000 2.000000 6.040000 -40.539665 -4.071285 1660.039795
4.160000 2.000000 6.080000 -28.553984 -7.547060 872.288086
4.160000 2.000000 6.120000 -20.826841 -3.339115 444.907013
4.160000 2.000000 6.160000 -20.700346 1.242663 430.048553
4.160000 2.000000 6.200000 -23.321337 -0.046673 543.886963
4.160000 2.040000 5.800000 -40.997749 34.798409 2891.744629
4.160000 2.040000 5.840000 -48.123863 24.151623 2899.207031
4.160000 2.040000 5.880000 -52.209270 14.277132 2929.644287
4.160000 2.040000 5.920000 -55.032845 3.530498 3041.078369
4.160000 2.040000 5.960000 -54.283665 -9.406142 3035.191895
4.160000 2.040000 6.000000 -47.111122 -21.494312 2681.463135
4.160000 2.040000 6.040000 -35.278923 -27.514997 2001.677490
4.160000 2.040000 6.080000 -24.923000 -26.099607 1302.345459
4.160000 2.040000 6.120000 -20.480513 -22.003107 903.588135
4.160000 2.040000 6.160000 -19.788013 -21.222160 841.945557
4.160000 2.040000 6.200000 -16.567945 -24.101482 855.378296
4.160000 2.080000 5.800000 -44.111603 1.046017 1946.927612
4.160000 2.080000 5.840000 -44.528717 -7.600685 2040.577026
4.160000 2.080000 5.880000 -44.252792 -16.039343 2215.570312
4.160000 2.080000 5.920000 -41.974182 -25.731052 2423.918945
4.160000 2.080000 5.960000 -35.439903 -35.119972 2489.399170
4.160000 2.080000 6.000000 -25.222019 -40.691689 2291.963867
4.160000 2.080000 6.040000 -15.052508 -40.978733 1905.834595
4.160000 2.080000 6.080000 -8.036926 -38.453312 1543.249390
4.160000 2.080000 6.120000 -3.353110 -36.648758 1354.374878
4.160000 2.080000 6.160000 2.382225 -35.804054 1287.605347
4.160000 2.080000 6.200000 10.310790 -32.374680 1154.432251
4.160000 2.120000 5.800000 -23.682796 -17.226606 857.630859
4.160000 2.120000 5.840000 -23.615723 -21.883366 1036.583984
4.160000 2.120000 5.880000 -21.714417 -28.943218 1309.225830
4.160000 2.120000 5.920000 -15.675356 -35.804604 1527.686401
4.160000 2.120000 5.960000 -6.892933 -39.124313 1578.224487
4.160000 2.120000 6.000000 1.180976 -38.664337 1496.325562
4.160000 2.120000 6.040000 7.218138 -37.157963 1432.815796
4.160000 2.120000 6.080000 13.361539 -36.270134 1494.053345
4.160000 2.120000 6.120000 21.795685 -33.814827 1618.494385
4.160000 2.120000 6.160000 30.602741 -26.126713 1619.132812
4.160000 2.120000 6.200000 34.424786 -13.209373 1359.553467
4.160000 2.160000 5.800000 -4.384972 -10.792864 135.713882
4.160000 2.160000 5.840000 -7.193054 -16.167046 313.113373
4.160000 2.160000 5.880000 -3.475519 -23.463043 562.593628
4.160000 2.160000 5.920000 4.808578 -26.254934 712.444031
4.160000 2.160000 5.960000 11.613577 -23.930220 707.530579
4.160000 2.160000 6.000000 14.735044 -21.458824 677.602661
4.160000 2.160000 6.040000 18.418966 -21.932896 820.310242
4.160000 2.160000 6.080000 27.086056 -21.387623 1191.084839
4.160000 2.160000 6.120000 37.841232 -13.028345 1601.696655
4.160000 2.160000 6.160000 41.648338 3.506711 1746.881104
4.160000 2.160000 6.200000 33.017960 19.235668 1460.196533
4.160000 2.200000 5.800000 -5.118198 4.457832 46.068222
4.160000 2.200000 5.840000 -6.878564 -6.440707 88.797348
4.160000 2.200000 5.880000 1.047024 -13.116379 173.135651
4.160000 2.200000 5.920000 9.463423 -10.894504 208.246582
4.160000 2.200000 5.960000 11.528465 -5.909557 167.828384
4.160000 2.200000 6.000000 10.919285 -5.769599 152.519058
4.160000 2.200000 6.040000 16.072435 -8.573388 331.826172
4.160000 2.200000 6.080000 27.538200 -4.411477 777.813599
4.160000 2.200000 6.120000 34.541382 11.648067 1328.784546
4.160000 2.200000 6.160000 26.414246 30.761309 1643.970459
4.160000 2.200000 6.200000 6.278087 37.685619 1459.620361
4.200000 1.800000 5.800000 -14.811059 -37.790024 1647.453369
4.200000 1.800000 5.840000 2.310829 -34.963615 1227.794312
4.200000 1.800000 5.880000 11.535532 -23.320629 676.920227
4.200000 1.800000 5.920000 10.516893 -12.529080 267.582916
4.200000 1.800000 5.960000 5.666334 -9.095105 114.828278
4.200000 1.800000 6.000000 4.886975 -10.726156 138.932953
4.200000 1.800000 6.040000 9.304152 -10.002849 186.624222
4.200000 1.800000 6.080000 12.784870 -3.195503 173.664154
4.200000 1.800000 6.120000 9.432919 5.457102 118.759911
4.200000 1.800000 6.160000 0.656569 8.562360 73.745087
4.200000 1.800000 6.200000 -6.073187 3.951399 52.497158
4.200000 1.840000 5.800000 19.435457 -35.258877 1620.925293
4.200000 1.840000 5.840000 27.104801 -17.340860 1035.375732
4.200000 1.840000 5.880000 20.210480 -2.262292 413.581451
4.200000 1.840000 5.920000 7.815327 0.589201 61.426495
4.200000 1.840000 5.960000 1.888304 -6.336063 43.711391
4.200000 1.840000 6.000000 6.123338 -12.418048 191.703186
4.200000 1.840000 6.040000 13.632862 -10.003691 285.928772
4.200000 1.840000 6.080000 15.264558 -1.504135 235.269150
4.200000 1.840000 6.120000 9.280602 4.448681 105.920349
4.200000 1.840000 6.160000 2.327439 2.872675 13.669237
4.200000 1.840000 6.200000 1.393447 -2.514820 8.266014
4.200000 1.880000 5.800000 41.121197 -3.857675 1705.834595
4.200000 1.880000 5.840000 28.476749 16.643684 1087.937500
4.200000 1.880000 5.880000 6.784612 19.698019 434.042908
4.200000 1.880000 5.920000 -6.589821 6.168221 81.472687
4.200000 1.880000 5.960000 -3.132089 -9.768349 105.230621
4.200000 1.880000 6.000000 10.431606 -14.317029 313.795746
4.200000 1.880000 6.040000 20.244370 -6.028649 446.179108
4.200000 1.880000 6.080000 18.893162 5.143321 383.405334
4.200000 1.880000 6.120000 10.842254 9.261775 203.334946
4.200000 1.880000 6.160000 5.568860 5.815098 64.827560
4.200000 1.880000 6.200000 7.012949 2.107655 53.623661
4.200000 1.920000 5.800000 29.777094 35.706066 2161.598633
4.200000 1.920000 5.840000 0.367859 41.090633 1688.575562
4.200000 1.920000 5.880000 -21.889589 22.932917 1005.072754
4.200000 1.920000 5.920000 -21.845226 -3.548695 489.807129
4.200000 1.920000 5.960000 -3.055034 -18.073122 335.970947
4.200000 1.920000 6.000000 17.103476 -12.561081 450.309631
4.200000 1.920000 6.040000 23.739832 4.129465 580.632080
4.200000 1.920000 6.080000 16.154968 16.807096 543.461487
4.200000 1.920000 6.120000 4.995996 18.061245 351.168549
4.200000 1.920000 6.160000 0.055953 12.395195 153.643982
4.200000 1.920000 6.200000 1.893377 8.561419 76.882767
4.200000 1.960000 5.800000 -9.365307 52.967403 2893.254883
4.200000 1.960000 5.840000 -38.598579 34.760891 2698.169922
4.200000 1.960000 5.880000 -44.576565 1.226014 1988.573120
4.200000 1.960000 5.920000 -24.551710 -23.915934 1174.758301
4.200000 1.960000 5.960000 4.617208 -24.945000 643.571594
4.200000 1.960000 6.000000 21.741730 -5.829386 506.684570
4.200000 1.960000 6.040000 18.410263 15.787601 588.186157
4.200000 1.960000 6.080000 2.919296 24.887314 627.900696
4.200000 1.960000 6.120000 -10.205654 19.930046 501.362122
4.200000 1.960000 6.160000 -13.210312 10.117308 276.872253
4.200000 1.960000 6.200000 -8.843713 4.636664 99.709915
4.200000 2.000000 5.800000 -47.490635 34.124634 3419.851074
4.200000 2.000000 5.840000 -59.367744 0.580558 3524.866211
4.200000 2.000000 5.880000 -43.212498 -31.339340 2849.474121
4.200000 2.000000 5.920000 -10.457191 -40.896690 1781.892090
4.200000 2.000000 5.960000 16.090118 -24.623539 865.210571
4.200000 2.000000 6.000000 20.683048 2.403590 433.565735
4.200000 2.000000 6.040000 5.494255 20.322186 443.178040
4.200000 2.000000 6.080000 -14.208723 19.944208 599.659241
4.200000 2.000000 6.120000 -24.094387 7.043236 630.146667
4.200000 2.000000 6.160000 -20.801910 -5.750166 465.783875
4.200000 2.000000 6.200000 -10.989411 -9.955677 219.882660
4.200000 2.040000 5.800000 -56.609283 -4.933703 3228.952393
4.200000 2.040000 5.840000 -47.501728 -35.845619 3541.322510
4.200000 2.040000 5.880000 -18.719410 -51.718071 3025.175049
4.200000 2.040000 5.920000 11.606405 -42.683025 1956.549316
4.200000 2.040000 5.960000 24.625942 -16.743198 886.771729
4.200000 2.040000 6.000000 15.056075 7.079168 276.800018
4.200000 2.040000 6.040000 -6.186272 13.792928 228.514816
4.200000 2.040000 6.080000 -22.077688 2.759480 495.039032
4.200000 2.040000 6.120000 -22.731026 -14.283573 720.719971
4.200000 2.040000 6.160000 -10.972475 -24.035645 698.107422
4.200000 2.040000 6.200000 2.510077 -21.279976 459.137848
4.200000 2.080000 5.800000 -34.263443 -32.643280 2239.567383
4.200000 2.080000 5.840000 -15.669660 -48.632793 2610.687012
4.200000 2.080000 5.880000 9.972830 -47.611153 2366.279053
4.200000 2.080000 5.920000 27.269863 -29.344852 1604.765869
4.200000 2.080000 5.960000 26.064711 -6.040012 715.850891
4.200000 2.080000 6.000000 9.562022 6.682002 136.081421
4.200000 2.080000 6.040000 -8.249702 1.796132 71.283684
4.200000 2.080000 6.080000 -13.763264 -14.173203 390.307098
4.200000 2.080000 6.120000 -4.104453 -27.197552 756.553406
4.200000 2.080000 6.160000 11.827785 -27.241718 882.007690
4.200000 2.080000 6.200000 21.676645 -15.373689 706.227295
4.200000 2.120000 5.800000 -4.736813 -30.470222 950.871826
4.200000 2.120000 5.840000 8.763407 -34.194042 1246.029785
4.200000 2.120000 5.880000 22.996475 -27.217049 1269.605713
4.200000 2.120000 5.920000 28.538349 -11.840647 954.638306
4.200000 2.120000 5.960000 21.258633 1.937347 455.682800
4.200000 2.120000 6.000000 7.311204 4.206839 71.151199
4.200000 2.120000 6.040000 -1.098152 -5.719700 33.920906
4.200000 2.120000 6.080000 3.699643 -17.926447 335.044861
4.200000 2.120000 6.120000 17.735985 -20.409323 731.105591
4.200000 2.120000 6.160000 28.919203 -9.855646 933.454102
4.200000 2.120000 6.200000 28.085337 5.697396 821.246460
4.200000 2.160000 5.800000 4.807629 -8.926829 102.801575
4.200000 2.160000 5.840000 9.225339 -12.549590 242.599091
4.200000 2.160000 5.880000 16.526814 -10.161425 376.390106
4.200000 2.160000 5.920000 19.228199 -1.990541 373.685883
4.200000 2.160000 5.960000 14.150558 4.534555 220.800507
4.200000 2.160000 6.000000 7.041307 2.876377 57.853554
4.200000 2.160000 6.040000 6.944942 -4.492692 68.416496
4.200000 2.160000 6.080000 15.864597 -7.702849 311.019348
4.200000 2.160000 6.120000 25.467554 0.042073 648.598083
4.200000 2.160000 6.160000 25.272526 14.466757 847.987610
4.200000 2.160000 6.200000 13.862207 24.021433 769.190063
4.200000 2.200000 5.800000 -9.890922 4.597467 118.967041
4.200000 2.200000 5.840000 -6.037393 -6.531813 79.114693
4.200000 2.200000 5.880000 3.955974 -8.905621 94.959808
4.200000 2.200000 5.920000 9.908638 -3.101311 107.799232
4.200000 2.200000 5.960000 8.568023 2.365271 79.005516
4.200000 2.200000 6.000000 6.120652 2.128918 41.994675
4.200000 2.200000 6.040000 9.142208 0.421874 83.757950
4.200000 2.200000 6.080000 15.265221 5.112149 259.161041
4.200000 2.200000 6.120000 15.319332 16.616560 510.791992
4.200000 2.200000 6.160000 4.802299 25.639486 680.445312
4.200000 2.200000 6.200000 -9.208064 23.307575 628.031494
