#kx 	ky 	kz 	real 	imag 	intensity
0.800000 0.800000 8.800000 -13.901370 -2.524479 199.621094
0.800000 0.800000 8.840000 -14.700201 -4.072978 232.685059
0.800000 0.800000 8.880000 -16.185284 -10.048522 362.936218
0.800000 0.800000 8.920000 -12.245767 -19.756901 540.293945
0.800000 0.800000 8.960000 -0.024300 -26.449955 699.600708
0.800000 0.800000 9.000000 15.646896 -23.090111 777.978577
0.800000 0.800000 9.040000 25.262102 -9.734627 732.936768
0.800000 0.800000 9.080000 23.163023 5.339139 565.032043
0.800000 0.800000 9.120000 13.017474 12.757454 332.207275
0.800000 0.800000 9.160000 4.279051 10.635710 131.428604
0.800000 0.800000 9.200000 2.794555 5.668373 39.939991
0.800000 0.840000 8.800000 -12.020609 -8.801660 221.964249
0.800000 0.840000 8.840000 -11.862284 -8.032282 205.231323
0.800000 0.840000 8.880000 -12.682278 -11.579874 294.933655
0.800000 0.840000 8.920000 -8.683973 -17.861202 394.433960
0.800000 0.840000 8.960000 1.283347 -20.260998 412.154999
0.800000 0.840000 9.000000 11.226999 -14.191401 327.441376
0.800000 0.840000 9.040000 13.531453 -2.913102 191.586380
0.800000 0.840000 9.080000 7.157006 4.858201 74.824852
0.800000 0.840000 9.120000 -0.639034 3.786519 14.746092
0.800000 0.840000 9.160000 -1.697000 -2.211699 7.771418
0.800000 0.840000 9.200000 4.085055 -4.070240 33.254528
0.800000 0.880000 8.800000 -5.345801 -14.927183 251.398392
0.800000 0.880000 8.840000 -5.712097 -11.561541 166.297272
0.800000 0.880000 8.880000 -7.749628 -12.744320 222.474426
0.800000 0.880000 8.920000 -6.223091 -16.828777 321.934601
0.800000 0.880000 8.960000 -0.576415 -18.527395 343.596619
0.800000 0.880000 9.000000 4.553706 -15.350640 256.378387
0.800000 0.880000 9.040000 5.146342 -10.714675 141.289093
0.800000 0.880000 9.080000 3.063147 -9.699717 103.467369
0.800000 0.880000 9.120000 4.080936 -12.212986 165.811066
0.800000 0.880000 9.160000 10.323694 -12.085892 252.647430
0.800000 0.880000 9.200000 16.044523 -4.226557 275.290497
0.800000 0.920000 8.800000 6.401554 -15.834693 291.717407
0.800000 0.920000 8.840000 3.863383 -10.443864 124.000023
0.800000 0.920000 8.880000 -0.889019 -10.845793 118.421570
0.800000 0.920000 8.920000 -2.343328 -15.633480 249.896881
0.800000 0.920000 8.960000 0.906375 -20.191460 408.516541
0.800000 0.920000 9.000000 6.328637 -21.782452 514.526855
0.800000 0.920000 9.040000 11.657801 -21.098911 581.068359
0.800000 0.920000 9.080000 17.307825 -19.035284 661.902832
0.800000 0.920000 9.120000 23.725605 -13.763436 752.336548
0.800000 0.920000 9.160000 27.549206 -2.978115 767.827881
0.800000 0.920000 9.200000 22.855549 10.730609 637.522095
0.800000 0.960000 8.800000 17.757332 -7.439419 370.667816
0.800000 0.960000 8.840000 11.885579 -1.636197 143.944138
0.800000 0.960000 8.880000 4.533432 -3.600875 33.518303
0.800000 0.960000 8.920000 2.155640 -11.221322 130.564850
0.800000 0.960000 8.960000 6.941826 -18.822159 402.462585
0.800000 0.960000 9.000000 16.638929 -21.694981 747.526123
0.800000 0.960000 9.040000 27.326933 -18.039373 1072.180298
0.800000 0.960000 9.080000 35.283047 -8.099191 1310.490356
0.800000 0.960000 9.120000 36.831322 6.381834 1397.274048
0.800000 0.960000 9.160000 28.824230 20.960098 1270.161987
0.800000 0.960000 9.200000 11.737839 28.292500 938.242371
0.800000 1.000000 8.800000 21.021168 7.831565 503.222900
0.800000 1.000000 8.840000 11.873512 11.921756 283.108582
0.800000 1.000000 8.880000 3.717106 6.824398 60.389278
0.800000 1.000000 8.920000 3.300087 -3.224547 21.288279
0.800000 1.000000 8.960000 11.793331 -10.634525 252.175781
0.800000 1.000000 9.000000 24.647823 -9.564779 699.000183
0.800000 1.000000 9.040000 34.736851 1.056148 1207.764282
0.800000 1.000000 9.080000 35.950188 17.394894 1594.998291
0.800000 1.000000 9.120000 25.836582 32.325329 1712.455811
0.800000 1.000000 9.160000 7.198762 38.103245 1503.679443
0.800000 1.000000 9.200000 -11.905581 30.160765 1051.414551
0.800000 1.040000 8.800000 13.375002 21.775549 653.065186
0.800000 1.040000 8.840000 2.289402 22.503729 511.659180
0.800000 1.040000 8.880000 -4.419199 14.455284 228.484558
0.800000 1.040000 8.920000 -1.516887 4.439068 22.006269
0.800000 1.040000 8.960000 9.113058 0.814818 83.711761
0.800000 1.040000 9.000000 19.865372 7.664647 453.379822
0.800000 1.040000 9.040000 22.466148 22.049166 990.893555
0.800000 1.040000 9.080000 13.244641 35.730186 1452.066772
0.800000 1.040000 9.120000 -4.405707 39.991417 1618.723755
0.800000 1.040000 9.160000 -21.543547 30.848978 1415.783813
0.800000 1.040000 9.200000 -28.552715 11.903607 956.953430
0.800000 1.080000 8.800000 -0.311222 27.400822 750.901917
0.800000 1.080000 8.840000 -11.478085 24.240166 719.332031
0.800000 1.080000 8.880000 -15.430573 14.733473 455.177795
0.800000 1.080000 8.920000 -10.264608 7.180617 156.923447
0.800000 1.080000 8.960000 -1.412714 8.141671 68.282570
0.800000 1.080000 9.000000 2.505732 17.300543 305.587463
0.800000 1.080000 9.040000 -3.699901 27.478657 768.765869
0.800000 1.080000 9.080000 -17.602030 29.859224 1201.404785
0.800000 1.080000 9.120000 -30.576181 20.520426 1355.990723
0.800000 1.080000 9.160000 -33.756069 3.560381 1152.148438
0.800000 1.080000 9.200000 -24.259663 -11.452862 719.699280
0.800000 1.120000 8.800000 -12.413057 24.704344 764.388611
0.800000 1.120000 8.840000 -22.110823 18.030931 814.002991
0.800000 1.120000 8.880000 -23.352911 8.615541 619.585999
0.800000 1.120000 8.920000 -18.254274 4.143975 350.391052
0.800000 1.120000 8.960000 -14.228758 7.065380 252.377151
0.800000 1.120000 9.000000 -17.328144 12.422862 454.592102
0.800000 1.120000 9.040000 -26.556498 12.220114 854.578735
0.800000 1.120000 9.080000 -34.304871 2.731705 1184.286255
0.800000 1.120000 9.120000 -32.739689 -11.680517 1208.321655
0.800000 1.120000 9.160000 -20.673414 -21.673418 897.127075
0.800000 1.120000 9.200000 -5.001973 -20.393425 440.911530
0.800000 1.160000 8.800000 -19.777435 18.914165 748.892578
0.800000 1.160000 8.840000 -26.895018 9.357164 810.898499
0.800000 1.160000 8.880000 -26.069712 0.773243 680.227783
0.800000 1.160000 8.920000 -22.743933 -1.878935 520.816895
0.800000 1.160000 8.960000 -23.526239 -0.997793 554.479553
0.800000 1.160000 9.000000 -29.037479 -3.662132 856.586426
0.800000 1.160000 9.040000 -32.652618 -13.794048 1256.469238
0.800000 1.160000 9.080000 -26.894327 -26.940191 1449.078735
0.800000 1.160000 9.120000 -11.603494 -33.268635 1241.443115
0.800000 1.160000 9.160000 4.338308 -26.545055 723.460876
0.800000 1.160000 9.200000 9.940118 -10.611091 211.401184
0.800000 1.200000 8.800000 -25.068808 13.463624 809.714294
0.800000 1.200000 8.840000 -28.500866 1.758454 815.391541
0.800000 1.200000 8.880000 -25.925303 -5.838873 706.213745
0.800000 1.200000 8.920000 -24.410744 -8.499318 668.122803
0.800000 1.200000 8.960000 -27.074865 -12.289995 884.092285
0.800000 1.200000 9.000000 -28.771605 -22.505072 1334.283447
0.800000 1.200000 9.040000 -21.308329 -35.925602 1744.693848
0.800000 1.200000 9.080000 -3.435563 -41.963120 1772.706543
0.800000 1.200000 9.120000 15.039121 -32.777237 1300.522461
0.800000 1.200000 9.160000 20.531939 -12.600610 580.335815
0.800000 1.200000 9.200000 8.273928 3.779625 82.743446
0.840000 0.800000 8.800000 -18.004852 -10.360437 431.513367
0.840000 0.800000 8.840000 -11.575941 -11.352108 262.872772
0.840000 0.800000 8.880000 -7.758132 -11.793613 199.277939
0.840000 0.800000 8.920000 -3.597337 -14.045340 210.212387
0.840000 0.800000 8.960000 4.297656 -15.697538 264.882538
0.840000 0.800000 9.000000 14.726271 -11.741000 354.714142
0.840000 0.800000 9.040000 21.572866 -0.495779 465.634369
0.840000 0.800000 9.080000 19.348078 13.124031 546.588318
0.840000 0.800000 9.120000 9.058805 21.191677 531.149109
0.840000 0.800000 9.160000 -2.110563 19.926893 401.535553
0.840000 0.800000 9.200000 -7.330997 12.980586 222.239136
0.840000 0.840000 8.800000 -7.559957 -21.196095 506.427368
0.840000 0.840000 8.840000 0.628805 -15.167372 230.444565
0.840000 0.840000 8.880000 2.583770 -8.062361 71.677528
0.840000 0.840000 8.920000 0.847131 -4.163360 18.051197
0.840000 0.840000 8.960000 -0.401757 -3.609821 13.192215
0.840000 0.840000 9.000000 0.488166 -3.492429 12.435365
0.840000 0.840000 9.040000 1.846820 -1.766798 6.532319
0.840000 0.840000 9.080000 1.679354 0.666714 3.264736
0.840000 0.840000 9.120000 0.422947 1.871443 3.681182
0.840000 0.840000 9.160000 0.041907 1.936966 3.753593
0.840000 0.840000 9.200000 0.802505 2.980642 9.528242
0.840000 0.880000 8.800000 10.040913 -22.354532 600.545044
0.840000 0.880000 8.840000 15.204517 -8.092056 296.658722
0.840000 0.880000 8.880000 8.910084 4.959541 103.986641
0.840000 0.880000 8.920000 -4.264587 8.633042 92.716125
0.840000 0.880000 8.960000 -15.043331 1.095712 227.502396
0.840000 0.880000 9.000000 -16.150640 -11.951791 403.688507
0.840000 0.880000 9.040000 -7.062292 -21.691111 520.380249
0.840000 0.880000 9.080000 6.473011 -22.175474 533.651489
0.840000 0.880000 9.120000 16.806602 -13.375220 461.358398
0.840000 0.880000 9.160000 18.801649 -0.155674 353.526245
0.840000 0.880000 9.200000 11.886024 10.841318 258.811737
0.840000 0.920000 8.800000 25.216309 -9.414740 724.499573
0.840000 0.920000 8.840000 21.541645 10.290982 569.946777
0.840000 0.920000 8.880000 3.048029 21.762579 482.900299
0.840000 0.920000 8.920000 -19.323780 14.995769 598.281555
0.840000 0.920000 8.960000 -29.689400 -7.735098 941.292175
0.840000 0.920000 9.000000 -19.191992 -32.037193 1394.714233
0.840000 0.920000 9.040000 6.724628 -41.409534 1759.970093
0.840000 0.920000 9.080000 31.902487 -29.222843 1871.743164
0.840000 0.920000 9.120000 40.952538 -3.186571 1687.264648
0.840000 0.920000 9.160000 29.576242 20.604076 1299.281982
0.840000 0.920000 9.200000 6.395319 28.829826 872.058960
0.840000 0.960000 8.800000 26.884407 12.155651 870.531250
0.840000 0.960000 8.840000 11.620143 30.051117 1038.097412
0.840000 0.960000 8.880000 -15.471941 30.591631 1175.228882
0.840000 0.960000 8.920000 -36.176361 8.201382 1375.991821
0.840000 0.960000 8.960000 -33.107273 -25.202026 1731.233643
0.840000 0.960000 9.000000 -4.475303 -46.984009 2227.525391
0.840000 0.960000 9.040000 32.481979 -40.638695 2706.582520
0.840000 0.960000 9.080000 53.432224 -9.038191 2936.691650
0.840000 0.960000 9.120000 44.975861 27.178816 2761.516113
0.840000 0.960000 9.160000 14.208946 44.883614 2216.432861
0.840000 0.960000 9.200000 -17.399311 34.940872 1523.600586
0.840000 1.000000 8.800000 12.229237 29.054054 993.692261
0.840000 1.000000 8.840000 -10.990840 37.236633 1507.365479
0.840000 1.000000 8.880000 -36.308872 23.119007 1852.822754
0.840000 1.000000 8.920000 -43.636269 -9.112169 1987.155518
0.840000 1.000000 8.960000 -22.764069 -39.041409 2042.434326
0.840000 1.000000 9.000000 15.886597 -44.177254 2204.013672
0.840000 1.000000 9.040000 46.798893 -18.215878 2521.954590
0.840000 1.000000 9.080000 48.283234 22.349766 2830.782715
0.840000 1.000000 9.120000 19.524033 49.864426 2867.648682
0.840000 1.000000 9.160000 -18.597382 46.396278 2498.477295
0.840000 1.000000 9.200000 -39.640560 16.776304 1852.818359
0.840000 1.040000 8.800000 -9.510952 30.533611 1022.759583
0.840000 1.040000 8.840000 -32.040569 26.074215 1706.462646
0.840000 1.040000 8.880000 -45.699127 3.005936 2097.445801
0.840000 1.040000 8.920000 -36.881039 -25.909666 2031.521851
0.840000 1.040000 8.960000 -7.217692 -40.090652 1659.355469
0.840000 1.040000 9.000000 24.748568 -26.984699 1340.665527
0.840000 1.040000 9.040000 36.314968 6.291264 1358.356812
0.840000 1.040000 9.080000 18.581661 36.604527 1685.169434
0.840000 1.040000 9.120000 -15.530249 42.126453 2015.826660
0.840000 1.040000 9.160000 -40.701405 19.478388 2036.011963
0.840000 1.040000 9.200000 -38.796379 -13.669314 1692.009277
0.840000 1.080000 8.800000 -24.361324 17.671267 905.747803
0.840000 1.080000 8.840000 -38.331009 4.916409 1493.437256
0.840000 1.080000 8.880000 -38.481560 -16.085518 1739.574341
0.840000 1.080000 8.920000 -22.107645 -31.646202 1490.230103
0.840000 1.080000 8.960000 1.294022 -30.076321 906.259583
0.840000 1.080000 9.000000 15.650467 -11.377317 374.380493
0.840000 1.080000 9.040000 10.418288 11.221786 234.469223
0.840000 1.080000 9.080000 -10.346916 20.583961 530.758118
0.840000 1.080000 9.120000 -30.107698 9.213168 991.355957
0.840000 1.080000 9.160000 -32.506466 -14.141076 1256.640381
0.840000 1.080000 9.200000 -14.535605 -30.907366 1166.549072
0.840000 1.120000 8.800000 -25.687838 1.882488 663.408752
0.840000 1.120000 8.840000 -29.335430 -11.091689 983.593018
0.840000 1.120000 8.880000 -22.939060 -22.363520 1026.327515
0.840000 1.120000 8.920000 -11.408792 -25.435724 777.136597
0.840000 1.120000 8.960000 -2.652265 -19.825626 400.089966
0.840000 1.120000 9.000000 -1.954100 -11.224367 129.804932
0.840000 1.120000 9.040000 -8.111372 -7.266617 118.598076
0.840000 1.120000 9.080000 -14.207792 -11.653346 337.661835
0.840000 1.120000 9.120000 -12.876577 -20.906471 602.886780
0.840000 1.120000 9.160000 -2.405430 -26.565187 711.495239
0.840000 1.120000 9.200000 11.061140 -21.686268 592.643066
0.840000 1.160000 8.800000 -19.066832 -6.331873 403.636688
0.840000 1.160000 8.840000 -16.755993 -13.994457 476.608154
0.840000 1.160000 8.880000 -12.848490 -16.487879 436.933838
0.840000 1.160000 8.920000 -11.977430 -16.758730 424.313873
0.840000 1.160000 8.960000 -13.320275 -19.736805 566.971191
0.840000 1.160000 9.000000 -11.911325 -26.605511 849.732910
0.840000 1.160000 9.040000 -4.077913 -33.111557 1113.004639
0.840000 1.160000 9.080000 8.420166 -33.258144 1177.003296
0.840000 1.160000 9.120000 19.258615 -24.645123 978.276367
0.840000 1.160000 9.160000 22.266083 -10.701959 610.310364
0.840000 1.160000 9.200000 15.770838 1.655448 251.459839
0.840000 1.200000 8.800000 -14.952686 -6.981523 272.324493
0.840000 1.200000 8.840000 -12.147626 -9.581107 239.362427
0.840000 1.200000 8.880000 -14.172215 -10.086876 302.596741
0.840000 1.200000 8.920000 -19.546558 -16.541119 655.676514
0.840000 1.200000 8.960000 -19.044430 -31.046232 1326.558838
0.840000 1.200000 9.000000 -5.225554 -45.142998 2065.196777
0.840000 1.200000 9.040000 18.271921 -46.206360 2468.890625
0.840000 1.200000 9.080000 37.518860 -29.386679 2271.241699
0.840000 1.200000 9.120000 39.316254 -3.566088 1558.484863
0.840000 1.200000 9.160000 22.545563 14.774825 726.597839
0.840000 1.200000 9.200000 -0.548913 14.490715 210.282120
0.880000 0.800000 8.800000 -14.221594 -24.293301 792.418152
0.880000 0.800000 8.840000 -2.406763 -17.579697 314.838257
0.880000 0.800000 8.880000 0.190465 -8.944684 80.043648
0.880000 0.800000 8.920000 -2.077374 -6.074345 41.213142
0.880000 0.800000 8.960000 -0.863949 -8.515885 73.266708
0.880000 0.800000 9.000000 6.715923 -8.544010 118.103729
0.880000 0.800000 9.040000 14.472084 -0.132372 209.458740
0.880000 0.800000 9.080000 13.590334 13.595945 369.546906
0.880000 0.800000 9.120000 2.405855 22.715874 521.799072
0.880000 0.800000 9.160000 -11.097099 20.417885 540.035645
0.880000 0.800000 9.200000 -16.905649 9.906693 383.943512
0.880000 0.840000 8.800000 8.796262 -29.472309 945.991211
0.880000 0.840000 8.840000 18.090075 -10.045057 428.153961
0.880000 0.840000 8.880000 10.621935 8.483436 184.794189
0.880000 0.840000 8.920000 -6.343969 13.587789 224.873962
0.880000 0.840000 8.960000 -18.499018 3.923183 357.605011
0.880000 0.840000 9.000000 -16.974388 -9.962448 387.380219
0.880000 0.840000 9.040000 -5.343351 -15.718060 275.608826
0.880000 0.840000 9.080000 5.226181 -9.979467 126.902733
0.880000 0.840000 9.120000 6.975723 0.476433 48.887703
0.880000 0.840000 9.160000 1.446070 6.980894 50.824001
0.880000 0.840000 9.200000 -4.541584 7.111821 71.203987
0.880000 0.880000 8.800000 31.101368 -14.939436 1190.481812
0.880000 0.880000 8.840000 28.354191 15.769496 1052.637207
0.880000 0.880000 8.880000 1.547319 35.658989 1273.957642
0.880000 0.880000 8.920000 -32.595211 27.913189 1841.593872
0.880000 0.880000 8.960000 -49.127823 -3.910143 2428.832275
0.880000 0.880000 9.000000 -35.585163 -37.162354 2647.344238
0.880000 0.880000 9.040000 -2.475769 -48.415386 2350.178955
0.880000 0.880000 9.080000 26.109535 -32.157307 1715.800293
0.880000 0.880000 9.120000 32.562580 -3.207882 1070.612183
0.880000 0.880000 9.160000 18.004223 17.738010 638.789062
0.880000 0.880000 9.200000 -2.631611 20.695400 435.224976
0.880000 0.920000 8.800000 36.143814 13.716209 1494.509644
0.880000 0.920000 8.840000 13.545111 45.702461 2272.184814
0.880000 0.920000 8.880000 -32.001797 50.448917 3569.208252
0.880000 0.920000 8.920000 -69.684624 15.702374 5102.511230
0.880000 0.920000 8.960000 -68.718124 -39.419647 6276.089355
0.880000 0.920000 9.000000 -25.679703 -76.793747 6556.727051
0.880000 0.920000 9.040000 30.517532 -70.043701 5837.439941
0.880000 0.920000 9.080000 61.705139 -26.058102 4486.548828
0.880000 0.920000 9.120000 50.859756 21.989967 3070.273438
0.880000 0.920000 9.160000 12.961679 42.745094 1995.148193
0.880000 0.920000 9.200000 -21.240864 29.895788 1344.932495
0.880000 0.960000 8.800000 17.324694 38.143806 1755.094971
0.880000 0.960000 8.840000 -23.007412 56.234932 3691.708740
0.880000 0.960000 8.880000 -71.826324 33.584946 6286.969727
0.880000 0.960000 8.920000 -89.934494 -25.794800 8753.584961
0.880000 0.960000 8.960000 -55.232323 -84.375809 10169.886719
0.880000 0.960000 9.000000 14.381697 -99.156937 10038.930664
0.880000 0.960000 9.040000 72.208328 -57.947090 8571.908203
0.880000 0.960000 9.080000 80.024330 9.388947 6492.045898
0.880000 0.960000 9.120000 38.377678 55.503273 4553.459473
0.880000 0.960000 9.160000 -16.624743 53.668556 3156.696045
0.880000 0.960000 9.200000 -45.247650 15.708595 2294.109863
0.880000 1.000000 8.800000 -14.185701 40.645355 1853.279053
0.880000 1.000000 8.840000 -58.090458 35.014832 4600.539551
0.880000 1.000000 8.880000 -88.654327 -10.665201 7973.336426
0.880000 1.000000 8.920000 -73.324303 -73.062881 10714.637695
0.880000 1.000000 8.960000 -11.412740 -107.707138 11731.078125
0.880000 1.000000 9.000000 59.337219 -85.194969 10779.087891
0.880000 1.000000 9.040000 90.662048 -18.253834 8552.809570
0.880000 1.000000 9.080000 63.103729 46.432858 6138.090820
0.880000 1.000000 9.120000 1.665852 65.726257 4322.715820
0.880000 1.000000 9.160000 -46.117599 33.821095 3270.699463
0.880000 1.000000 9.200000 -49.215370 -16.811939 2704.793945
0.880000 1.040000 8.800000 -36.823635 19.280819 1727.730103
0.880000 1.040000 8.840000 -66.562592 -5.767404 4463.841797
0.880000 1.040000 8.880000 -67.994904 -54.186447 7559.478516
0.880000 1.040000 8.920000 -27.922737 -94.273979 9667.262695
0.880000 1.040000 8.960000 34.473145 -93.070923 9850.593750
0.880000 1.040000 9.000000 78.430260 -45.344360 8207.416992
0.880000 1.040000 9.040000 73.539253 18.466467 5749.032227
0.880000 1.040000 9.080000 25.485329 54.886131 3661.989258
0.880000 1.040000 9.120000 -27.958853 42.204765 2562.939697
0.880000 1.040000 9.160000 -47.848183 -2.969275 2298.265137
0.880000 1.040000 9.200000 -24.773718 -41.406723 2328.253906
0.880000 1.080000 8.800000 -36.161419 -9.838031 1404.435059
0.880000 1.080000 8.840000 -43.466034 -37.988518 3332.423584
0.880000 1.080000 8.880000 -24.700066 -68.083275 5245.425781
0.880000 1.080000 8.920000 15.010351 -77.328110 6204.947266
0.880000 1.080000 8.960000 52.628471 -54.333321 5721.865723
0.880000 1.080000 9.000000 63.134388 -10.663818 4099.667969
0.880000 1.080000 9.040000 39.642784 25.668312 2230.412598
0.880000 1.080000 9.080000 0.298244 31.417398 987.141846
0.880000 1.080000 9.120000 -25.345785 6.726873 687.659668
0.880000 1.080000 9.160000 -19.821651 -25.076143 1021.710815
0.880000 1.080000 9.200000 8.740017 -36.785583 1429.567139
0.880000 1.120000 8.800000 -16.716766 -26.301855 971.237915
0.880000 1.120000 8.840000 -8.637358 -41.649200 1809.259888
0.880000 1.120000 8.880000 9.380762 -47.953224 2387.510498
0.880000 1.120000 8.920000 28.102436 -40.622025 2439.895752
0.880000 1.120000 8.960000 37.749454 -22.999687 1954.006958
0.880000 1.120000 9.000000 33.856277 -4.508766 1166.576538
0.880000 1.120000 9.040000 20.293655 5.031870 437.152161
0.880000 1.120000 9.080000 7.109276 1.955322 54.365086
0.880000 1.120000 9.120000 3.716235 -8.268555 82.179398
0.880000 1.120000 9.160000 11.622997 -14.581107 347.702759
0.880000 1.120000 9.200000 22.559612 -8.889925 587.966858
0.880000 1.160000 8.800000 3.303961 -22.824654 531.880920
0.880000 1.160000 8.840000 11.475977 -21.685644 601.965210
0.880000 1.160000 8.880000 13.620440 -16.672424 463.486084
0.880000 1.160000 8.920000 11.277645 -15.582859 370.010773
0.880000 1.160000 8.960000 11.862757 -19.700516 528.835327
0.880000 1.160000 9.000000 19.418499 -22.548075 885.493774
0.880000 1.160000 9.040000 29.643589 -17.364647 1180.273315
0.880000 1.160000 9.080000 34.243801 -4.610481 1193.894531
0.880000 1.160000 9.120000 29.225189 8.503263 926.417175
0.880000 1.160000 9.160000 18.071518 15.168814 556.672668
0.880000 1.160000 9.200000 7.191955 14.511679 262.313049
0.880000 1.200000 8.800000 9.322140 -9.923244 185.373047
0.880000 1.200000 8.840000 7.424431 -1.291672 56.790588
0.880000 1.200000 8.880000 -4.494673 -1.989662 24.160839
0.880000 1.200000 8.920000 -10.954519 -18.101496 447.665649
0.880000 1.200000 8.960000 1.968838 -37.468742 1407.782959
0.880000 1.200000 9.000000 30.376961 -40.024830 2524.746826
0.880000 1.200000 9.040000 53.621929 -17.725662 3189.510254
0.880000 1.200000 9.080000 52.605659 16.099506 3026.549561
0.880000 1.200000 9.120000 27.358324 37.787323 2176.359863
0.880000 1.200000 9.160000 -3.207033 33.935955 1161.934082
0.880000 1.200000 9.200000 -18.449093 11.646532 476.010742
0.920000 0.800000 8.800000 1.950278 -34.020367 1161.188965
0.920000 0.800000 8.840000 11.055134 -16.376925 390.419617
0.920000 0.800000 8.880000 4.794930 -2.329995 28.420225
0.920000 0.800000 8.920000 -5.910217 -1.831899 38.286522
0.920000 0.800000 8.960000 -7.391335 -10.478268 164.425919
0.920000 0.800000 9.000000 2.860538 -14.473766 217.672592
0.920000 0.800000 9.040000 13.816641 -5.334063 219.351791
0.920000 0.800000 9.080000 12.770901 11.048786 285.171570
0.920000 0.800000 9.120000 -1.147976 20.551046 423.663361
0.920000 0.800000 9.160000 -16.049231 15.523815 498.566620
0.920000 0.800000 9.200000 -19.660456 2.391651 392.253510
0.920000 0.840000 8.800000 29.905699 -22.431034 1397.502075
0.920000 0.840000 8.840000 27.230999 9.024761 822.973572
0.920000 0.840000 8.880000 1.433079 27.311701 747.982727
0.920000 0.840000 8.920000 -27.981003 18.478935 1124.407593
0.920000 0.840000 8.960000 -37.847900 -9.266953 1518.340088
0.920000 0.840000 9.000000 -21.827660 -32.371754 1524.377197
0.920000 0.840000 9.040000 4.715965 -33.022972 1112.757080
0.920000 0.840000 9.080000 19.889242 -13.968125 590.690430
0.920000 0.840000 9.120000 14.941645 6.673927 267.794067
0.920000 0.840000 9.160000 -0.621845 13.857670 192.421707
0.920000 0.840000 9.200000 -11.566467 8.058635 198.724762
0.920000 0.880000 8.800000 41.610630 9.368937 1819.221558
0.920000 0.880000 8.840000 15.799011 46.142426 2378.732178
0.920000 0.880000 8.880000 -34.696129 51.039631 3808.865234
0.920000 0.880000 8.920000 -74.199448 12.907265 5672.155762
0.920000 0.880000 8.960000 -70.756073 -44.208435 6960.807617
0.920000 0.880000 9.000000 -25.052231 -78.973740 6864.465820
0.920000 0.880000 9.040000 29.120527 -67.601974 5418.032227
0.920000 0.880000 9.080000 53.941513 -22.981689 3437.844727
0.920000 0.880000 9.120000 38.505207 19.142271 1849.077515
0.920000 0.880000 9.160000 3.473434 32.067043 1040.359985
0.920000 0.880000 9.200000 -21.808805 17.434807 779.596497
0.920000 0.920000 8.800000 24.380224 41.858467 2346.526611
0.920000 0.920000 8.840000 -27.176468 65.385178 5013.782227
0.920000 0.920000 8.880000 -88.916061 36.756042 9257.072266
0.920000 0.920000 8.920000 -110.898369 -37.306725 13690.240234
0.920000 0.920000 8.960000 -67.338348 -108.267624 16256.331055
0.920000 0.920000 9.000000 16.551630 -123.992531 15648.103516
0.920000 0.920000 9.040000 82.818993 -73.557793 12269.734375
0.920000 0.920000 9.080000 88.827934 3.574142 7903.176270
0.920000 0.920000 9.120000 40.775921 52.366280 4404.903320
0.920000 0.920000 9.160000 -16.882202 47.630791 2553.700928
0.920000 0.920000 9.200000 -42.874149 8.711403 1914.081177
0.920000 0.960000 8.800000 -13.442692 50.835144 2764.917969
0.920000 0.960000 8.840000 -76.477875 43.498203 7740.958984
0.920000 0.960000 8.880000 -120.542999 -21.870117 15008.916016
0.920000 0.960000 8.920000 -98.349174 -110.837112 21957.425781
0.920000 0.960000 8.960000 -10.319243 -159.065338 25408.267578
0.920000 0.960000 9.000000 88.183197 -126.385086 23749.466797
0.920000 0.960000 9.040000 130.050781 -33.799831 18055.632812
0.920000 0.960000 9.080000 92.111160 52.694798 11261.207031
0.920000 0.960000 9.120000 12.151812 77.296341 6122.390625
0.920000 0.960000 9.160000 -46.926220 37.743538 3626.644775
0.920000 0.960000 9.200000 -50.285633 -20.786652 2960.729736
0.920000 1.000000 8.800000 -46.023563 27.521015 2875.574707
0.920000 1.000000 8.840000 -95.008087 -11.958655 9169.546875
0.920000 1.000000 8.880000 -97.870697 -91.555603 17961.101562
0.920000 1.000000 8.920000 -31.224627 -157.610458 25816.033203
0.920000 1.000000 8.960000 72.166122 -154.416229 29052.320312
0.920000 1.000000 9.000000 143.681641 -74.582108 26206.904297
0.920000 1.000000 9.040000 134.635590 29.807213 19015.212891
0.920000 1.000000 9.080000 57.388947 88.504089 11126.464844
0.920000 1.000000 9.120000 -26.278688 70.344925 5638.978027
0.920000 1.000000 9.160000 -58.220085 4.848696 3413.088135
0.920000 1.000000 9.200000 -29.279318 -48.882683 3246.794922
0.920000 1.040000 8.800000 -49.883110 -12.419563 2642.570312
0.920000 1.040000 8.840000 -66.003677 -64.420319 8506.462891
0.920000 1.040000 8.880000 -30.225197 -124.016075 16293.549805
0.920000 1.040000 8.920000 50.027782 -142.219131 22729.060547
0.920000 1.040000 8.960000 126.469757 -93.218208 24684.234375
0.920000 1.040000 9.000000 145.851349 -1.429573 21274.658203
0.920000 1.040000 9.040000 94.701019 73.992477 14443.169922
0.920000 1.040000 9.080000 11.987637 86.217400 7577.143555
0.920000 1.040000 9.120000 -42.936203 38.003677 3287.797119
0.920000 1.040000 9.160000 -38.550571 -23.840910 2054.535645
0.920000 1.040000 9.200000 7.161418 -50.136143 2564.918701
0.920000 1.080000 8.800000 -23.305508 -40.663727 2196.685303
0.920000 1.080000 8.840000 -9.594692 -77.899506 6160.391113
0.920000 1.080000 8.880000 36.499237 -98.100098 10955.823242
0.920000 1.080000 8.920000 91.965881 -77.430603 14453.221680
0.920000 1.080000 8.960000 120.540756 -19.287582 14902.084961
0.920000 1.080000 9.000000 100.771286 43.908813 12082.835938
0.920000 1.080000 9.040000 44.888134 73.802292 7461.722656
0.920000 1.080000 9.080000 -9.240646 55.954269 3216.270020
0.920000 1.080000 9.120000 -27.583344 10.906570 879.794067
0.920000 1.080000 9.160000 -6.011271 -23.445599 585.831482
0.920000 1.080000 9.200000 29.084425 -22.716419 1361.939453
0.920000 1.120000 8.800000 12.486240 -39.349281 1704.272217
0.920000 1.120000 8.840000 33.672249 -47.681934 3407.387207
0.920000 1.120000 8.880000 58.942780 -38.649162 4968.008789
0.920000 1.120000 8.920000 74.677231 -13.372910 5755.523438
0.920000 1.120000 8.960000 71.731934 17.619751 5455.925781
0.920000 1.120000 9.000000 50.892155 40.123058 4199.871094
0.920000 1.120000 9.040000 22.904057 44.427433 2498.392578
0.920000 1.120000 9.080000 2.374726 31.510811 998.570557
0.920000 1.120000 9.120000 -1.553238 12.856571 167.703979
0.920000 1.120000 9.160000 8.308891 2.807960 76.922310
0.920000 1.120000 9.200000 19.014349 8.003534 425.602051
0.920000 1.160000 8.800000 31.878458 -14.883571 1237.756714
0.920000 1.160000 8.840000 37.681728 -2.889145 1428.259766
0.920000 1.160000 8.880000 32.934406 6.853565 1131.646484
0.920000 1.160000 8.920000 26.663137 7.687256 770.016846
0.920000 1.160000 8.960000 27.730461 5.266235 796.711670
0.920000 1.160000 9.000000 33.932262 9.785172 1247.148071
0.920000 1.160000 9.040000 34.517685 23.102882 1725.213745
0.920000 1.160000 9.080000 22.868876 35.706528 1797.941650
0.920000 1.160000 9.120000 4.543652 36.899895 1382.246948
0.920000 1.160000 9.160000 -8.440855 26.325047 764.256104
0.920000 1.160000 9.200000 -10.280619 13.785263 295.724609
0.920000 1.200000 8.800000 26.177429 9.803829 781.372864
0.920000 1.200000 8.840000 11.123397 21.130762 570.239075
0.920000 1.200000 8.880000 -7.242041 10.782303 168.705200
0.920000 1.200000 8.920000 -5.501617 -13.595989 215.118713
0.920000 1.200000 8.960000 20.881344 -25.736893 1098.418213
0.920000 1.200000 9.000000 49.718254 -7.493759 2528.061279
0.920000 1.200000 9.040000 52.470604 30.838711 3704.190430
0.920000 1.200000 9.080000 22.533833 58.566669 3937.828369
0.920000 1.200000 9.120000 -17.684759 53.417484 3166.178467
0.920000 1.200000 9.160000 -38.060181 21.882284 1927.411743
0.920000 1.200000 9.200000 -28.321836 -8.860674 880.637939
0.960000 0.800000 8.800000 23.075115 -29.008842 1373.973877
0.960000 0.800000 8.840000 21.186975 -5.452956 478.622681
0.960000 0.800000 8.880000 4.431953 5.057436 45.219872
0.960000 0.800000 8.920000 -9.429668 -2.880013 97.213120
0.960000 0.800000 8.960000 -6.801739 -16.997467 335.177521
0.960000 0.800000 9.000000 8.549860 -19.784241 464.516266
0.960000 0.800000 9.040000 19.881989 -6.067158 432.103851
0.960000 0.800000 9.080000 14.797882 12.306177 370.419312
0.960000 0.800000 9.120000 -2.530891 19.164768 373.693756
0.960000 0.800000 9.160000 -16.574492 10.395508 382.780365
0.960000 0.800000 9.200000 -16.807467 -3.034586 291.699646
0.960000 0.840000 8.800000 40.290611 -0.112572 1623.346069
0.960000 0.840000 8.840000 18.096424 30.243313 1242.138550
0.960000 0.840000 8.880000 -21.074816 32.457897 1497.662964
0.960000 0.840000 8.920000 -47.277050 2.673592 2242.267578
0.960000 0.840000 8.960000 -39.534695 -35.860260 2848.950195
0.960000 0.840000 9.000000 -5.086220 -52.507149 2782.870361
0.960000 0.840000 9.040000 27.406792 -36.165943 2059.107666
0.960000 0.840000 9.080000 33.997646 -3.450871 1167.748413
0.960000 0.840000 9.120000 15.239447 18.821062 586.473145
0.960000 0.840000 9.160000 -8.451674 18.153873 400.993896
0.960000 0.840000 9.200000 -18.726316 4.007028 366.731201
0.960000 0.880000 8.800000 29.090031 35.844894 2131.086426
0.960000 0.880000 8.840000 -20.091331 57.058048 3659.282471
0.960000 0.880000 8.880000 -75.628555 29.429260 6585.759766
0.960000 0.880000 8.920000 -92.352493 -36.816223 9884.417969
0.960000 0.880000 8.960000 -51.226776 -95.739090 11790.156250
0.960000 0.880000 9.000000 20.583580 -103.506927 11137.367188
0.960000 0.880000 9.040000 71.493523 -56.439209 8296.708008
0.960000 0.880000 9.080000 69.361343 6.968906 4859.561523
0.960000 0.880000 9.120000 26.089849 41.232727 2380.818115
0.960000 0.880000 9.160000 -18.344425 31.651058 1338.307373
0.960000 0.880000 9.200000 -33.814014 0.065121 1143.391846
0.960000 0.920000 8.800000 -8.263602 52.420937 2816.241699
0.960000 0.920000 8.840000 -75.313797 43.497772 7564.224121
0.960000 0.920000 8.880000 -120.162018 -25.959862 15112.824219
0.960000 0.920000 8.920000 -94.799828 -117.250946 22734.791016
0.960000 0.920000 8.960000 -3.401123 -163.283997 26673.232422
0.960000 0.920000 9.000000 94.278549 -126.170815 24807.519531
0.960000 0.920000 9.040000 131.248474 -32.139557 18259.113281
0.960000 0.920000 9.080000 89.388458 50.479607 10538.487305
0.960000 0.920000 9.120000 11.107016 69.638985 4972.954102
0.960000 0.920000 9.160000 -42.071941 29.360128 2632.065430
0.960000 0.920000 9.200000 -42.088356 -23.341669 2316.263184
0.960000 0.960000 8.800000 -47.404263 33.926456 3398.168457
0.960000 0.960000 8.840000 -106.100235 -14.123884 11456.744141
0.960000 0.960000 8.880000 -108.267387 -109.640076 23742.773438
0.960000 0.960000 8.920000 -27.281010 -186.725632 35610.714844
0.960000 0.960000 8.960000 94.871162 -179.626663 41266.273438
0.960000 0.960000 9.000000 175.663345 -83.202957 37780.343750
0.960000 0.960000 9.040000 160.652649 37.736900 27233.347656
0.960000 0.960000 9.080000 69.345505 101.779617 15167.889648
0.960000 0.960000 9.120000 -24.398174 77.945786 6670.816406
0.960000 0.960000 9.160000 -57.397900 5.052199 3320.043457
0.960000 0.960000 9.200000 -25.825310 -50.485348 3215.716797
0.960000 1.000000 8.800000 -59.308823 -9.378443 3605.491455
0.960000 1.000000 8.840000 -82.421021 -81.066864 13365.060547
0.960000 1.000000 8.880000 -32.517082 -163.729980 27864.867188
0.960000 1.000000 8.920000 79.356339 -187.295120 41376.890625
0.960000 1.000000 8.960000 183.518677 -116.518959 47255.773438
0.960000 1.000000 9.000000 205.793365 11.306361 42478.742188
0.960000 1.000000 9.040000 131.202087 112.240524 29811.923828
0.960000 1.000000 9.080000 17.550976 124.448685 15795.512695
0.960000 1.000000 9.120000 -54.397545 57.207878 6231.833984
0.960000 1.000000 9.160000 -47.482590 -23.570274 2810.154297
0.960000 1.000000 9.200000 8.896850 -56.130043 3229.735840
0.960000 1.040000 8.800000 -33.988358 -47.258804 3388.603027
0.960000 1.040000 8.840000 -15.174202 -109.786087 12283.242188
0.960000 1.040000 8.880000 61.295414 -145.795120 25013.343750
0.960000 1.040000 8.920000 155.497299 -110.333984 36353.000000
0.960000 1.040000 8.960000 201.481476 -9.204967 40679.515625
0.960000 1.040000 9.000000 161.735718 97.958412 35754.292969
0.960000 1.040000 9.040000 61.477962 143.243301 24298.181641
0.960000 1.040000 9.080000 -30.427383 105.546997 12065.994141
0.960000 1.040000 9.120000 -57.811329 25.527876 3993.822021
0.960000 1.040000 9.160000 -20.055126 -32.026093 1427.878784
0.960000 1.040000 9.200000 35.263111 -32.365585 2291.018066
0.960000 1.080000 8.800000 10.573925 -53.155720 2937.338379
0.960000 1.080000 8.840000 49.790833 -80.334312 8932.728516
0.960000 1.080000 8.880000 110.333633 -68.481514 16863.228516
0.960000 1.080000 8.920000 152.737701 -8.732025 23405.052734
0.960000 1.080000 8.960000 142.474609 71.123711 25357.595703
0.960000 1.080000 9.000000 79.463089 124.062698 21705.935547
0.960000 1.080000 9.040000 1.152538 119.600998 14305.726562
0.960000 1.080000 9.080000 -45.502502 67.727432 6657.482422
0.960000 1.080000 9.120000 -39.945038 9.911417 1693.842285
0.960000 1.080000 9.160000 -1.202015 -14.810645 220.800049
0.960000 1.080000 9.200000 31.602074 0.955093 999.603271
0.960000 1.120000 8.800000 42.961327 -25.242155 2482.841797
0.960000 1.120000 8.840000 69.689850 -17.600910 5166.467285
0.960000 1.120000 8.880000 88.551636 10.549469 7952.683594
0.960000 1.120000 8.920000 86.079147 48.883194 9799.186523
0.960000 1.120000 8.960000 59.811180 80.180061 10006.219727
0.960000 1.120000 9.000000 20.065590 90.031281 8508.258789
0.960000 1.120000 9.040000 -15.565872 75.129562 5886.747559
0.960000 1.120000 9.080000 -32.201603 45.425030 3100.376465
0.960000 1.120000 9.120000 -26.600695 18.296247 1042.349609
0.960000 1.120000 9.160000 -9.108479 7.536703 139.766266
0.960000 1.120000 9.200000 3.657604 14.207939 215.243607
0.960000 1.160000 8.800000 43.704773 13.563095 2094.064697
0.960000 1.160000 8.840000 39.814758 31.289780 2564.265137
0.960000 1.160000 8.880000 26.467113 39.499992 2260.757568
0.960000 1.160000 8.920000 16.723297 37.541359 1689.022339
0.960000 1.160000 8.960000 15.283737 36.320389 1552.763306
0.960000 1.160000 9.000000 13.453625 43.356552 2060.790771
0.960000 1.160000 9.040000 0.779733 52.370697 2743.297852
0.960000 1.160000 9.080000 -20.630293 49.911377 2916.754395
0.960000 1.160000 9.120000 -36.333572 31.506765 2312.804688
0.960000 1.160000 9.160000 -34.746857 8.442774 1278.624390
0.960000 1.160000 9.200000 -20.133945 -3.289555 416.196930
0.960000 1.200000 8.800000 19.198154 36.036934 1667.229736
0.960000 1.200000 8.840000 -6.689228 37.630127 1460.772217
0.960000 1.200000 8.880000 -20.922962 14.716787 654.354187
0.960000 1.200000 8.920000 -5.931213 -8.886962 114.157387
0.960000 1.200000 8.960000 24.449226 -4.851234 621.299133
0.960000 1.200000 9.000000 36.769707 28.329716 2154.584229
0.960000 1.200000 9.040000 12.269167 60.848030 3853.015137
0.960000 1.200000 9.080000 -32.322552 60.299984 4680.835449
0.960000 1.200000 9.120000 -60.131741 24.199217 4201.428223
0.960000 1.200000 9.160000 -50.050873 -17.646757 2816.497803
0.960000 1.200000 9.200000 -16.033560 -33.026283 1347.810425
1.000000 0.800000 8.800000 34.994061 -9.595348 1316.654907
1.000000 0.800000 8.840000 21.017277 9.727922 536.358398
1.000000 0.800000 8.880000 0.171158 10.027721 100.584496
1.000000 0.800000 8.920000 -8.990952 -5.198067 107.857109
1.000000 0.800000 8.960000 0.251820 -18.559521 344.519226
1.000000 0.800000 9.000000 16.764931 -15.697731 527.481689
1.000000 0.800000 9.040000 23.135151 1.194569 536.662231
1.000000 0.800000 9.080000 12.752071 16.649368 439.816803
1.000000 0.800000 9.120000 -4.892816 17.896761 344.233704
1.000000 0.800000 9.160000 -15.111092 6.650638 272.576080
1.000000 0.800000 9.200000 -12.739831 -4.673589 184.145737
1.000000 0.840000 8.800000 30.389545 23.236168 1463.443970
1.000000 0.840000 8.840000 -4.717094 37.390434 1420.295532
1.000000 0.840000 8.880000 -40.440151 17.916805 1956.417725
1.000000 0.840000 8.920000 -47.869621 -23.575397 2847.300049
1.000000 0.840000 8.960000 -19.742073 -55.373055 3455.924561
1.000000 0.840000 9.000000 21.831181 -53.043129 3290.173828
1.000000 0.840000 9.040000 44.739754 -20.672380 2428.992920
1.000000 0.840000 9.080000 34.745720 14.354080 1413.304688
1.000000 0.840000 9.120000 5.365473 26.888006 751.753174
1.000000 0.840000 9.160000 -17.958679 14.571623 534.846375
1.000000 0.840000 9.200000 -21.725958 -5.121011 498.242004
1.000000 0.880000 8.800000 -0.604115 43.598431 1901.188110
1.000000 0.880000 8.840000 -54.005623 34.880291 4133.242188
1.000000 0.880000 8.880000 -87.073166 -20.038372 7983.272461
1.000000 0.880000 8.920000 -65.091408 -88.232224 12021.816406
1.000000 0.880000 8.960000 4.469231 -118.650665 14097.954102
1.000000 0.880000 9.000000 73.879608 -86.612442 12959.912109
1.000000 0.880000 9.040000 94.860283 -16.449871 9269.072266
1.000000 0.880000 9.080000 59.082401 39.895576 5082.387207
1.000000 0.880000 9.120000 1.758915 47.669994 2275.522217
1.000000 0.880000 9.160000 -32.902374 15.060747 1309.392334
1.000000 0.880000 9.200000 -29.251926 -21.721888 1327.515625
1.000000 0.920000 8.800000 -39.292877 32.549839 2603.422363
1.000000 0.920000 8.840000 -91.274429 -12.370831 8484.058594
1.000000 0.920000 8.880000 -90.952087 -97.904907 17857.652344
1.000000 0.920000 8.920000 -17.189747 -163.961792 27178.957031
1.000000 0.920000 8.960000 89.678833 -153.839340 31708.835938
1.000000 0.920000 9.000000 156.292755 -66.967041 28912.009766
1.000000 0.920000 9.040000 138.105331 36.763870 20424.664062
1.000000 0.920000 9.080000 56.762138 87.290985 10841.656250
1.000000 0.920000 9.120000 -21.813732 62.286247 4355.415527
1.000000 0.920000 9.160000 -46.015095 -0.684067 2117.856934
1.000000 0.920000 9.200000 -17.622171 -45.031067 2338.337891
1.000000 0.960000 8.800000 -57.017544 -6.302702 3290.724365
1.000000 0.960000 8.840000 -79.558281 -80.493744 12808.762695
1.000000 0.960000 8.880000 -26.624859 -164.383240 27730.732422
1.000000 0.960000 8.920000 88.394264 -185.644836 42277.550781
1.000000 0.960000 8.960000 192.205170 -110.326294 49114.718750
1.000000 0.960000 9.000000 209.975586 20.001123 44489.792969
1.000000 0.960000 9.040000 130.467743 118.544044 31074.523438
1.000000 0.960000 9.080000 15.991966 125.509560 16008.392578
1.000000 0.960000 9.120000 -52.422577 55.289246 5805.027344
1.000000 0.960000 9.160000 -42.257271 -23.617085 2343.443604
1.000000 0.960000 9.200000 12.519203 -52.733437 2937.545898
1.000000 1.000000 8.800000 -38.245831 -46.683018 3642.047852
1.000000 1.000000 8.840000 -16.345442 -121.113312 14935.608398
1.000000 1.000000 8.880000 75.109924 -163.552826 32391.027344
1.000000 1.000000 8.920000 186.766342 -119.241516 49100.207031
1.000000 1.000000 8.960000 238.001846 2.937515 56653.507812
1.000000 1.000000 9.000000 185.521835 128.546936 50942.664062
1.000000 1.000000 9.040000 63.786835 176.405762 35187.753906
1.000000 1.000000 9.080000 -42.572556 125.726532 17619.583984
1.000000 1.000000 9.120000 -69.605194 29.696075 5726.739746
1.000000 1.000000 9.160000 -22.627228 -35.107788 1744.548218
1.000000 1.000000 9.200000 39.381111 -33.540913 2675.864746
1.000000 1.040000 8.800000 5.518358 -59.323593 3549.741211
1.000000 1.040000 8.840000 58.636860 -101.648483 13770.695312
1.000000 1.040000 8.880000 146.536240 -87.424286 29115.875000
1.000000 1.040000 8.920000 208.351425 -0.508442 43410.574219
1.000000 1.040000 8.960000 189.948318 115.929222 49519.949219
1.000000 1.040000 9.000000 93.032349 188.425064 44159.023438
1.000000 1.040000 9.040000 -21.706734 172.544113 30242.652344
1.000000 1.040000 9.080000 -82.962265 89.122131 14825.492188
1.000000 1.040000 9.120000 -65.550591 4.394728 4316.193359
1.000000 1.040000 9.160000 -4.865789 -26.665646 734.732544
1.000000 1.040000 9.200000 40.634956 -1.401350 1653.163452
1.000000 1.080000 8.800000 44.045681 -35.206894 3179.547363
1.000000 1.080000 8.840000 94.416298 -34.817158 10126.671875
1.000000 1.080000 8.880000 140.338959 12.599239 19853.763672
1.000000 1.080000 8.920000 141.710297 91.509079 28455.718750
1.000000 1.080000 8.960000 84.509354 157.044159 31804.699219
1.000000 1.080000 9.000000 -3.789207 167.826935 28180.238281
1.000000 1.080000 9.040000 -72.775200 118.824463 19415.482422
1.000000 1.080000 9.080000 -87.249550 45.393791 9673.080078
1.000000 1.080000 9.120000 -52.479660 -5.283564 2782.030762
1.000000 1.080000 9.160000 -5.717369 -10.256226 137.878479
1.000000 1.080000 9.200000 16.557364 16.179121 535.910278
1.000000 1.120000 8.800000 52.180916 7.895928 2785.193604
1.000000 1.120000 8.840000 71.065468 31.539085 6045.014648
1.000000 1.120000 8.880000 70.269974 69.154762 9720.250000
1.000000 1.120000 8.920000 43.483711 103.060020 12512.201172
1.000000 1.120000 8.960000 -1.180092 115.771332 13404.393555
1.000000 1.120000 9.000000 -45.539207 100.100327 12093.894531
1.000000 1.120000 9.040000 -71.349327 63.232098 9089.024414
1.000000 1.120000 9.080000 -70.333153 22.745852 5464.125977
1.000000 1.120000 9.120000 -48.633217 -3.397603 2376.733398
1.000000 1.120000 9.160000 -22.742477 -7.276150 570.162659
1.000000 1.120000 9.200000 -8.808359 4.691530 99.597641
1.000000 1.160000 8.800000 28.494465 40.780350 2474.971436
1.000000 1.160000 8.840000 14.013448 55.162022 3239.225342
1.000000 1.160000 8.880000 -4.183380 55.934502 3146.169189
1.000000 1.160000 8.920000 -14.660736 49.215916 2637.143555
1.000000 1.160000 8.960000 -19.189949 46.124046 2495.681885
1.000000 1.160000 9.000000 -28.400749 47.465294 3059.556641
1.000000 1.160000 9.040000 -45.920906 42.032108 3875.427734
1.000000 1.160000 9.080000 -60.627380 21.105072 4121.103516
1.000000 1.160000 9.120000 -57.437168 -8.043192 3363.721191
1.000000 1.160000 9.160000 -35.133865 -26.558918 1939.764648
1.000000 1.160000 9.200000 -10.417995 -23.016537 638.295593
1.000000 1.200000 8.800000 -6.598173 45.926727 2152.800049
1.000000 1.200000 8.840000 -31.620840 32.317795 2044.317383
1.000000 1.200000 8.880000 -32.585773 3.987218 1077.730591
1.000000 1.200000 8.920000 -8.464291 -8.634842 146.204712
1.000000 1.200000 8.960000 12.552162 9.907883 255.722916
1.000000 1.200000 9.000000 2.211596 40.728687 1663.717041
1.000000 1.200000 9.040000 -36.099747 48.155468 3622.141113
1.000000 1.200000 9.080000 -68.131325 17.049875 4932.575684
1.000000 1.200000 9.120000 -62.767849 -29.864990 4831.720703
1.000000 1.200000 9.160000 -23.847290 -53.964790 3480.891602
1.000000 1.200000 9.200000 13.930752 -39.254555 1734.985840
1.040000 0.800000 8.800000 29.377728 11.865438 1003.839539
1.040000 0.800000 8.840000 10.769516 19.944326 513.758606
1.040000 0.800000 8.880000 -5.312657 11.438503 159.063690
1.040000 0.800000 8.920000 -6.923315 -4.150673 65.160378
1.040000 0.800000 8.960000 4.485001 -11.983604 163.722015
1.040000 0.800000 9.000000 16.186646 -5.619410 293.585266
1.040000 0.800000 9.040000 16.666443 7.994928 341.689209
1.040000 0.800000 9.080000 5.786845 16.380806 301.818390
1.040000 0.800000 9.120000 -6.859017 13.472027 228.541626
1.040000 0.800000 9.160000 -12.260065 3.700002 163.999207
1.040000 0.800000 9.200000 -9.698125 -4.395357 113.372787
1.040000 0.840000 8.800000 6.833835 30.665857 987.096069
1.040000 0.840000 8.840000 -24.574425 24.861488 1221.995972
1.040000 0.840000 8.880000 -42.248013 -5.766331 1818.145142
1.040000 0.840000 8.920000 -29.559689 -40.908997 2547.321289
1.040000 0.840000 8.960000 6.132767 -53.939213 2947.049561
1.040000 0.840000 9.000000 38.391518 -35.136311 2708.468750
1.040000 0.840000 9.040000 44.155178 -0.108742 1949.691650
1.040000 0.840000 9.080000 22.687279 24.446625 1112.350098
1.040000 0.840000 9.120000 -6.169110 23.597853 594.916565
1.040000 0.840000 9.160000 -21.161808 4.293792 466.258759
1.040000 0.840000 9.200000 -16.914349 -14.765055 504.102020
1.040000 0.880000 8.800000 -25.316502 25.115189 1271.697998
1.040000 0.880000 8.840000 -58.931416 -6.196560 3511.309082
1.040000 0.880000 8.880000 -57.107689 -62.192364 7129.178223
1.040000 0.880000 8.920000 -8.430511 -103.286652 10739.206055
1.040000 0.880000 8.960000 59.107822 -94.522484 12428.234375
1.040000 0.880000 9.000000 98.580727 -38.184296 11176.199219
1.040000 0.880000 9.040000 83.787636 25.997169 7696.220703
1.040000 0.880000 9.080000 30.990860 54.366150 3916.111572
1.040000 0.880000 9.120000 -17.311684 35.195889 1538.445068
1.040000 0.880000 9.160000 -29.926800 -5.944723 930.953064
1.040000 0.880000 9.200000 -10.018837 -33.512913 1223.492432
1.040000 0.920000 8.800000 -43.076733 -5.383161 1884.583252
1.040000 0.920000 8.840000 -57.971596 -62.397263 7254.124023
1.040000 0.920000 8.880000 -15.791481 -124.801369 15824.752930
1.040000 0.920000 8.920000 71.636780 -138.351425 24272.945312
1.040000 0.920000 8.960000 148.070923 -79.321884 28216.958984
1.040000 0.920000 9.000000 158.148392 18.809509 25364.710938
1.040000 0.920000 9.040000 95.934509 90.191513 17337.937500
1.040000 0.920000 9.080000 10.269474 91.673042 8509.408203
1.040000 0.920000 9.120000 -38.312813 36.755100 2818.809082
1.040000 0.920000 9.160000 -27.800056 -21.968090 1255.440186
1.040000 0.920000 9.200000 14.123339 -42.013863 1964.633301
1.040000 0.960000 8.800000 -30.389545 -40.654945 2576.349121
1.040000 0.960000 8.840000 -9.408072 -104.576469 11024.750000
1.040000 0.960000 8.880000 71.515221 -139.432098 24555.738281
1.040000 0.960000 8.920000 168.168411 -97.918167 37868.582031
1.040000 0.960000 8.960000 209.753418 10.344006 44103.496094
1.040000 0.960000 9.000000 160.122681 118.517769 39685.734375
1.040000 0.960000 9.040000 52.286850 156.082382 27095.625000
1.040000 0.960000 9.080000 -38.391533 107.809174 13096.728516
1.040000 0.960000 9.120000 -57.849285 23.120962 3881.118652
1.040000 0.960000 9.160000 -14.341896 -31.109978 1173.520630
1.040000 0.960000 9.200000 38.822041 -27.458717 2261.132080
1.040000 1.000000 8.800000 6.264811 -54.513824 3011.004883
1.040000 1.000000 8.840000 59.862202 -96.665894 12927.778320
1.040000 1.000000 8.880000 148.967285 -81.025467 28756.378906
1.040000 1.000000 8.920000 210.164459 9.109799 44252.089844
1.040000 1.000000 8.960000 187.610016 127.697960 51504.289062
1.040000 1.000000 9.000000 85.273911 197.854126 46417.894531
1.040000 1.000000 9.040000 -31.419353 175.526779 31796.826172
1.040000 1.000000 9.080000 -88.951759 86.267975 15354.579102
1.040000 1.000000 9.120000 -65.264320 0.739330 4259.978027
1.040000 1.000000 9.160000 -1.200909 -26.732843 716.087097
1.040000 1.000000 9.200000 42.950836 1.314911 1846.503296
1.040000 1.040000 8.800000 41.823357 -35.772034 3028.831543
1.040000 1.040000 8.840000 102.364471 -38.878349 11990.011719
1.040000 1.040000 8.880000 160.294525 17.632492 26005.238281
1.040000 1.040000 8.920000 161.912216 115.479340 39551.042969
1.040000 1.040000 8.960000 88.087448 195.183792 45856.109375
1.040000 1.040000 9.000000 -23.325668 202.299500 41469.171875
1.040000 1.040000 9.040000 -104.643738 133.386627 28742.304688
1.040000 1.040000 9.080000 -112.489037 39.098995 14182.514648
1.040000 1.040000 9.120000 -60.160103 -18.777203 3971.821289
1.040000 1.040000 9.160000 -0.299253 -16.449188 270.665344
1.040000 1.040000 9.200000 23.092459 20.285946 944.781250
1.040000 1.080000 8.800000 52.244240 3.001875 2738.471924
1.040000 1.080000 8.840000 89.386497 30.010910 8890.600586
1.040000 1.080000 8.880000 98.890915 90.407089 17952.855469
1.040000 1.080000 8.920000 58.104187 151.866058 26439.394531
1.040000 1.080000 8.960000 -20.860077 172.989624 30360.552734
1.040000 1.080000 9.000000 -96.135284 135.997009 27737.179688
1.040000 1.080000 9.040000 -126.658005 62.129517 19902.326172
1.040000 1.080000 9.080000 -102.818634 -4.400312 10591.034180
1.040000 1.080000 9.120000 -51.154957 -30.201527 3528.961914
1.040000 1.080000 9.160000 -10.420155 -15.226089 340.413422
1.040000 1.080000 9.200000 -1.330032 13.563288 185.731750
1.040000 1.120000 8.800000 32.544716 36.296879 2376.622070
1.040000 1.120000 8.840000 34.481091 64.764618 5383.401367
1.040000 1.120000 8.880000 13.460743 94.098549 9035.728516
1.040000 1.120000 8.920000 -26.536209 106.871155 12125.613281
1.040000 1.120000 8.960000 -70.102913 93.109161 13583.734375
1.040000 1.120000 9.000000 -98.897285 56.028309 12919.843750
1.040000 1.120000 9.040000 -101.430534 10.372623 10395.745117
1.040000 1.120000 9.080000 -79.030396 -25.350853 6888.468750
1.040000 1.120000 9.120000 -44.943604 -38.646584 3513.485840
1.040000 1.120000 9.160000 -16.801088 -29.640253 1160.821167
1.040000 1.120000 9.200000 -6.328680 -10.390467 148.013992
1.040000 1.160000 8.800000 -1.798732 45.707222 2092.385498
1.040000 1.160000 8.840000 -20.555536 50.234161 2946.000977
1.040000 1.160000 8.880000 -36.339413 42.473053 3124.513184
1.040000 1.160000 8.920000 -43.588776 31.934288 2919.780029
1.040000 1.160000 8.960000 -48.572014 25.178688 2993.206787
1.040000 1.160000 9.000000 -58.175667 17.000702 3673.432129
1.040000 1.160000 9.040000 -67.548943 -1.957464 4566.691406
1.040000 1.160000 9.080000 -62.933102 -30.085655 4865.721680
1.040000 1.160000 9.120000 -38.065998 -51.251041 4075.689453
1.040000 1.160000 9.160000 -5.285480 -49.450886 2473.326416
1.040000 1.160000 9.200000 13.308987 -26.768427 893.677856
1.040000 1.200000 8.800000 -29.411560 31.624676 1865.159912
1.040000 1.200000 8.840000 -42.412334 8.910561 1878.204224
1.040000 1.200000 8.880000 -30.209427 -13.039345 1082.634033
1.040000 1.200000 8.920000 -7.683228 -11.267532 185.989273
1.040000 1.200000 8.960000 -3.338076 10.544460 122.328392
1.040000 1.200000 9.000000 -26.955620 23.525131 1280.037354
1.040000 1.200000 9.040000 -55.815548 4.384020 3134.595215
1.040000 1.200000 9.080000 -56.660423 -37.239212 4597.162598
1.040000 1.200000 9.120000 -21.277800 -65.875351 4792.306641
1.040000 1.200000 9.160000 22.838657 -55.951069 3652.126465
1.040000 1.200000 9.200000 39.449539 -18.534426 1899.791016
1.080000 0.800000 8.800000 11.357991 21.259007 580.949341
1.080000 0.800000 8.840000 -2.218806 19.898191 400.861115
1.080000 0.800000 8.880000 -10.164665 10.177731 206.906616
1.080000 0.800000 8.920000 -8.685349 -0.500467 75.685745
1.080000 0.800000 8.960000 -1.193039 -5.148997 27.935514
1.080000 0.800000 9.000000 5.423149 -2.412117 35.228855
1.080000 0.800000 9.040000 6.542240 3.637276 56.030682
1.080000 0.800000 9.080000 2.442434 7.748867 66.010429
1.080000 0.800000 9.120000 -3.373733 7.242271 63.832569
1.080000 0.800000 9.160000 -7.259308 2.696223 59.967178
1.080000 0.800000 9.200000 -7.230528 -3.446826 64.161148
1.080000 0.840000 8.800000 -12.329742 17.803284 468.979462
1.080000 0.840000 8.840000 -27.452848 3.212345 763.978027
1.080000 0.840000 8.880000 -27.383659 -21.133152 1196.474854
1.080000 0.840000 8.920000 -8.151058 -39.283340 1609.620483
1.080000 0.840000 8.960000 19.047211 -37.570667 1774.351318
1.080000 0.840000 9.000000 35.870045 -16.643150 1563.654541
1.080000 0.840000 9.040000 31.591021 8.468082 1069.700928
1.080000 0.840000 9.080000 11.457827 20.500717 551.561218
1.080000 0.840000 9.120000 -8.459016 13.425869 251.808899
1.080000 0.840000 9.160000 -14.698002 -4.259591 234.175385
1.080000 0.840000 9.200000 -6.116011 -18.214264 369.164978
1.080000 0.880000 8.800000 -25.540779 -4.997141 677.302856
1.080000 0.880000 8.840000 -31.424301 -35.102455 2219.668945
1.080000 0.880000 8.880000 -8.621704 -67.181602 4587.701660
1.080000 0.880000 8.920000 36.919296 -74.234146 6873.743164
1.080000 0.880000 8.960000 76.959587 -44.152328 7872.206055
1.080000 0.880000 9.000000 83.161179 6.469032 6957.629883
1.080000 0.880000 9.040000 51.706097 44.025810 4611.792480
1.080000 0.880000 9.080000 7.062611 45.453918 2115.938965
1.080000 0.880000 9.120000 -18.951893 16.452793 629.868652
1.080000 0.880000 9.160000 -13.243526 -15.878151 427.506653
1.080000 0.880000 9.200000 10.940252 -27.808407 892.996582
1.080000 0.920000 8.800000 -15.072203 -31.503271 1219.627441
1.080000 0.920000 8.840000 0.364712 -68.638412 4711.364258
1.080000 0.920000 8.880000 50.857731 -87.717560 10280.878906
1.080000 0.920000 8.920000 109.992149 -60.488781 15757.165039
1.080000 0.920000 8.960000 134.892761 7.173450 18247.515625
1.080000 0.920000 9.000000 103.419716 74.315941 16218.496094
1.080000 0.920000 9.040000 35.912643 97.286530 10754.386719
1.080000 0.920000 9.080000 -20.639717 66.401184 4835.115234
1.080000 0.920000 9.120000 -32.029915 12.550795 1183.437866
1.080000 0.920000 9.160000 -3.136898 -21.761410 483.399078
1.080000 0.920000 9.200000 32.066208 -18.584000 1373.606689
1.080000 0.960000 8.800000 13.926781 -40.611000 1843.208496
1.080000 0.960000 8.840000 52.805359 -66.904373 7264.601562
1.080000 0.960000 8.880000 115.475250 -52.629982 16104.448242
1.080000 0.960000 8.920000 157.184418 13.950165 24901.548828
1.080000 0.960000 8.960000 138.251801 99.596405 29033.003906
1.080000 0.960000 9.000000 62.239151 148.747284 25999.464844
1.080000 0.960000 9.040000 -22.626436 130.024353 17418.287109
1.080000 0.960000 9.080000 -62.676407 63.204372 7923.125000
1.080000 0.960000 9.120000 -42.736435 0.891415 1827.197510
1.080000 0.960000 9.160000 5.796071 -17.317089 333.476013
1.080000 0.960000 9.200000 37.960228 5.291878 1468.982910
1.080000 1.000000 8.800000 40.828083 -23.609348 2224.333740
1.080000 1.000000 8.840000 89.438400 -23.864843 8568.757812
1.080000 1.000000 8.880000 135.633591 24.821806 19012.593750
1.080000 1.000000 8.920000 134.024185 107.352013 29486.937500
1.080000 1.000000 8.960000 68.661385 172.806335 34576.414062
1.080000 1.000000 9.000000 -26.890936 174.845276 31293.994141
1.080000 1.000000 9.040000 -93.698349 112.233498 21375.738281
1.080000 1.000000 9.080000 -95.588745 30.758644 10083.301758
1.080000 1.000000 9.120000 -46.938301 -15.926929 2456.871094
1.080000 1.000000 9.160000 4.674384 -9.734024 116.601089
1.080000 1.000000 9.200000 22.270052 23.709520 1058.096558
1.080000 1.040000 8.800000 46.299835 8.323225 2212.950928
1.080000 1.040000 8.840000 82.622299 33.522789 7950.221680
1.080000 1.040000 8.880000 92.302841 93.850044 17327.644531
1.080000 1.040000 8.920000 49.615593 155.882172 26760.958984
1.080000 1.040000 8.960000 -32.821198 174.559280 31548.171875
1.080000 1.040000 9.000000 -108.695763 131.194794 29026.843750
1.080000 1.040000 9.040000 -133.681931 51.388985 20511.687500
1.080000 1.040000 9.080000 -100.748367 -14.981726 10374.685547
1.080000 1.040000 9.120000 -43.167435 -33.879658 3011.258545
1.080000 1.040000 9.160000 -3.757753 -10.990950 134.921677
1.080000 1.040000 9.200000 -0.132843 20.367641 414.858459
1.080000 1.080000 8.800000 27.572617 33.896030 1909.190186
1.080000 1.080000 8.840000 37.555389 66.821953 5875.580566
1.080000 1.080000 8.880000 15.964605 108.717804 12074.428711
1.080000 1.080000 8.920000 -37.976845 129.694504 18262.904297
1.080000 1.080000 8.960000 -99.338974 108.408005 21620.527344
1.080000 1.080000 9.000000 -133.886398 50.626736 20488.634766
1.080000 1.080000 9.040000 -123.565094 -13.283442 15444.782227
1.080000 1.080000 9.080000 -79.527832 -50.635727 8888.653320
1.080000 1.080000 9.120000 -31.975060 -49.630619 3485.602539
1.080000 1.080000 9.160000 -6.430117 -24.447798 639.041199
1.080000 1.080000 9.200000 -7.076355 0.049710 50.077271
1.080000 1.120000 8.800000 -1.403786 39.104523 1531.134277
1.080000 1.120000 8.840000 -13.023424 57.955109 3528.404297
1.080000 1.120000 8.880000 -39.987175 67.562820 6163.708984
1.080000 1.120000 8.920000 -72.656891 58.216248 8668.155273
1.080000 1.120000 8.960000 -96.961548 29.231472 10256.020508
1.080000 1.120000 9.000000 -101.508636 -10.463165 10413.480469
1.080000 1.120000 9.040000 -83.223671 -46.321938 9071.901367
1.080000 1.120000 9.080000 -49.319283 -64.880981 6641.933594
1.080000 1.120000 9.120000 -14.380052 -60.610687 3880.441406
1.080000 1.120000 9.160000 6.991360 -39.356792 1597.836304
1.080000 1.120000 9.200000 8.547659 -15.388856 309.879364
1.080000 1.160000 8.800000 -23.519203 26.094439 1234.072632
1.080000 1.160000 8.840000 -37.766064 21.403831 1884.399536
1.080000 1.160000 8.880000 -45.455315 10.091995 2168.033936
1.080000 1.160000 8.920000 -47.536121 0.000095 2259.682861
1.080000 1.160000 8.960000 -50.339687 -8.743202 2610.527832
1.080000 1.160000 9.000000 -53.888512 -23.114416 3438.248047
1.080000 1.160000 9.040000 -48.460995 -45.265377 4397.422363
1.080000 1.160000 9.080000 -25.655556 -64.261368 4787.730957
1.080000 1.160000 9.120000 8.040470 -63.839272 4140.101562
1.080000 1.160000 9.160000 32.433861 -39.973381 2649.826660
1.080000 1.160000 9.200000 31.445307 -8.805655 1066.346924
1.080000 1.200000 8.800000 -31.707317 6.976293 1054.022705
1.080000 1.200000 8.840000 -30.989777 -12.977833 1128.790405
1.080000 1.200000 8.880000 -14.733639 -21.537151 680.928955
1.080000 1.200000 8.920000 -3.116898 -11.232021 135.873352
1.080000 1.200000 8.960000 -11.855469 1.582733 143.057190
1.080000 1.200000 9.000000 -31.799904 -5.805109 1044.933228
1.080000 1.200000 9.040000 -36.158501 -35.111664 2540.266113
1.080000 1.200000 9.080000 -9.763638 -61.113136 3830.144043
1.080000 1.200000 9.120000 31.406195 -56.252331 4150.673828
1.080000 1.200000 9.160000 53.603081 -20.696135 3301.620361
1.080000 1.200000 9.200000 39.422630 15.290791 1787.952026
1.120000 0.800000 8.800000 -5.093524 14.493101 235.993958
1.120000 0.800000 8.840000 -9.906379 12.007235 242.310013
1.120000 0.800000 8.880000 -14.116989 7.142302 250.301849
1.120000 0.800000 8.920000 -15.760544 -0.528414 248.673965
1.120000 0.800000 8.960000 -12.162766 -9.009890 229.110962
1.120000 0.800000 9.000000 -3.116968 -13.622463 195.286987
1.120000 0.800000 9.040000 6.846772 -10.551262 158.207413
1.120000 0.800000 9.080000 10.961404 -1.428126 122.191917
1.120000 0.800000 9.120000 6.402939 6.498824 83.232346
1.120000 0.800000 9.160000 -1.959819 6.369164 44.407131
1.120000 0.800000 9.200000 -5.239063 -1.279426 29.084715
1.120000 0.840000 8.800000 -13.398304 -3.214266 189.846054
1.120000 0.840000 8.840000 -14.249800 -10.680465 317.129120
1.120000 0.840000 8.880000 -10.197287 -20.102566 508.097809
1.120000 0.840000 8.920000 0.754162 -26.731386 715.135803
1.120000 0.840000 8.960000 15.325880 -24.739120 846.906738
1.120000 0.840000 9.000000 25.523197 -12.805618 815.417480
1.120000 0.840000 9.040000 24.416676 2.838062 604.228699
1.120000 0.840000 9.080000 12.701035 11.957729 304.303589
1.120000 0.840000 9.120000 -0.497613 8.545395 73.271393
1.120000 0.840000 9.160000 -4.552663 -3.453077 32.650482
1.120000 0.840000 9.200000 3.486534 -12.888641 178.272995
1.120000 0.880000 8.800000 -2.419804 -22.142029 496.124878
1.120000 0.880000 8.840000 4.819796 -31.827894 1036.245239
1.120000 0.880000 8.880000 21.667406 -37.601284 1883.333008
1.120000 0.880000 8.920000 43.140312 -29.978304 2759.785156
1.120000 0.880000 8.960000 56.197262 -7.174759 3209.609375
1.120000 0.880000 9.000000 50.071297 19.992266 2906.825439
1.120000 0.880000 9.040000 26.979019 34.843853 1941.961670
1.120000 0.880000 9.080000 2.310680 28.498470 817.502014
1.120000 0.880000 9.120000 -7.263506 8.000906 116.773010
1.120000 0.880000 9.160000 2.409945 -9.286008 92.037781
1.120000 0.880000 9.200000 20.034660 -10.452394 510.640137
1.120000 0.920000 8.800000 21.861282 -24.615860 1083.856201
1.120000 0.920000 8.840000 38.427246 -29.903793 2370.890137
1.120000 0.920000 8.880000 63.232391 -21.006306 4439.600098
1.120000 0.920000 8.920000 80.437622 8.324814 6539.513672
1.120000 0.920000 8.960000 73.025810 46.871361 7529.693359
1.120000 0.920000 9.000000 39.729851 71.527176 6694.597656
1.120000 0.920000 9.040000 -0.374853 66.122681 4372.349609
1.120000 0.920000 9.080000 -22.038614 36.264275 1800.798218
1.120000 0.920000 9.120000 -14.706535 5.378686 245.212448
1.120000 0.920000 9.160000 9.388906 -5.151762 114.692215
1.120000 0.920000 9.200000 27.474201 6.647724 799.023987
1.120000 0.960000 8.800000 40.305939 -5.269903 1652.340576
1.120000 0.960000 8.840000 61.225883 0.444760 3748.806641
1.120000 0.960000 8.880000 80.229492 27.583748 7197.634766
1.120000 0.960000 8.920000 76.009186 70.223724 10708.767578
1.120000 0.960000 8.960000 39.813515 103.902412 12380.827148
1.120000 0.960000 9.000000 -12.223194 104.467072 11062.775391
1.120000 0.960000 9.040000 -49.197617 70.070816 7330.325195
1.120000 0.960000 9.080000 -50.564934 24.655182 3164.690430
1.120000 0.960000 9.120000 -23.057161 -1.703818 534.535706
1.120000 0.960000 9.160000 6.738136 2.404638 51.184757
1.120000 0.960000 9.200000 16.695557 22.948116 805.357666
1.120000 1.000000 8.800000 37.097713 22.782509 1895.283081
1.120000 1.000000 8.840000 52.943531 40.242348 4422.463867
1.120000 1.000000 8.880000 53.558907 76.191559 8673.709961
1.120000 1.000000 8.920000 23.711678 111.845734 13071.710938
1.120000 1.000000 8.960000 -29.286564 120.204544 15306.835938
1.120000 1.000000 9.000000 -76.786438 89.755356 13952.181641
1.120000 1.000000 9.040000 -90.766121 36.999798 9607.473633
1.120000 1.000000 9.080000 -67.150200 -5.596284 4540.467773
1.120000 1.000000 9.120000 -28.441456 -16.012623 1065.320435
1.120000 1.000000 9.160000 -3.274873 1.018797 11.762739
1.120000 1.000000 9.200000 -2.598256 22.296995 503.906952
1.120000 1.040000 8.800000 13.982573 39.084705 1723.126465
1.120000 1.040000 8.840000 17.438076 61.105457 4037.963379
1.120000 1.040000 8.880000 -0.849114 89.384125 7990.243164
1.120000 1.040000 8.920000 -42.505573 101.856461 12181.461914
1.120000 1.040000 8.960000 -88.594185 81.856728 14549.453125
1.120000 1.040000 9.000000 -112.059998 34.362247 13738.207031
1.120000 1.040000 9.040000 -99.269318 -15.418956 10092.141602
1.120000 1.040000 9.080000 -61.217636 -41.189442 5444.168945
1.120000 1.040000 9.120000 -23.916622 -35.522682 1833.865723
1.120000 1.040000 9.160000 -7.102384 -12.917396 217.302963
1.120000 1.040000 9.200000 -10.783285 5.529969 146.859787
1.120000 1.080000 8.800000 -11.891943 33.891693 1290.065186
1.120000 1.080000 8.840000 -20.156727 49.856438 2891.958008
1.120000 1.080000 8.880000 -44.745823 59.808769 5579.277344
1.120000 1.080000 8.920000 -77.423714 50.196918 8514.162109
1.120000 1.080000 8.960000 -100.633545 18.195879 10458.200195
1.120000 1.080000 9.000000 -99.554703 -24.011961 10487.712891
1.120000 1.080000 9.040000 -73.247574 -56.573906 8565.814453
1.120000 1.080000 9.080000 -35.659760 -65.478958 5559.112305
1.120000 1.080000 9.120000 -5.589111 -51.502529 2683.748779
1.120000 1.080000 9.160000 5.957844 -27.791231 807.848450
1.120000 1.080000 9.200000 1.119541 -9.097963 84.026306
1.120000 1.120000 8.800000 -24.351572 15.351553 828.669250
1.120000 1.120000 8.840000 -35.905807 18.807312 1642.942017
1.120000 1.120000 8.880000 -51.306156 13.639446 2818.356201
1.120000 1.120000 8.920000 -64.243828 -1.838699 4130.650391
1.120000 1.120000 8.960000 -68.188644 -25.345932 5292.107422
1.120000 1.120000 9.000000 -58.404434 -50.626347 5974.104492
1.120000 1.120000 9.040000 -34.709389 -68.403366 5883.762207
1.120000 1.120000 9.080000 -3.877356 -70.067078 4924.429199
1.120000 1.120000 9.120000 21.699642 -53.544868 3337.927490
1.120000 1.120000 9.160000 30.701210 -26.829649 1662.394287
1.120000 1.120000 9.200000 21.097422 -4.436411 464.782928
1.120000 1.160000 8.800000 -22.040586 -0.754785 486.357147
1.120000 1.160000 8.840000 -26.858492 -7.858849 783.140076
1.120000 1.160000 8.880000 -26.681780 -15.058151 938.665283
1.120000 1.160000 8.920000 -26.157843 -20.108019 1088.565186
1.120000 1.160000 8.960000 -27.493961 -27.865082 1532.380615
1.120000 1.160000 9.000000 -24.340443 -42.401192 2390.318359
1.120000 1.160000 9.040000 -7.791296 -57.504959 3367.524658
1.120000 1.160000 9.080000 20.813492 -58.790318 3889.502930
1.120000 1.160000 9.120000 45.668327 -38.086174 3536.152832
1.120000 1.160000 9.160000 48.753216 -5.256080 2404.502441
1.120000 1.160000 9.200000 27.902493 17.272263 1076.880127
1.120000 1.200000 8.800000 -16.074684 -7.261900 311.130676
1.120000 1.200000 8.840000 -9.219303 -16.869770 369.584686
1.120000 1.200000 8.880000 0.762490 -14.623898 214.439774
1.120000 1.200000 8.920000 -0.000658 -5.936087 35.237125
1.120000 1.200000 8.960000 -11.247803 -6.978738 175.215851
1.120000 1.200000 9.000000 -15.922253 -24.427593 850.225464
1.120000 1.200000 9.040000 1.252628 -43.747269 1915.392578
1.120000 1.200000 9.080000 33.642776 -41.803947 2879.406494
1.120000 1.200000 9.120000 55.132221 -12.375362 3192.711426
1.120000 1.200000 9.160000 45.548912 23.515800 2627.696289
1.120000 1.200000 9.200000 13.073402 36.196457 1481.097290
1.160000 0.800000 8.800000 -9.182091 -0.169307 84.339455
1.160000 0.800000 8.840000 -9.724145 3.167242 104.590416
1.160000 0.800000 8.880000 -16.913059 2.054888 290.274139
1.160000 0.800000 8.920000 -22.150208 -9.196509 575.207458
1.160000 0.800000 8.960000 -15.005173 -24.721737 836.319458
1.160000 0.800000 9.000000 4.568938 -30.813025 970.317688
1.160000 0.800000 9.040000 23.592850 -19.527752 937.955688
1.160000 0.800000 9.080000 27.464239 1.854489 757.723572
1.160000 0.800000 9.120000 14.583073 16.523994 485.708405
1.160000 0.800000 9.160000 -1.447783 14.349504 208.004333
1.160000 0.800000 9.200000 -5.294117 1.924170 31.730112
1.160000 0.840000 8.800000 1.485004 -15.040410 228.419159
1.160000 0.840000 8.840000 1.459466 -8.949471 82.223068
1.160000 0.840000 8.880000 -3.691234 -10.191364 117.489113
1.160000 0.840000 8.920000 -3.069590 -19.405289 385.987610
1.160000 0.840000 8.960000 8.978819 -26.279606 771.236877
1.160000 0.840000 9.000000 25.232471 -20.189970 1044.312500
1.160000 0.840000 9.040000 31.869671 -2.459014 1021.722656
1.160000 0.840000 9.080000 22.847406 13.543419 705.428162
1.160000 0.840000 9.120000 6.968976 15.563375 290.785248
1.160000 0.840000 9.160000 -0.695776 5.241523 27.957664
1.160000 0.840000 9.200000 5.558787 -3.523377 43.314301
1.160000 0.880000 8.800000 23.337326 -13.808726 735.311707
1.160000 0.880000 8.840000 21.180851 -4.895142 472.590851
1.160000 0.880000 8.880000 17.049635 -4.083786 307.367371
1.160000 0.880000 8.920000 19.358559 -7.025092 424.105713
1.160000 0.880000 8.960000 27.354866 -4.315107 766.908875
1.160000 0.880000 9.000000 31.690384 7.172126 1055.719849
1.160000 0.880000 9.040000 25.091278 19.767294 1020.318176
1.160000 0.880000 9.080000 11.348710 22.820900 649.586670
1.160000 0.880000 9.120000 2.201856 14.596103 217.894394
1.160000 0.880000 9.160000 4.935258 4.861672 47.992626
1.160000 0.880000 9.200000 14.275439 4.758745 226.433807
1.160000 0.920000 8.800000 37.240311 8.025553 1451.250244
1.160000 0.920000 8.840000 30.728489 17.542675 1251.985474
1.160000 0.920000 8.880000 24.732687 20.420752 1028.712891
1.160000 0.920000 8.920000 22.679672 22.316828 1012.408325
1.160000 0.920000 8.960000 20.675667 27.606361 1189.594360
1.160000 0.920000 9.000000 13.412503 33.525192 1303.833740
1.160000 0.920000 9.040000 1.928867 33.297062 1112.414917
1.160000 0.920000 9.080000 -6.126938 24.746548 649.930969
1.160000 0.920000 9.120000 -4.583507 14.278601 224.886963
1.160000 0.920000 9.160000 3.844671 10.992743 135.621887
1.160000 0.920000 9.200000 9.625854 17.063425 383.817505
1.160000 0.960000 8.800000 27.589331 35.782005 2041.523071
1.160000 0.960000 8.840000 16.876024 42.247173 2069.623779
1.160000 0.960000 8.880000 7.452332 44.186386 2007.973999
1.160000 0.960000 8.920000 -0.846374 44.936867 2020.038330
1.160000 0.960000 8.960000 -10.468889 44.190071 2062.359863
1.160000 0.960000 9.000000 -20.803198 38.578850 1921.100708
1.160000 0.960000 9.040000 -26.859417 27.103209 1456.012207
1.160000 0.960000 9.080000 -24.224388 14.636464 801.047058
1.160000 0.960000 9.120000 -14.775577 8.544921 291.333313
1.160000 0.960000 9.160000 -6.129460 11.517447 170.221863
1.160000 0.960000 9.200000 -4.630159 18.609169 367.739563
1.160000 1.000000 8.800000 -1.864927 46.994694 2211.979248
1.160000 1.000000 8.840000 -13.659913 47.818321 2473.185059
1.160000 1.000000 8.880000 -24.399319 45.553295 2670.429688
1.160000 1.000000 8.920000 -34.786346 40.586536 2857.356934
1.160000 1.000000 8.960000 -44.118748 31.248856 2922.954834
1.160000 1.000000 9.000000 -48.728256 17.138077 2668.156494
1.160000 1.000000 9.040000 -44.933578 2.129290 2023.560425
1.160000 1.000000 9.080000 -33.597965 -7.298171 1182.086548
1.160000 1.000000 9.120000 -20.850563 -7.428061 489.922058
1.160000 1.000000 9.160000 -13.392519 -0.826782 180.043121
1.160000 1.000000 9.200000 -12.931574 6.116768 204.640457
1.160000 1.040000 8.800000 -29.682938 31.997478 1904.915405
1.160000 1.040000 8.840000 -38.396503 27.802015 2247.243652
1.160000 1.040000 8.880000 -46.148716 21.377972 2586.721680
1.160000 1.040000 8.920000 -52.768776 11.998455 2928.506592
1.160000 1.040000 8.960000 -56.148392 -1.121215 3153.898926
1.160000 1.040000 9.000000 -52.983582 -16.226223 3070.550293
1.160000 1.040000 9.040000 -41.981392 -28.459513 2572.381104
1.160000 1.040000 9.080000 -26.285244 -32.766895 1764.583496
1.160000 1.040000 9.120000 -12.165248 -27.878180 925.186157
1.160000 1.040000 9.160000 -4.785527 -17.467525 328.015717
1.160000 1.040000 9.200000 -4.890096 -7.232965 76.228828
1.160000 1.080000 8.800000 -35.979458 3.425442 1306.255005
1.160000 1.080000 8.840000 -39.439514 -2.418177 1561.322754
1.160000 1.080000 8.880000 -41.695530 -9.262026 1824.302368
1.160000 1.080000 8.920000 -42.867523 -17.544006 2145.416748
1.160000 1.080000 8.960000 -41.546501 -28.115236 2516.578369
1.160000 1.080000 9.000000 -34.827034 -39.881973 2803.494141
1.160000 1.080000 9.040000 -21.039009 -48.499760 2794.866699
1.160000 1.080000 9.080000 -2.915104 -48.477791 2358.593994
1.160000 1.080000 9.120000 12.473437 -37.735260 1579.536499
1.160000 1.080000 9.160000 18.032911 -20.491003 745.067078
1.160000 1.080000 9.200000 11.990211 -5.245583 171.281281
1.160000 1.120000 8.800000 -20.805267 -15.804094 682.628540
1.160000 1.120000 8.840000 -20.029572 -20.057364 803.481567
1.160000 1.120000 8.880000 -18.300900 -23.211668 873.704468
1.160000 1.120000 8.920000 -17.766174 -26.423059 1013.815063
1.160000 1.120000 8.960000 -17.156116 -33.025414 1385.010254
1.160000 1.120000 9.000000 -11.057835 -43.123516 1981.913452
1.160000 1.120000 9.040000 4.468837 -50.179420 2537.944580
1.160000 1.120000 9.080000 25.233433 -45.189617 2678.827637
1.160000 1.120000 9.120000 39.401413 -25.868778 2221.665039
1.160000 1.120000 9.160000 36.767685 -1.498879 1354.109253
1.160000 1.120000 9.200000 18.751637 13.003224 520.707703
1.160000 1.160000 8.800000 -2.957596 -14.638481 223.032501
1.160000 1.160000 8.840000 -0.197288 -16.563692 274.394806
1.160000 1.160000 8.880000 1.800768 -14.926658 226.047882
1.160000 1.160000 8.920000 -0.878199 -14.228407 203.218796
1.160000 1.160000 8.960000 -4.054298 -20.836662 450.603851
1.160000 1.160000 9.000000 2.087831 -32.926636 1088.522339
1.160000 1.160000 9.040000 21.311108 -38.341381 1924.224854
1.160000 1.160000 9.080000 43.228172 -25.546537 2521.300537
1.160000 1.160000 9.120000 49.975300 2.481259 2503.687256
1.160000 1.160000 9.160000 33.337852 27.237709 1853.305176
1.160000 1.160000 9.200000 5.011942 30.311535 943.908691
1.160000 1.200000 8.800000 -0.038513 -3.719576 13.836728
1.160000 1.200000 8.840000 4.084682 -4.302224 35.193764
1.160000 1.200000 8.880000 3.970749 0.288166 15.849886
1.160000 1.200000 8.920000 -3.214678 0.562910 10.651021
1.160000 1.200000 8.960000 -7.814655 -10.221763 165.553268
1.160000 1.200000 9.000000 2.389573 -24.411058 601.609863
1.160000 1.200000 9.040000 25.805061 -24.669083 1274.464844
1.160000 1.200000 9.080000 43.813530 -2.692676 1926.875854
1.160000 1.200000 9.120000 37.568825 28.205877 2206.988281
1.160000 1.200000 9.160000 8.765974 42.772263 1906.308716
1.160000 1.200000 9.200000 -18.662113 28.450319 1157.695068
1.200000 0.800000 8.800000 -1.198831 -10.483891 111.349174
1.200000 0.800000 8.840000 -4.940172 -1.557755 26.831902
1.200000 0.800000 8.880000 -16.797035 -5.158840 308.754028
1.200000 0.800000 8.920000 -19.164368 -23.347197 912.364624
1.200000 0.800000 8.960000 -1.031686 -39.974365 1599.014160
1.200000 0.800000 9.000000 28.123917 -35.830780 2074.799561
1.200000 0.800000 9.040000 45.412689 -9.063132 2144.452637
1.200000 0.800000 9.080000 36.669315 21.079666 1788.990967
1.200000 0.800000 9.120000 10.858551 32.253891 1158.221558
1.200000 0.800000 9.160000 -8.810061 20.643459 503.769592
1.200000 0.800000 9.200000 -8.109213 3.619218 78.858070
1.200000 0.840000 8.800000 17.883173 -10.341570 426.755920
1.200000 0.840000 8.840000 7.236643 1.783686 55.550533
1.200000 0.840000 8.880000 -7.424162 -4.783141 77.996613
1.200000 0.840000 8.920000 -6.204933 -23.898466 609.637878
1.200000 0.840000 8.960000 15.093561 -34.248482 1400.774048
1.200000 0.840000 9.000000 39.251575 -21.243511 1991.972900
1.200000 0.840000 9.040000 44.503014 7.281582 2033.539673
1.200000 0.840000 9.080000 26.610678 28.519947 1521.515625
1.200000 0.840000 9.120000 2.754686 27.703096 775.049866
1.200000 0.840000 9.160000 -6.775555 12.197747 194.693176
1.200000 0.840000 9.200000 0.794514 2.056062 4.858642
1.200000 0.880000 8.800000 30.825146 9.982221 1049.834351
1.200000 0.880000 8.840000 10.038652 18.814682 454.766785
1.200000 0.880000 8.880000 -6.383074 5.486916 70.849869
1.200000 0.880000 8.920000 -1.406042 -15.094308 229.815094
1.200000 0.880000 8.960000 20.598452 -20.693197 852.504639
1.200000 0.880000 9.000000 38.411682 -4.021785 1491.632080
1.200000 0.880000 9.040000 35.494465 20.563953 1682.733276
1.200000 0.880000 9.080000 15.883593 32.492100 1308.025146
1.200000 0.880000 9.120000 -1.787731 25.641615 660.688416
1.200000 0.880000 9.160000 -4.532148 12.445816 175.438705
1.200000 0.880000 9.200000 2.717295 8.400289 77.948540
1.200000 0.920000 8.800000 20.596569 37.522655 1832.168335
1.200000 0.920000 8.840000 -6.898884 34.565937 1242.398560
1.200000 0.920000 8.880000 -19.563892 11.735469 520.467102
1.200000 0.920000 8.920000 -7.957606 -9.777197 158.917084
1.200000 0.920000 8.960000 15.323371 -11.040916 356.707520
1.200000 0.920000 9.000000 28.493544 7.324853 865.535522
1.200000 0.920000 9.040000 21.343807 27.605026 1217.595581
1.200000 0.920000 9.080000 2.989676 33.436996 1126.970825
1.200000 0.920000 9.120000 -9.832338 24.557175 699.729675
1.200000 0.920000 9.160000 -9.956953 13.684381 286.403198
1.200000 0.920000 9.200000 -4.402263 11.103992 142.678558
1.200000 0.960000 8.800000 -11.356100 48.637424 2494.560059
1.200000 0.960000 8.840000 -35.275528 30.202211 2156.536621
1.200000 0.960000 8.880000 -36.375748 0.977020 1324.149658
1.200000 0.960000 8.920000 -15.617328 -16.540110 517.476135
1.200000 0.960000 8.960000 8.337626 -10.710503 184.230865
1.200000 0.960000 9.000000 16.410744 9.986022 369.033142
1.200000 0.960000 9.040000 5.385103 26.524580 732.552673
1.200000 0.960000 9.080000 -11.923948 27.179165 880.887573
1.200000 0.960000 9.120000 -20.828987 16.038004 691.064270
1.200000 0.960000 9.160000 -17.881098 5.679318 351.988342
1.200000 0.960000 9.200000 -10.760429 3.772662 130.019821
1.200000 1.000000 8.800000 -42.970299 30.256401 2761.896484
1.200000 1.000000 8.840000 -52.535015 2.228080 2764.892090
1.200000 1.000000 8.880000 -38.544678 -23.639557 2044.520752
1.200000 1.000000 8.920000 -11.731701 -29.804924 1025.966309
1.200000 1.000000 8.960000 7.681939 -14.796890 277.960144
1.200000 1.000000 9.000000 7.388945 6.419550 95.807129
1.200000 1.000000 9.040000 -7.670040 16.503641 331.199707
1.200000 1.000000 9.080000 -21.906744 10.394135 587.943481
1.200000 1.000000 9.120000 -23.950005 -2.684477 580.809143
1.200000 1.000000 9.160000 -15.332815 -9.942774 333.953979
1.200000 1.000000 9.200000 -6.221666 -6.647385 82.896851
1.200000 1.040000 8.800000 -49.738155 -6.140782 2511.593262
1.200000 1.040000 8.840000 -42.165726 -31.041111 2741.499023
1.200000 1.040000 8.880000 -18.786226 -43.250702 2223.545410
1.200000 1.040000 8.920000 4.581260 -35.050377 1249.516846
1.200000 1.040000 8.960000 12.452702 -14.819693 374.693054
1.200000 1.040000 9.000000 2.868804 0.471070 8.451944
1.200000 1.040000 9.040000 -11.909861 0.261589 141.913208
1.200000 1.040000 9.080000 -17.407372 -11.238358 429.317261
1.200000 1.040000 9.120000 -9.811768 -20.616734 521.320496
1.200000 1.040000 9.160000 2.121913 -18.406111 343.287415
1.200000 1.040000 9.200000 6.680144 -6.951685 92.950256
1.200000 1.080000 8.800000 -27.390924 -33.053490 1842.795898
1.200000 1.080000 8.840000 -10.652578 -44.528690 2096.281738
1.200000 1.080000 8.880000 9.915407 -40.623863 1748.613525
1.200000 1.080000 8.920000 20.323267 -24.066814 992.246704
1.200000 1.080000 8.960000 14.944793 -8.303807 292.300049
1.200000 1.080000 9.000000 1.978302 -5.331570 32.339321
1.200000 1.080000 9.040000 -4.345252 -14.541471 230.335571
1.200000 1.080000 9.080000 2.598776 -23.705523 568.705444
1.200000 1.080000 9.120000 15.711075 -21.176771 695.293518
1.200000 1.080000 9.160000 21.527679 -7.214483 515.489746
1.200000 1.080000 9.200000 13.428969 6.625438 224.233643
1.200000 1.120000 8.800000 3.324308 -31.771271 1020.464661
1.200000 1.120000 8.840000 16.936674 -29.744535 1171.588257
1.200000 1.120000 8.880000 25.189157 -17.574532 943.357788
1.200000 1.120000 8.920000 21.190020 -4.315826 467.643311
1.200000 1.120000 8.960000 9.651473 -1.238289 94.684288
1.200000 1.120000 9.000000 3.418380 -9.948438 110.656731
1.200000 1.120000 9.040000 10.625172 -19.500891 493.179016
1.200000 1.120000 9.080000 25.463308 -16.757837 929.205200
1.200000 1.120000 9.120000 32.874386 -0.092455 1080.733765
1.200000 1.120000 9.160000 23.324682 17.782711 860.265625
1.200000 1.120000 9.200000 2.881315 21.579891 473.993683
1.200000 1.160000 8.800000 15.917517 -9.797902 349.366211
1.200000 1.160000 8.840000 19.979828 -3.225744 409.598938
1.200000 1.160000 8.880000 16.409956 5.708488 301.873505
1.200000 1.160000 8.920000 6.090013 7.548960 94.075043
1.200000 1.160000 8.960000 -0.543063 -1.625541 2.937300
1.200000 1.160000 9.000000 6.162305 -13.224113 212.851151
1.200000 1.160000 9.040000 23.008972 -12.861254 694.824646
1.200000 1.160000 9.080000 34.249165 4.485152 1193.121826
1.200000 1.160000 9.120000 26.207245 26.807617 1405.468018
1.200000 1.160000 9.160000 2.172084 34.759716 1212.955811
1.200000 1.160000 9.200000 -18.684071 20.464838 767.904053
1.200000 1.200000 8.800000 3.398749 6.879557 58.879799
1.200000 1.200000 8.840000 1.705419 9.243454 88.349899
1.200000 1.200000 8.880000 -4.995901 9.567673 116.499390
1.200000 1.200000 8.920000 -11.192838 1.558731 127.709259
1.200000 1.200000 8.960000 -6.809942 -11.224352 172.361389
1.200000 1.200000 9.000000 9.799669 -15.546972 337.741852
1.200000 1.200000 9.040000 25.729069 -1.925068 665.690857
1.200000 1.200000 9.080000 23.914503 22.401688 1073.739014
1.200000 1.200000 9.120000 1.301766 36.867516 1360.908325
1.200000 1.200000 9.160000 -24.765297 26.852623 1334.383301
1.200000 1.200000 9.200000 -31.293015 -0.131184 979.269958
