#kx 	ky 	kz 	real 	imag 	intensity
5.800000 3.800000 1.983333 -10.635755 -58.418541 3525.845215
5.800000 3.800000 1.991667 -18.407391 0.412474 339.002167
5.800000 3.800000 2.000000 -24.053816 -74.593925 6142.839844
5.800000 3.800000 2.008333 24.381798 -75.509270 6296.122070
5.800000 3.800000 2.016667 87.619110 -41.065350 9363.471680
5.800000 3.900000 1.983333 -65.284752 11.754162 4400.258789
5.800000 3.900000 1.991667 -14.188435 -36.792122 1554.971924
5.800000 3.900000 2.000000 30.120386 10.632568 1020.289185
5.800000 3.900000 2.008333 -31.402250 17.903048 1306.620361
5.800000 3.900000 2.016667 6.274413 -47.830631 2327.137451
5.800000 4.000000 1.983333 -37.157803 -115.823868 14795.870117
5.800000 4.000000 1.991667 105.555038 -60.903442 14851.095703
5.800000 4.000000 2.000000 9.003300 102.289749 10544.251953
5.800000 4.000000 2.008333 -62.966324 -82.316528 10740.768555
5.800000 4.000000 2.016667 134.955536 18.960567 18572.500000
5.800000 4.100000 1.983333 41.669762 -30.656746 2676.205078
5.800000 4.100000 1.991667 137.278152 144.258362 39655.765625
5.800000 4.100000 2.000000 -197.700195 107.823563 50711.289062
5.800000 4.100000 2.008333 19.953957 -74.322098 5921.934570
5.800000 4.100000 2.016667 -132.196609 99.402512 27356.802734
5.800000 4.200000 1.983333 -4.841480 -36.469658 1353.475830
5.800000 4.200000 1.991667 -70.807213 161.887268 31221.150391
5.800000 4.200000 2.000000 -153.649139 -145.655945 44823.710938
5.800000 4.200000 2.008333 24.423677 -31.618958 1596.274414
5.800000 4.200000 2.016667 -23.536690 -197.704681 39641.117188
5.900000 3.800000 1.983333 -56.318947 54.218872 6111.509766
5.900000 3.800000 1.991667 -45.116398 -175.063400 32682.683594
5.900000 3.800000 2.000000 91.381783 47.293060 10587.263672
5.900000 3.800000 2.008333 -75.995712 -87.308014 13398.037109
5.900000 3.800000 2.016667 141.675522 -2.054693 20076.175781
5.900000 3.900000 1.983333 173.513977 -851.603882 755336.312500
5.900000 3.900000 1.991667 180.019470 369.976807 169289.859375
5.900000 3.900000 2.000000 -569.654724 -285.187744 405838.562500
5.900000 3.900000 2.008333 -43.718315 -597.801392 359277.781250
5.900000 3.900000 2.016667 368.200195 -618.316162 517886.250000
5.900000 4.000000 1.983333 1281.570190 103.906593 1653218.750000
5.900000 4.000000 1.991667 -567.770569 267.236145 393778.562500
5.900000 4.000000 2.000000 310.170593 -840.075073 801931.937500
5.900000 4.000000 2.008333 731.566467 -321.620575 638629.312500
5.900000 4.000000 2.016667 1159.707275 350.701599 1467912.625000
5.900000 4.100000 1.983333 129.728943 754.161377 585589.000000
5.900000 4.100000 1.991667 -259.014282 -209.936508 111161.734375
5.900000 4.100000 2.000000 412.669281 20.741512 170726.140625
5.900000 4.100000 2.008333 334.712402 318.024933 213172.250000
5.900000 4.100000 2.016667 -77.524948 754.668579 575534.812500
5.900000 4.200000 1.983333 91.215080 158.044434 33298.234375
5.900000 4.200000 1.991667 -255.995483 -28.875874 66367.500000
5.900000 4.200000 2.000000 104.513527 -191.028137 47414.828125
5.900000 4.200000 2.008333 62.925316 60.004028 7560.079102
5.900000 4.200000 2.016667 38.322655 -6.900333 1516.240479
6.000000 3.800000 1.983333 -130.373749 -122.272095 31947.779297
6.000000 3.800000 1.991667 197.684769 -125.401794 54804.878906
6.000000 3.800000 2.000000 -27.603085 76.100914 6553.279297
6.000000 3.800000 2.008333 71.530182 -183.903351 38937.007812
6.000000 3.800000 2.016667 173.821686 87.744736 37913.117188
6.000000 3.900000 1.983333 1314.803345 63.534218 1732744.500000
6.000000 3.900000 1.991667 -533.737732 323.012604 389213.125000
6.000000 3.900000 2.000000 348.617065 -926.766541 980430.125000
6.000000 3.900000 2.008333 894.689270 -203.152405 841739.750000
6.000000 3.900000 2.016667 1071.224609 423.340668 1326739.500000
6.000000 4.000000 1.983333 88.377106 1905.808960 3639918.250000
6.000000 4.000000 1.991667 -501.646759 -872.463989 1012842.875000
6.000000 4.000000 2.000000 1399.139404 337.961792 2071809.250000
6.000000 4.000000 2.008333 576.923157 1006.662170 1346209.125000
6.000000 4.000000 2.016667 -153.971420 1801.240479 3268174.500000
6.000000 4.100000 1.983333 -1099.929932 312.472565 1307485.000000
6.000000 4.100000 1.991667 401.432434 -396.927612 318699.531250
6.000000 4.100000 2.000000 -51.298904 744.236450 556519.437500
6.000000 4.100000 2.008333 -388.301300 478.698090 379929.750000
6.000000 4.100000 2.016667 -1190.336426 165.178635 1444184.750000
6.000000 4.200000 1.983333 -204.277527 136.548416 60374.781250
6.000000 4.200000 1.991667 -25.541948 -234.944046 55851.093750
6.000000 4.200000 2.000000 205.015854 5.425919 42060.941406
6.000000 4.200000 2.008333 -14.136467 127.620232 16486.763672
6.000000 4.200000 2.016667 -19.042931 -86.663795 7873.246582
6.100000 3.800000 1.983333 68.752197 -113.438812 17595.228516
6.100000 3.800000 1.991667 114.626236 69.996613 18038.699219
6.100000 3.800000 2.000000 -56.654488 73.776016 8652.630859
6.100000 3.800000 2.008333 68.923576 -74.028061 10230.613281
6.100000 3.800000 2.016667 94.495491 182.236694 42139.609375
6.100000 3.900000 1.983333 73.338692 851.215271 729946.000000
6.100000 3.900000 1.991667 -240.952271 -337.669952 172079.000000
6.100000 3.900000 2.000000 607.115723 122.325195 383552.937500
6.100000 3.900000 2.008333 279.463562 525.628723 354385.437500
6.100000 3.900000 2.016667 -198.061081 785.784546 656685.562500
6.100000 4.000000 1.983333 -1222.381714 176.981888 1525539.625000
6.100000 4.000000 1.991667 530.892944 -453.412354 487430.062500
6.100000 4.000000 2.000000 -46.756107 918.694336 846185.437500
6.100000 4.000000 2.008333 -576.192383 442.753845 528028.625000
6.100000 4.000000 2.016667 -1097.113525 65.336411 1207927.000000
6.100000 4.100000 1.983333 -239.884430 -716.666016 571154.750000
6.100000 4.100000 1.991667 350.483765 197.964096 162028.656250
6.100000 4.100000 2.000000 -418.465149 32.576328 176174.296875
6.100000 4.100000 2.008333 -257.809265 -174.554352 96934.843750
6.100000 4.100000 2.016667 -192.747147 -661.585083 474846.281250
6.100000 4.200000 1.983333 -45.831902 -93.363319 10817.272461
6.100000 4.200000 1.991667 162.428406 -24.349188 26975.869141
6.100000 4.200000 2.000000 87.689369 209.644287 51640.152344
6.100000 4.200000 2.008333 -132.911026 80.962494 24220.267578
6.100000 4.200000 2.016667 65.768463 19.841438 4719.173340
6.200000 3.800000 1.983333 44.234009 8.754887 2033.295654
6.200000 3.800000 1.991667 28.996721 11.786568 979.732971
6.200000 3.800000 2.000000 -101.589813 -44.591339 12308.877930
6.200000 3.800000 2.008333 148.036636 -103.190315 32563.085938
6.200000 3.800000 2.016667 -20.162643 161.227158 26400.728516
6.200000 3.900000 1.983333 -60.700562 -40.866909 5354.662109
6.200000 3.900000 1.991667 91.739441 -6.860198 8463.187500
6.200000 3.900000 2.000000 45.144753 20.727589 2467.681641
6.200000 3.900000 2.008333 27.493767 118.389908 14772.077148
6.200000 3.900000 2.016667 -95.965538 -30.276373 10126.043945
6.200000 4.000000 1.983333 107.165024 -128.864990 28090.527344
6.200000 4.000000 1.991667 119.250488 59.441177 17753.931641
6.200000 4.000000 2.000000 -9.882267 62.178802 3963.862549
6.200000 4.000000 2.008333 -2.522652 -10.860931 124.323601
6.200000 4.000000 2.016667 61.755077 39.492439 5373.342285
6.200000 4.100000 1.983333 148.621674 71.092682 27142.572266
6.200000 4.100000 1.991667 81.067108 122.197815 21504.181641
6.200000 4.100000 2.000000 14.577900 126.686996 16262.110352
6.200000 4.100000 2.008333 -20.846020 110.552963 12656.514648
6.200000 4.100000 2.016667 -78.037529 96.429749 15388.552734
6.200000 4.200000 1.983333 2.182110 109.368629 11966.258789
6.200000 4.200000 1.991667 -17.994663 107.061806 11786.038086
6.200000 4.200000 2.000000 -167.236847 115.768936 41370.609375
6.200000 4.200000 2.008333 -117.497330 -63.354336 17819.394531
6.200000 4.200000 2.016667 -87.787865 -0.226532 7706.760254
