#kx 	ky 	kz 	real 	imag 	intensity
1.800000 1.800000 -4.200000 -12.865904 -15.969688 420.562439
1.800000 1.800000 -4.160000 3.116698 -24.945335 631.983582
1.800000 1.800000 -4.120000 19.821430 -16.465153 663.990356
1.800000 1.800000 -4.080000 22.393314 1.856479 504.907043
1.800000 1.800000 -4.040000 9.610003 13.962942 287.315918
1.800000 1.800000 -4.000000 -6.225056 10.917830 157.950317
1.800000 1.800000 -3.960000 -12.198740 -1.920446 152.497375
1.800000 1.800000 -3.920000 -6.504499 -12.208840 191.364304
1.800000 1.800000 -3.880000 2.354879 -13.324070 183.076294
1.800000 1.800000 -3.840000 6.186008 -9.072028 120.568398
1.800000 1.800000 -3.800000 5.181705 -6.910347 74.602966
1.800000 1.840000 -4.200000 0.087458 -22.573149 509.554718
1.800000 1.840000 -4.160000 17.071842 -23.106018 825.335815
1.800000 1.840000 -4.120000 27.697800 -10.484598 877.094910
1.800000 1.840000 -4.080000 24.762638 4.254853 631.291992
1.800000 1.840000 -4.040000 13.265109 9.963533 275.235107
1.800000 1.840000 -4.000000 4.097929 5.042208 42.216885
1.800000 1.840000 -3.960000 3.506539 -3.180609 22.412086
1.800000 1.840000 -3.920000 8.916059 -6.978383 128.193939
1.800000 1.840000 -3.880000 13.840549 -5.069134 217.256927
1.800000 1.840000 -3.840000 15.126221 -1.487708 231.015823
1.800000 1.840000 -3.800000 14.721419 0.494541 216.964752
1.800000 1.880000 -4.200000 12.524262 -16.985001 445.347382
1.800000 1.880000 -4.160000 25.425234 -11.656918 782.326233
1.800000 1.880000 -4.120000 30.211996 0.428425 912.948242
1.800000 1.880000 -4.080000 25.891294 10.621744 783.180603
1.800000 1.880000 -4.040000 18.100807 13.889314 520.552246
1.800000 1.880000 -4.000000 12.956287 11.698014 304.708923
1.800000 1.880000 -3.960000 12.233062 8.711823 225.543640
1.800000 1.880000 -3.920000 13.743430 7.980738 252.574036
1.800000 1.880000 -3.880000 14.885456 9.379992 309.561066
1.800000 1.880000 -3.840000 14.881639 11.553427 354.944885
1.800000 1.880000 -3.800000 14.020559 13.961242 391.492371
1.800000 1.920000 -4.200000 15.493328 -5.334773 268.503021
1.800000 1.920000 -4.160000 23.307096 1.398914 545.177734
1.800000 1.920000 -4.120000 25.090256 10.921996 748.810913
1.800000 1.920000 -4.080000 21.522476 18.652586 811.135986
1.800000 1.920000 -4.040000 15.655476 22.465305 749.783875
1.800000 1.920000 -4.000000 10.314216 22.826475 627.431030
1.800000 1.920000 -3.960000 6.888159 21.387320 504.864197
1.800000 1.920000 -3.920000 5.472417 19.860102 424.371002
1.800000 1.920000 -3.880000 5.202226 19.524902 408.284943
1.800000 1.920000 -3.840000 4.525869 20.774878 452.079041
1.800000 1.920000 -3.800000 1.977110 22.593752 514.386597
1.800000 1.960000 -4.200000 9.349602 2.564482 93.991623
1.800000 1.960000 -4.160000 14.051167 8.317798 266.621033
1.800000 1.960000 -4.120000 14.628593 16.006924 470.217346
1.800000 1.960000 -4.080000 10.877773 22.706812 633.925232
1.800000 1.960000 -4.040000 4.485655 26.101063 701.386597
1.800000 1.960000 -4.000000 -1.778500 25.615053 659.294006
1.800000 1.960000 -3.960000 -5.642848 22.799017 551.636902
1.800000 1.960000 -3.920000 -6.858065 20.269024 457.866394
1.800000 1.960000 -3.880000 -7.333265 19.627924 439.032166
1.800000 1.960000 -3.840000 -9.349577 20.053318 489.550140
1.800000 1.960000 -3.800000 -13.240325 19.070648 538.995850
1.800000 2.000000 -4.200000 1.530104 2.527572 8.729836
1.800000 2.000000 -4.160000 4.542924 7.557876 77.759644
1.800000 2.000000 -4.120000 3.406773 13.820946 202.624634
1.800000 2.000000 -4.080000 -1.492202 17.901865 322.703430
1.800000 2.000000 -4.040000 -7.244377 18.015083 377.024200
1.800000 2.000000 -4.000000 -10.854694 15.408978 355.260986
1.800000 2.000000 -3.960000 -11.810900 13.020956 309.042664
1.800000 2.000000 -3.920000 -12.270376 12.530174 307.567383
1.800000 2.000000 -3.880000 -14.559711 12.691408 373.057037
1.800000 2.000000 -3.840000 -18.444485 10.741260 455.573669
1.800000 2.000000 -3.800000 -21.043400 5.550426 473.631897
1.800000 2.040000 -4.200000 -1.914110 -1.783821 6.845837
1.800000 2.040000 -4.160000 -1.255249 2.665572 8.680923
1.800000 2.040000 -4.120000 -4.395130 5.504114 49.612442
1.800000 2.040000 -4.080000 -7.947142 4.499849 83.405708
1.800000 2.040000 -4.040000 -8.447899 1.654436 74.104156
1.800000 2.040000 -4.000000 -6.234586 0.954635 39.781387
1.800000 2.040000 -3.960000 -5.223888 3.807378 41.785133
1.800000 2.040000 -3.920000 -8.608339 7.065114 124.019348
1.800000 2.040000 -3.880000 -14.974443 6.028910 260.581726
1.800000 2.040000 -3.840000 -19.110832 -0.527952 365.502655
1.800000 2.040000 -3.800000 -16.995230 -8.574317 362.356750
1.800000 2.080000 -4.200000 -1.533407 -4.799533 25.386858
1.800000 2.080000 -4.160000 -3.826933 -3.077947 24.119179
1.800000 2.080000 -4.120000 -6.031353 -6.120176 73.833771
1.800000 2.080000 -4.080000 -3.010973 -10.951754 129.006866
1.800000 2.080000 -4.040000 4.634693 -11.009336 142.685852
1.800000 2.080000 -4.000000 10.071245 -3.516148 113.793274
1.800000 2.080000 -3.960000 6.913918 6.447536 89.372986
1.800000 2.080000 -3.920000 -3.699481 10.130064 116.304359
1.800000 2.080000 -3.880000 -13.313739 3.662443 190.669128
1.800000 2.080000 -3.840000 -13.942400 -7.783133 254.967667
1.800000 2.080000 -3.800000 -5.644918 -14.728381 248.790314
1.800000 2.120000 -4.200000 -1.616927 -5.531685 33.213989
1.800000 2.120000 -4.160000 -4.438172 -9.447086 108.944809
1.800000 2.120000 -4.120000 -0.335456 -17.163506 294.698456
1.800000 2.120000 -4.080000 12.060041 -19.303083 518.053650
1.800000 2.120000 -4.040000 24.089535 -9.357693 667.872070
1.800000 2.120000 -4.000000 24.544685 8.119498 668.367859
1.800000 2.120000 -3.960000 11.088984 20.243301 532.756836
1.800000 2.120000 -3.920000 -6.348523 17.601408 350.113312
1.800000 2.120000 -3.880000 -14.301001 3.333559 215.631226
1.800000 2.120000 -3.840000 -8.131778 -9.840676 162.964722
1.800000 2.120000 -3.800000 4.315867 -11.670231 154.820999
1.800000 2.160000 -4.200000 -3.725408 -7.512801 70.320847
1.800000 2.160000 -4.160000 -1.957262 -16.911837 289.841095
1.800000 2.160000 -4.120000 11.516276 -23.116005 666.974304
1.800000 2.160000 -4.080000 29.266987 -15.056803 1083.263794
1.800000 2.160000 -4.040000 36.325081 6.608792 1363.187622
1.800000 2.160000 -4.000000 24.411053 27.814672 1369.555420
1.800000 2.160000 -3.960000 0.935445 33.075211 1094.844604
1.800000 2.160000 -3.920000 -16.899025 19.748577 675.583374
1.800000 2.160000 -3.880000 -17.502344 0.312794 306.429901
1.800000 2.160000 -3.840000 -4.645451 -9.558035 112.936249
1.800000 2.160000 -3.800000 7.660295 -5.016768 83.848091
1.800000 2.200000 -4.200000 -4.504258 -13.156877 193.391739
1.800000 2.200000 -4.160000 5.596366 -23.175030 568.401367
1.800000 2.200000 -4.120000 25.214746 -20.620850 1061.002930
1.800000 2.200000 -4.080000 38.988457 -0.508947 1520.358765
1.800000 2.200000 -4.040000 33.153927 26.099152 1780.348633
1.800000 2.200000 -4.000000 9.139893 40.552406 1728.035278
1.800000 2.200000 -3.960000 -16.598606 33.100014 1371.124756
1.800000 2.200000 -3.920000 -26.852737 11.468662 852.599731
1.800000 2.200000 -3.880000 -18.295303 -6.728149 379.986115
1.800000 2.200000 -3.840000 -2.575971 -9.888854 104.425064
1.800000 2.200000 -3.800000 6.038006 -1.067071 37.596157
1.840000 1.800000 -4.200000 16.479683 -18.784935 624.453735
1.840000 1.800000 -4.160000 30.186283 -9.327118 998.206787
1.840000 1.800000 -4.120000 30.788351 9.017537 1029.238525
1.840000 1.800000 -4.080000 16.693829 21.031136 720.992554
1.840000 1.800000 -4.040000 -0.117661 17.906231 320.646973
1.840000 1.800000 -4.000000 -6.803734 5.182888 73.153122
1.840000 1.800000 -3.960000 -1.987301 -4.509505 24.285004
1.840000 1.800000 -3.920000 5.047680 -4.918083 49.666615
1.840000 1.800000 -3.880000 6.000919 -1.074474 37.165527
1.840000 1.800000 -3.840000 2.358201 -1.424075 7.589099
1.840000 1.800000 -3.800000 2.055511 -7.189568 55.915005
1.840000 1.840000 -4.200000 23.362679 -6.364566 586.322449
1.840000 1.840000 -4.160000 33.892422 2.378243 1154.352295
1.840000 1.840000 -4.120000 35.577980 17.580221 1574.856934
1.840000 1.840000 -4.080000 26.871677 30.584389 1657.491943
1.840000 1.840000 -4.040000 12.807850 35.495316 1423.958496
1.840000 1.840000 -4.000000 -0.223644 32.079563 1029.148438
1.840000 1.840000 -3.960000 -8.521748 23.518824 625.755249
1.840000 1.840000 -3.920000 -11.130286 13.139420 296.527618
1.840000 1.840000 -3.880000 -8.150332 3.703497 80.143806
1.840000 1.840000 -3.840000 -0.659675 -1.851997 3.865063
1.840000 1.840000 -3.800000 8.113600 -1.103605 67.048439
1.840000 1.880000 -4.200000 17.945839 6.761538 367.771515
1.840000 1.880000 -4.160000 29.990978 14.829125 1119.361816
1.840000 1.880000 -4.120000 34.451782 33.698067 2322.484863
1.840000 1.880000 -4.080000 23.533352 54.889366 3566.661133
1.840000 1.880000 -4.040000 -1.554966 65.542557 4298.244629
1.840000 1.880000 -4.000000 -29.475887 57.155666 4135.598145
1.840000 1.880000 -3.960000 -45.414364 32.609833 3125.865723
1.840000 1.880000 -3.920000 -41.393761 5.322346 1741.770874
1.840000 1.880000 -3.880000 -22.281021 -9.860537 593.674072
1.840000 1.880000 -3.840000 -2.126885 -7.231542 56.818840
1.840000 1.880000 -3.800000 6.563650 6.343754 83.324722
1.840000 1.920000 -4.200000 5.095862 10.073655 127.446342
1.840000 1.920000 -4.160000 19.982611 22.684452 913.889038
1.840000 1.920000 -4.120000 20.244339 50.043720 2914.207275
1.840000 1.920000 -4.080000 -4.515419 74.741219 5606.638672
1.840000 1.920000 -4.040000 -45.560154 75.410919 7762.534180
1.840000 1.920000 -4.000000 -78.432930 45.318523 8205.493164
1.840000 1.920000 -3.960000 -81.581589 0.493675 6655.799316
1.840000 1.920000 -3.920000 -54.362049 -31.665014 3957.905518
1.840000 1.920000 -3.880000 -17.738586 -34.185551 1483.309326
1.840000 1.920000 -3.840000 3.434244 -13.297555 188.619003
1.840000 1.920000 -3.800000 0.387315 9.154665 83.957901
1.840000 1.960000 -4.200000 -3.766231 2.337010 19.646111
1.840000 1.960000 -4.160000 8.453465 23.788130 637.336182
1.840000 1.960000 -4.120000 -5.042680 54.810326 3029.600586
1.840000 1.960000 -4.080000 -45.962662 67.919792 6725.664062
1.840000 1.960000 -4.040000 -90.167030 43.802673 10048.767578
1.840000 1.960000 -4.000000 -105.300629 -8.679160 11163.550781
1.840000 1.960000 -3.960000 -78.658936 -56.765068 9409.500977
1.840000 1.960000 -3.920000 -29.152481 -70.420258 5808.879883
1.840000 1.960000 -3.880000 8.736665 -47.136204 2298.151123
1.840000 1.960000 -3.840000 14.166105 -11.883209 341.889221
1.840000 1.960000 -3.800000 -4.941810 6.807851 70.768311
1.840000 2.000000 -4.200000 -2.053643 -7.549376 61.210522
1.840000 2.000000 -4.160000 -0.798914 19.713272 389.251373
1.840000 2.000000 -4.120000 -29.756639 41.508987 2608.453613
1.840000 2.000000 -4.080000 -73.904846 30.625437 6399.843750
1.840000 2.000000 -4.040000 -98.940491 -16.136320 10049.601562
1.840000 2.000000 -4.000000 -80.825989 -70.627014 11521.015625
1.840000 2.000000 -3.960000 -28.740664 -95.499313 9946.144531
1.840000 2.000000 -3.920000 21.575207 -76.276352 6283.571777
1.840000 2.000000 -3.880000 38.557056 -32.912220 2569.860840
1.840000 2.000000 -3.840000 20.570862 -0.288666 423.243683
1.840000 2.000000 -3.800000 -7.012310 2.755814 56.766998
1.840000 2.040000 -4.200000 5.921698 -10.038954 135.847092
1.840000 2.040000 -4.160000 -6.731840 13.020826 214.859589
1.840000 2.040000 -4.120000 -40.650734 15.089452 1880.173706
1.840000 2.040000 -4.080000 -68.326324 -16.827278 4951.644043
1.840000 2.040000 -4.040000 -61.181698 -65.486069 8031.625488
1.840000 2.040000 -4.000000 -17.091190 -95.350143 9383.757812
1.840000 2.040000 -3.960000 35.179020 -83.517036 8212.658203
1.840000 2.040000 -3.920000 60.346024 -40.197823 5257.507812
1.840000 2.040000 -3.880000 46.871895 1.100196 2198.185059
1.840000 2.040000 -3.840000 14.383217 13.801342 397.353943
1.840000 2.040000 -3.800000 -7.370254 -0.537736 54.609798
1.840000 2.080000 -4.200000 10.334282 -4.548846 127.489388
1.840000 2.080000 -4.160000 -9.597877 4.883943 115.972130
1.840000 2.080000 -4.120000 -32.622276 -11.105621 1187.547729
1.840000 2.080000 -4.080000 -33.226967 -45.988640 3218.986328
1.840000 2.080000 -4.040000 -2.246838 -72.569885 5271.436523
1.840000 2.080000 -4.000000 41.794487 -66.643417 6188.124512
1.840000 2.080000 -3.960000 67.496468 -29.745668 5440.577637
1.840000 2.080000 -3.920000 58.177101 11.528518 3517.481934
1.840000 2.080000 -3.880000 25.709494 29.307070 1519.882446
1.840000 2.080000 -3.840000 -2.209953 18.090767 332.159729
1.840000 2.080000 -3.800000 -7.747015 -3.979129 75.849724
1.840000 2.120000 -4.200000 6.564783 0.819715 43.768311
1.840000 2.120000 -4.160000 -8.732445 -4.252047 94.335495
1.840000 2.120000 -4.120000 -11.912530 -24.835176 758.694397
1.840000 2.120000 -4.080000 7.351475 -43.081940 1910.097778
1.840000 2.120000 -4.040000 38.668640 -39.060146 3020.958740
1.840000 2.120000 -4.000000 58.216206 -10.277905 3494.761963
1.840000 2.120000 -3.960000 49.932095 24.342638 3085.778076
1.840000 2.120000 -3.920000 20.224197 40.719528 2067.098145
1.840000 2.120000 -3.880000 -8.207050 30.608891 1004.259827
1.840000 2.120000 -3.840000 -16.979317 7.151264 339.437805
1.840000 2.120000 -3.800000 -6.816801 -9.289593 132.765305
1.840000 2.160000 -4.200000 -0.281988 -1.335035 1.861835
1.840000 2.160000 -4.160000 -2.830106 -12.448178 162.966644
1.840000 2.160000 -4.120000 9.338518 -22.731194 603.915100
1.840000 2.160000 -4.080000 29.779543 -17.845856 1205.295776
1.840000 2.160000 -4.040000 41.357620 4.695713 1732.502441
1.840000 2.160000 -4.000000 31.572317 31.065098 1961.851562
1.840000 2.160000 -3.960000 4.822889 42.272530 1810.227051
1.840000 2.160000 -3.920000 -20.685045 30.805134 1376.827393
1.840000 2.160000 -3.880000 -28.678654 6.804631 868.768127
1.840000 2.160000 -3.840000 -18.070330 -11.811768 466.054657
1.840000 2.160000 -3.800000 -1.549377 -15.095058 230.261368
1.840000 2.200000 -4.200000 -1.450973 -9.707623 96.343262
1.840000 2.200000 -4.160000 7.440393 -16.005257 311.527710
1.840000 2.200000 -4.120000 21.783587 -10.563867 586.119873
1.840000 2.200000 -4.080000 28.262703 7.984241 862.528503
1.840000 2.200000 -4.040000 17.409389 28.300697 1104.016357
1.840000 2.200000 -4.000000 -6.733219 35.053837 1274.107666
1.840000 2.200000 -3.960000 -28.829376 22.183487 1323.239990
1.840000 2.200000 -3.920000 -34.801456 -1.671543 1213.935425
1.840000 2.200000 -3.880000 -23.086597 -20.683826 960.811646
1.840000 2.200000 -3.840000 -4.468418 -24.906166 640.283875
1.840000 2.200000 -3.800000 8.359982 -16.755106 350.622894
1.880000 1.800000 -4.200000 40.100124 7.377508 1662.447632
1.880000 1.800000 -4.160000 36.169106 28.168011 2101.641113
1.880000 1.800000 -4.120000 16.052504 40.193527 1873.202515
1.880000 1.800000 -4.080000 -5.908257 33.293030 1143.333252
1.880000 1.800000 -4.040000 -13.727932 14.742836 405.807312
1.880000 1.800000 -4.000000 -5.848953 1.388784 36.138977
1.880000 1.800000 -3.960000 4.571144 2.016571 24.961918
1.880000 1.800000 -3.920000 4.868181 9.344608 111.020889
1.880000 1.800000 -3.880000 -3.606670 9.809296 109.230354
1.880000 1.800000 -3.840000 -8.320200 -0.504065 69.479813
1.880000 1.800000 -3.800000 -0.725961 -11.670776 136.734039
1.880000 1.840000 -4.200000 24.380989 26.873878 1316.637939
1.880000 1.840000 -4.160000 23.604486 37.348946 1952.115479
1.880000 1.840000 -4.120000 16.086657 48.742268 2634.589111
1.880000 1.840000 -4.080000 1.790791 56.479954 3193.192139
1.880000 1.840000 -4.040000 -16.807716 56.644936 3491.147949
1.880000 1.840000 -4.000000 -35.079041 46.750336 3416.133057
1.880000 1.840000 -3.960000 -46.526764 27.324097 2911.345947
1.880000 1.840000 -3.920000 -45.247204 3.893959 2062.472412
1.880000 1.840000 -3.880000 -30.520687 -13.947990 1126.058716
1.880000 1.840000 -3.840000 -9.517405 -18.075792 417.315247
1.880000 1.840000 -3.800000 6.212321 -8.360705 108.494339
1.880000 1.880000 -4.200000 -0.606464 27.568724 760.402344
1.880000 1.880000 -4.160000 10.236696 39.590431 1672.192139
1.880000 1.880000 -4.120000 6.130201 66.541267 4465.319824
1.880000 1.880000 -4.080000 -24.736156 89.761078 8668.928711
1.880000 1.880000 -4.040000 -72.969284 85.264130 12594.488281
1.880000 1.880000 -4.000000 -110.702370 44.926128 14273.372070
1.880000 1.880000 -3.960000 -112.249245 -13.055984 12770.351562
1.880000 1.880000 -3.920000 -75.616241 -55.922104 8845.097656
1.880000 1.880000 -3.880000 -25.181602 -61.594879 4428.042480
1.880000 1.880000 -3.840000 7.810351 -35.368858 1311.957764
1.880000 1.880000 -3.800000 9.672489 -3.286812 104.360176
1.880000 1.920000 -4.200000 -15.920980 9.359226 341.072723
1.880000 1.920000 -4.160000 -0.926088 37.111702 1378.136108
1.880000 1.920000 -4.120000 -22.765411 78.782913 6725.011719
1.880000 1.920000 -4.080000 -84.530525 93.384789 15866.128906
1.880000 1.920000 -4.040000 -149.905212 51.621387 25136.339844
1.880000 1.920000 -4.000000 -169.407196 -33.037735 29790.291016
1.880000 1.920000 -3.960000 -123.157700 -109.991241 27265.892578
1.880000 1.920000 -3.920000 -40.149151 -131.942169 19020.691406
1.880000 1.920000 -3.880000 25.377834 -93.691414 9422.115234
1.880000 1.920000 -3.840000 38.961491 -33.556217 2644.017578
1.880000 1.920000 -3.800000 10.764492 2.577014 122.515289
1.880000 1.960000 -4.200000 -10.731936 -11.963573 258.301514
1.880000 1.960000 -4.160000 -9.662941 32.288406 1135.913574
1.880000 1.960000 -4.120000 -61.058155 67.464470 8279.552734
1.880000 1.960000 -4.080000 -139.335938 44.605972 21404.197266
1.880000 1.960000 -4.040000 -182.906052 -43.278927 35327.691406
1.880000 1.960000 -4.000000 -146.875427 -145.908569 42861.703125
1.880000 1.960000 -3.960000 -46.207718 -194.105927 39812.261719
1.880000 1.960000 -3.920000 53.748653 -158.548889 28026.667969
1.880000 1.960000 -3.880000 92.253273 -73.659416 13936.375000
1.880000 1.960000 -3.840000 62.190292 -4.620405 3888.980713
1.880000 1.960000 -3.800000 8.375725 9.564676 161.635803
1.880000 2.000000 -4.200000 7.919670 -18.922949 420.799194
1.880000 2.000000 -4.160000 -16.789345 25.620750 938.304932
1.880000 2.000000 -4.120000 -85.894363 29.954025 8275.085938
1.880000 2.000000 -4.080000 -145.436264 -36.148083 22458.390625
1.880000 2.000000 -4.040000 -133.940033 -141.481628 37956.984375
1.880000 2.000000 -4.000000 -40.967697 -212.256317 46731.097656
1.880000 2.000000 -3.960000 77.251022 -194.649323 43856.078125
1.880000 2.000000 -3.920000 143.522675 -102.601921 31125.912109
1.880000 2.000000 -3.880000 124.833206 -4.761799 15606.003906
1.880000 2.000000 -3.840000 55.633675 36.457062 4424.223145
1.880000 2.000000 -3.800000 0.003666 14.846147 220.408081
1.880000 2.040000 -4.200000 22.243927 -8.082061 560.112000
1.880000 2.040000 -4.160000 -21.817194 16.361824 743.699219
1.880000 2.040000 -4.120000 -80.422234 -15.766108 6716.306152
1.880000 2.040000 -4.080000 -93.648972 -99.480659 18666.531250
1.880000 2.040000 -4.040000 -29.238720 -176.369537 31961.115234
1.880000 2.040000 -4.000000 80.932762 -182.038345 39688.074219
1.880000 2.040000 -3.960000 162.961349 -104.611923 37500.054688
1.880000 2.040000 -3.920000 163.706512 2.589916 26806.529297
1.880000 2.040000 -3.880000 95.067978 67.553825 13601.440430
1.880000 2.040000 -3.840000 18.449549 60.530800 4004.363525
1.880000 2.040000 -3.800000 -12.814363 12.166821 312.239441
1.880000 2.080000 -4.200000 20.565083 8.019245 487.230896
1.880000 2.080000 -4.160000 -22.579325 4.846395 533.313477
1.880000 2.080000 -4.120000 -48.615093 -45.043587 4392.352051
1.880000 2.080000 -4.080000 -18.242519 -108.889397 12189.689453
1.880000 2.080000 -4.040000 62.333130 -130.417419 20894.123047
1.880000 2.080000 -4.000000 139.505829 -80.808174 25991.837891
1.880000 2.080000 -3.960000 156.556412 11.700146 24646.802734
1.880000 2.080000 -3.920000 103.352127 84.176552 17767.353516
1.880000 2.080000 -3.880000 23.834415 93.068230 9229.774414
1.880000 2.080000 -3.840000 -24.993362 48.501747 2977.087646
1.880000 2.080000 -3.800000 -21.706547 -1.909326 474.819702
1.880000 2.120000 -4.200000 7.274096 13.992655 248.706848
1.880000 2.120000 -4.160000 -17.273102 -6.091509 335.466522
1.880000 2.120000 -4.120000 -11.423254 -46.282608 2272.570557
1.880000 2.120000 -4.080000 33.473091 -70.007950 6021.561035
1.880000 2.120000 -4.040000 88.875328 -47.052094 10112.722656
1.880000 2.120000 -4.000000 110.594513 15.590195 12474.200195
1.880000 2.120000 -3.960000 78.068825 75.960281 11864.705078
1.880000 2.120000 -3.920000 13.734005 92.531075 8750.623047
1.880000 2.120000 -3.880000 -36.734234 59.497818 4889.394043
1.880000 2.120000 -3.840000 -44.042274 8.746668 2016.226074
1.880000 2.120000 -3.800000 -16.860443 -21.495564 746.333801
1.880000 2.160000 -4.200000 -3.262362 6.161683 48.609348
1.880000 2.160000 -4.160000 -6.905856 -12.337007 199.892578
1.880000 2.160000 -4.120000 11.218889 -27.991919 909.410950
1.880000 2.160000 -4.080000 40.423630 -20.609291 2058.812744
1.880000 2.160000 -4.040000 55.377533 12.160858 3214.557617
1.880000 2.160000 -4.000000 38.494537 49.008202 3883.633057
1.880000 2.160000 -3.960000 -2.489929 61.791321 3824.366943
1.880000 2.160000 -3.920000 -39.580189 40.139153 3177.742920
1.880000 2.160000 -3.880000 -48.199234 0.411545 2323.335693
1.880000 2.160000 -3.840000 -27.185549 -29.296436 1597.335205
1.880000 2.160000 -3.800000 3.206484 -33.145615 1108.913208
1.880000 2.200000 -4.200000 -1.557428 -5.632475 34.150356
1.880000 2.200000 -4.160000 4.412129 -11.428668 150.081329
1.880000 2.200000 -4.120000 14.835484 -8.087475 285.498810
1.880000 2.200000 -4.080000 18.998014 5.684299 393.235809
1.880000 2.200000 -4.040000 8.839983 20.556965 500.734100
1.880000 2.200000 -4.000000 -12.319962 23.148689 687.643250
1.880000 2.200000 -3.960000 -30.618553 7.734602 997.319824
1.880000 2.200000 -3.920000 -32.402725 -17.733879 1364.427124
1.880000 2.200000 -3.880000 -15.484409 -37.365555 1635.951660
1.880000 2.200000 -3.840000 9.336767 -39.832062 1673.768311
1.880000 2.200000 -3.800000 27.530289 -26.374802 1453.546997
1.920000 1.800000 -4.200000 34.194599 47.298943 3406.460449
1.920000 1.800000 -4.160000 8.056946 61.748497 3877.791260
1.920000 1.800000 -4.120000 -22.622053 52.134224 3229.734619
1.920000 1.800000 -4.080000 -35.727108 24.226807 1863.364502
1.920000 1.800000 -4.040000 -24.638748 0.280658 607.146729
1.920000 1.800000 -4.000000 -4.827324 -3.053352 32.626019
1.920000 1.800000 -3.960000 2.650743 9.101067 89.855858
1.920000 1.800000 -3.920000 -7.098230 16.869186 334.954346
1.920000 1.800000 -3.880000 -19.124222 7.770596 426.118042
1.920000 1.800000 -3.840000 -16.268126 -10.298170 370.704224
1.920000 1.800000 -3.800000 1.796251 -18.715687 353.503479
1.920000 1.840000 -4.200000 -3.992365 51.473602 2665.470703
1.920000 1.840000 -4.160000 -13.807016 55.009823 3216.714355
1.920000 1.840000 -4.120000 -26.348982 57.064579 3950.635010
1.920000 1.840000 -4.080000 -42.765442 55.260010 4882.551758
1.920000 1.840000 -4.040000 -61.687157 45.004734 5830.731445
1.920000 1.840000 -4.000000 -76.545380 22.753418 6376.913086
1.920000 1.840000 -3.960000 -77.565475 -8.281639 6084.988281
1.920000 1.840000 -3.920000 -59.388954 -36.326515 4846.663574
1.920000 1.840000 -3.880000 -28.089622 -47.575424 3052.447754
1.920000 1.840000 -3.840000 0.556938 -37.191376 1383.508667
1.920000 1.840000 -3.800000 12.296872 -14.527508 362.261536
1.920000 1.880000 -4.200000 -31.635662 25.520363 1652.104004
1.920000 1.880000 -4.160000 -25.095455 42.171497 2408.217041
1.920000 1.880000 -4.120000 -45.493565 68.887505 6815.152344
1.920000 1.880000 -4.080000 -95.989716 73.958527 14683.888672
1.920000 1.880000 -4.040000 -148.206635 33.580070 23092.828125
1.920000 1.880000 -4.000000 -161.630585 -42.197296 27905.056641
1.920000 1.880000 -3.960000 -118.348068 -111.765366 26497.761719
1.920000 1.880000 -3.920000 -41.153740 -133.774109 19589.142578
1.920000 1.880000 -3.880000 23.300133 -100.790253 10701.571289
1.920000 1.880000 -3.840000 42.025291 -43.999615 3702.091309
1.920000 1.880000 -3.800000 19.922573 -5.079588 422.711121
1.920000 1.920000 -4.200000 -28.970352 -10.380378 947.033569
1.920000 1.920000 -4.160000 -28.736420 31.776157 1835.505981
1.920000 1.920000 -4.120000 -83.504829 64.599915 11146.205078
1.920000 1.920000 -4.080000 -166.299026 35.123787 28889.046875
1.920000 1.920000 -4.040000 -210.320129 -64.628326 48411.378906
1.920000 1.920000 -4.000000 -166.091721 -179.817719 59920.871094
1.920000 1.920000 -3.960000 -49.534554 -233.826935 57128.707031
1.920000 1.920000 -3.920000 66.956154 -192.989258 41727.980469
1.920000 1.920000 -3.880000 114.444382 -94.548164 22036.871094
1.920000 1.920000 -3.840000 82.803543 -11.794853 6995.545410
1.920000 1.920000 -3.800000 21.148415 9.210524 532.089172
1.920000 1.960000 -4.200000 -1.038471 -28.544182 815.848755
1.920000 1.960000 -4.160000 -31.411629 24.996937 1611.537354
1.920000 1.960000 -4.120000 -118.569489 27.794216 14831.242188
1.920000 1.960000 -4.080000 -193.338181 -60.112160 40993.125000
1.920000 1.960000 -4.040000 -175.416153 -199.016541 70378.406250
1.920000 1.960000 -4.000000 -50.129509 -292.608826 88132.890625
1.920000 1.960000 -3.960000 109.506409 -269.174713 84446.679688
1.920000 1.960000 -3.920000 201.247360 -145.461212 61659.464844
1.920000 1.960000 -3.880000 179.420410 -11.543747 32324.941406
1.920000 1.960000 -3.840000 87.675964 48.431168 10032.652344
1.920000 1.960000 -3.800000 11.103689 23.529060 676.908630
1.920000 2.000000 -4.200000 27.327879 -17.605740 1056.775024
1.920000 2.000000 -4.160000 -35.627480 17.288589 1568.212646
1.920000 2.000000 -4.120000 -121.718925 -30.621529 15753.174805
1.920000 2.000000 -4.080000 -141.644745 -156.615524 44591.656250
1.920000 2.000000 -4.040000 -44.582031 -274.769104 77485.617188
1.920000 2.000000 -4.000000 124.550140 -286.781372 97756.289062
1.920000 2.000000 -3.960000 254.780518 -170.950760 94137.273438
1.920000 2.000000 -3.920000 262.606689 -5.013029 68987.406250
1.920000 2.000000 -3.880000 161.569946 100.979416 36301.691406
1.920000 2.000000 -3.840000 42.960846 97.589119 11369.269531
1.920000 2.000000 -3.800000 -9.775326 27.472866 850.315369
1.920000 2.040000 -4.200000 33.954391 9.058685 1234.960571
1.920000 2.040000 -4.160000 -37.758308 5.450592 1455.398804
1.920000 2.040000 -4.120000 -84.766129 -78.304825 13316.941406
1.920000 2.040000 -4.080000 -36.911022 -191.115982 37887.742188
1.920000 2.040000 -4.040000 101.646690 -236.401810 66217.867188
1.920000 2.040000 -4.000000 242.605545 -158.392914 83945.765625
1.920000 2.040000 -3.960000 284.988281 1.626045 81220.960938
1.920000 2.040000 -3.920000 202.929901 136.789459 59891.898438
1.920000 2.040000 -3.880000 65.916641 165.987213 31896.759766
1.920000 2.040000 -3.840000 -26.505726 98.340294 10373.367188
1.920000 2.040000 -3.800000 -30.360584 12.570436 1079.780884
1.920000 2.080000 -4.200000 17.793049 27.436251 1069.340454
1.920000 2.080000 -4.160000 -33.044884 -7.905458 1154.460571
1.920000 2.080000 -4.120000 -29.460594 -89.094116 8805.688477
1.920000 2.080000 -4.080000 54.783569 -147.523483 24764.417969
1.920000 2.080000 -4.040000 172.162201 -116.646416 43246.210938
1.920000 2.080000 -4.000000 234.351959 2.153458 54925.476562
1.920000 2.080000 -3.960000 189.105133 132.747818 53382.734375
1.920000 2.080000 -3.920000 67.985138 187.464188 39764.800781
1.920000 2.080000 -3.880000 -41.802139 141.388687 21738.179688
1.920000 2.080000 -3.840000 -73.866241 47.695702 7731.101562
1.920000 2.080000 -3.800000 -33.782707 -16.975973 1429.455078
1.920000 2.120000 -4.200000 -3.274340 24.899916 630.727112
1.920000 2.120000 -4.160000 -21.412083 -16.651464 735.748535
1.920000 2.120000 -4.120000 11.451408 -64.905655 4343.878906
1.920000 2.120000 -4.080000 84.297340 -67.862991 11711.427734
1.920000 2.120000 -4.040000 141.930695 -3.868698 20159.289062
1.920000 2.120000 -4.000000 131.186096 91.043427 25498.695312
1.920000 2.120000 -3.960000 50.814316 149.472382 24924.085938
1.920000 2.120000 -3.920000 -44.334938 130.558151 19011.017578
1.920000 2.120000 -3.880000 -90.399307 54.531017 11145.666016
1.920000 2.120000 -3.840000 -67.913269 -18.426361 4951.742676
1.920000 2.120000 -3.800000 -11.633156 -42.542351 1945.181885
1.920000 2.160000 -4.200000 -11.217932 9.111816 208.867188
1.920000 2.160000 -4.160000 -8.096786 -17.044334 356.067291
1.920000 2.160000 -4.120000 21.878429 -30.917345 1434.547852
1.920000 2.160000 -4.080000 57.145348 -10.499893 3375.838623
1.920000 2.160000 -4.040000 63.757942 37.318748 5457.764160
1.920000 2.160000 -4.000000 27.181442 77.535530 6750.588867
1.920000 2.160000 -3.960000 -30.879753 76.198029 6759.698730
1.920000 2.160000 -3.920000 -68.954262 31.242516 5730.785156
1.920000 2.160000 -3.880000 -61.205994 -25.018250 4372.086426
1.920000 2.160000 -3.840000 -18.233334 -54.256226 3276.192383
1.920000 2.160000 -3.800000 25.461414 -43.793613 2566.164307
1.920000 2.200000 -4.200000 -3.762152 -2.777291 21.867132
1.920000 2.200000 -4.160000 0.930046 -10.881998 119.282867
1.920000 2.200000 -4.120000 11.767612 -10.824024 255.636200
1.920000 2.200000 -4.080000 17.965620 0.467251 322.981812
1.920000 2.200000 -4.040000 9.978767 14.068888 297.509399
1.920000 2.200000 -4.000000 -9.430885 15.294585 322.865936
1.920000 2.200000 -3.960000 -24.877674 -2.403423 624.675110
1.920000 2.200000 -3.920000 -20.910690 -29.397934 1301.495483
1.920000 2.200000 -3.880000 3.876792 -46.525894 2179.688477
1.920000 2.200000 -3.840000 34.782234 -40.919823 2884.235840
1.920000 2.200000 -3.800000 53.116447 -16.275621 3086.252686
1.960000 1.800000 -4.200000 -2.378281 71.131073 5065.285645
1.960000 1.800000 -4.160000 -39.612267 63.738434 5631.719727
1.960000 1.800000 -4.120000 -61.643318 29.930679 4695.744141
1.960000 1.800000 -4.080000 -52.319023 -7.452967 2792.826904
1.960000 1.800000 -4.040000 -22.586494 -22.037697 995.809814
1.960000 1.800000 -4.000000 -0.180511 -9.451462 89.362717
1.960000 1.800000 -3.960000 -2.090595 9.482887 94.295738
1.960000 1.800000 -3.920000 -18.761536 11.246574 478.480652
1.960000 1.800000 -3.880000 -26.271206 -6.330086 730.246277
1.960000 1.800000 -3.840000 -12.548780 -23.685804 718.489258
1.960000 1.800000 -3.800000 10.684654 -21.938156 595.444519
1.960000 1.840000 -4.200000 -43.858337 45.873543 4027.935547
1.960000 1.840000 -4.160000 -55.023766 38.348759 4498.242188
1.960000 1.840000 -4.120000 -65.310204 29.484699 5134.770508
1.960000 1.840000 -4.080000 -76.499741 17.123596 6145.428223
1.960000 1.840000 -4.040000 -86.066063 -3.247063 7417.910645
1.960000 1.840000 -4.000000 -85.738686 -32.370972 8399.001953
1.960000 1.840000 -3.960000 -67.465576 -61.836292 8375.331055
1.960000 1.840000 -3.920000 -32.861008 -77.007462 7009.994629
1.960000 1.840000 -3.880000 3.820236 -68.295837 4678.915527
1.960000 1.840000 -3.840000 24.605438 -40.970741 2284.029297
1.960000 1.840000 -3.800000 22.103840 -12.831248 653.220703
1.960000 1.880000 -4.200000 -51.261738 -1.181122 2629.160889
1.960000 1.880000 -4.160000 -52.892395 16.976467 3085.805908
1.960000 1.880000 -4.120000 -87.194771 29.652950 8482.225586
1.960000 1.880000 -4.080000 -137.910492 2.863083 19027.501953
1.960000 1.880000 -4.040000 -161.806168 -69.335457 30988.642578
1.960000 1.880000 -4.000000 -125.252129 -151.122025 38525.960938
1.960000 1.880000 -3.960000 -37.606522 -190.004852 37516.093750
1.960000 1.880000 -3.920000 51.734604 -160.500458 28436.865234
1.960000 1.880000 -3.880000 92.464073 -86.231216 15985.427734
1.960000 1.880000 -3.840000 73.439751 -19.377115 5768.869629
1.960000 1.880000 -3.800000 27.374262 3.232406 759.798645
1.960000 1.920000 -4.200000 -21.073700 -34.655472 1645.102539
1.960000 1.920000 -4.160000 -45.665672 7.203202 2137.239746
1.960000 1.920000 -4.120000 -119.629242 5.003357 14336.188477
1.960000 1.920000 -4.080000 -181.579269 -77.208794 38932.230469
1.960000 1.920000 -4.040000 -159.417831 -203.940048 67005.585938
1.960000 1.920000 -4.000000 -39.773376 -288.067139 84564.601562
1.960000 1.920000 -3.960000 110.969147 -263.939819 81978.375000
1.960000 1.920000 -3.920000 198.710098 -146.232773 60869.726562
1.960000 1.920000 -3.880000 180.113983 -17.722809 32755.144531
1.960000 1.920000 -3.840000 94.289284 42.537598 10699.916016
1.960000 1.920000 -3.800000 20.527775 22.302320 918.783020
1.960000 1.960000 -4.200000 20.437384 -31.545921 1412.831787
1.960000 1.960000 -4.160000 -43.407387 3.187340 1894.360352
1.960000 1.960000 -4.120000 -131.937683 -49.814735 19889.060547
1.960000 1.960000 -4.080000 -149.169556 -185.947098 56827.882812
1.960000 1.960000 -4.040000 -40.092194 -312.658173 99362.515625
1.960000 1.960000 -4.000000 146.798279 -323.378540 126123.414062
1.960000 1.960000 -3.960000 290.850494 -194.219467 122315.210938
1.960000 1.960000 -3.920000 300.553131 -9.629593 90424.914062
1.960000 1.960000 -3.880000 189.921906 109.817490 48130.210938
1.960000 1.960000 -3.840000 58.642612 108.957230 15310.633789
1.960000 1.960000 -3.800000 -0.943478 33.684204 1135.515747
1.960000 2.000000 -4.200000 40.781456 0.324211 1663.232300
1.960000 2.000000 -4.160000 -44.872456 -4.382221 2032.741089
1.960000 2.000000 -4.120000 -100.825157 -107.949387 21818.781250
1.960000 2.000000 -4.080000 -39.268791 -247.909866 63001.339844
1.960000 2.000000 -4.040000 135.754913 -303.964569 110823.859375
1.960000 2.000000 -4.000000 314.652191 -205.454529 141217.562500
1.960000 2.000000 -3.960000 370.546570 -2.741474 137312.281250
1.960000 2.000000 -3.920000 269.479675 170.634430 101735.406250
1.960000 2.000000 -3.880000 97.312317 211.812805 54334.351562
1.960000 2.000000 -3.840000 -20.850769 130.552689 17478.757812
1.960000 2.000000 -3.800000 -28.409069 25.025229 1433.337280
1.960000 2.040000 -4.200000 28.681658 31.886091 1839.360352
1.960000 2.040000 -4.160000 -41.817863 -17.019266 2038.389160
1.960000 2.040000 -4.120000 -36.504047 -132.128281 18790.427734
1.960000 2.040000 -4.080000 84.250114 -216.722183 54066.585938
1.960000 2.040000 -4.040000 254.866547 -174.351257 95355.320312
1.960000 2.040000 -4.000000 349.138916 -3.980202 121913.828125
1.960000 2.040000 -3.960000 289.636597 187.479401 119037.890625
1.960000 2.040000 -3.920000 118.109833 273.547913 88778.390625
1.960000 2.040000 -3.880000 -41.934544 215.246674 48089.636719
1.960000 2.040000 -3.840000 -93.818192 85.823227 16167.480469
1.960000 2.040000 -3.800000 -42.765625 -5.361469 1857.644043
1.960000 2.080000 -4.200000 0.304213 39.806870 1584.679443
1.960000 2.080000 -4.160000 -29.983744 -27.499502 1655.247559
1.960000 2.080000 -4.120000 23.575359 -108.892181 12413.304688
1.960000 2.080000 -4.080000 146.556427 -117.430008 35268.593750
1.960000 2.080000 -4.040000 249.037354 -13.013229 62188.945312
1.960000 2.080000 -4.000000 239.974854 148.801773 79729.898438
1.960000 2.080000 -3.960000 111.677620 256.560242 78295.046875
1.960000 2.080000 -3.920000 -48.913574 238.142563 59104.417969
1.960000 2.080000 -3.880000 -135.218781 121.258926 32987.847656
1.960000 2.080000 -3.840000 -110.511261 2.593029 12219.462891
1.960000 2.080000 -3.800000 -27.959595 -40.899864 2454.537842
1.960000 2.120000 -4.200000 -19.133120 24.755890 978.930298
1.960000 2.120000 -4.160000 -14.214264 -28.599600 1019.982422
1.960000 2.120000 -4.120000 47.580952 -60.379166 5909.590820
1.960000 2.120000 -4.080000 125.675232 -22.041771 16280.103516
1.960000 2.120000 -4.040000 149.617432 78.166061 28495.308594
1.960000 2.120000 -4.000000 83.577904 171.904800 36536.527344
1.960000 2.120000 -3.960000 -35.299210 186.904892 36179.472656
1.960000 2.120000 -3.920000 -125.202332 111.118576 28022.960938
1.960000 2.120000 -3.880000 -129.632477 2.867821 16812.802734
1.960000 2.120000 -3.840000 -62.463451 -62.266941 7778.854492
1.960000 2.120000 -3.800000 12.621574 -55.267040 3213.750000
1.960000 2.160000 -4.200000 -18.521393 5.625738 374.690918
1.960000 2.160000 -4.160000 -3.171755 -20.949718 448.950745
1.960000 2.160000 -4.120000 35.461479 -22.357567 1757.377319
1.960000 2.160000 -4.080000 64.088181 15.606499 4350.857910
1.960000 2.160000 -4.040000 48.955040 69.784569 7266.482422
1.960000 2.160000 -4.000000 -9.272141 95.172165 9143.713867
1.960000 2.160000 -3.960000 -70.594101 65.124084 9224.673828
1.960000 2.160000 -3.920000 -88.646576 -2.381218 7863.885742
1.960000 2.160000 -3.880000 -51.087631 -59.138130 6107.264648
1.960000 2.160000 -3.840000 11.222206 -68.306747 4791.749512
1.960000 2.160000 -3.800000 53.780453 -33.339909 4003.886719
1.960000 2.200000 -4.200000 -6.964930 -1.319112 50.250298
1.960000 2.200000 -4.160000 -0.607016 -11.780238 139.142487
1.960000 2.200000 -4.120000 13.320776 -12.142197 324.876007
1.960000 2.200000 -4.080000 21.265762 0.722898 452.755219
1.960000 2.200000 -4.040000 12.736877 14.998520 387.183655
1.960000 2.200000 -4.000000 -6.642349 13.858292 236.173050
1.960000 2.200000 -3.960000 -17.705957 -7.072708 363.524109
1.960000 2.200000 -3.920000 -5.165205 -32.833954 1104.747803
1.960000 2.200000 -3.880000 26.949947 -41.078117 2413.711426
1.960000 2.200000 -3.840000 57.492897 -21.899586 3785.024902
1.960000 2.200000 -3.800000 66.197945 13.631826 4567.994629
2.000000 1.800000 -4.200000 -45.332996 60.203342 5679.522949
2.000000 1.800000 -4.160000 -74.487770 29.389137 6412.148926
2.000000 1.800000 -4.120000 -73.002785 -15.727268 5576.753906
2.000000 1.800000 -4.080000 -40.429680 -44.495964 3614.449707
2.000000 1.800000 -4.040000 -2.799107 -39.419266 1561.713501
2.000000 1.800000 -4.000000 11.627026 -12.867401 300.757751
2.000000 1.800000 -3.960000 -1.080185 5.971489 36.825478
2.000000 1.800000 -3.920000 -18.999184 0.318779 361.070618
2.000000 1.800000 -3.880000 -18.691269 -19.212761 718.493713
2.000000 1.800000 -3.840000 0.990864 -28.524899 814.651672
2.000000 1.800000 -3.800000 20.125982 -16.452238 675.731323
2.000000 1.840000 -4.200000 -66.728455 12.303303 4604.057617
2.000000 1.840000 -4.160000 -71.404671 -3.635410 5111.843262
2.000000 1.840000 -4.120000 -72.619926 -19.514338 5654.463379
2.000000 1.840000 -4.080000 -71.426712 -36.899673 6463.361328
2.000000 1.840000 -4.040000 -64.736725 -57.703407 7520.526855
2.000000 1.840000 -4.000000 -46.761215 -78.721710 8383.718750
2.000000 1.840000 -3.960000 -16.032593 -90.159027 8385.694336
2.000000 1.840000 -3.920000 18.810394 -82.316833 7129.892090
2.000000 1.840000 -3.880000 42.293015 -55.597336 4879.762695
2.000000 1.840000 -3.840000 43.795483 -23.432278 2467.115967
2.000000 1.840000 -3.800000 27.267361 -3.168679 753.549500
2.000000 1.880000 -4.200000 -44.266918 -33.719948 3096.594971
2.000000 1.880000 -4.160000 -54.203079 -20.472462 3357.095459
2.000000 1.880000 -4.120000 -88.431580 -29.564838 8694.223633
2.000000 1.880000 -4.080000 -114.208603 -80.489227 19522.121094
2.000000 1.880000 -4.040000 -92.013992 -153.727142 32098.609375
2.000000 1.880000 -4.000000 -14.297531 -200.213348 40289.804688
2.000000 1.880000 -3.960000 80.946579 -181.702606 39568.183594
2.000000 1.880000 -3.920000 137.993042 -105.652847 30204.605469
2.000000 1.880000 -3.880000 128.925568 -20.891106 17058.240234
2.000000 1.880000 -3.840000 75.052475 22.949467 6159.552246
2.000000 1.880000 -3.800000 25.016508 14.746859 843.295532
2.000000 1.920000 -4.200000 2.765600 -44.543568 1991.777954
2.000000 1.920000 -4.160000 -40.871216 -22.081017 2158.027588
2.000000 1.920000 -4.120000 -102.359062 -65.382584 14752.259766
2.000000 1.920000 -4.080000 -108.202934 -170.582397 40806.226562
2.000000 1.920000 -4.040000 -16.597862 -265.935974 70997.437500
2.000000 1.920000 -4.000000 133.985016 -268.934387 90277.687500
2.000000 1.920000 -3.960000 248.824203 -161.508453 87998.468750
2.000000 1.920000 -3.920000 255.849945 -10.597816 65571.507812
2.000000 1.920000 -3.880000 166.042755 87.908562 35298.113281
2.000000 1.920000 -3.840000 58.842117 89.316696 11439.867188
2.000000 1.920000 -3.800000 9.025009 29.646877 960.388123
2.000000 1.960000 -4.200000 37.208614 -16.673595 1662.489746
2.000000 1.960000 -4.160000 -37.633911 -21.782764 1890.800049
2.000000 1.960000 -4.120000 -84.619652 -117.493820 20965.283203
2.000000 1.960000 -4.080000 -22.399185 -245.344559 60695.675781
2.000000 1.960000 -4.040000 144.435822 -293.226562 106843.531250
2.000000 1.960000 -4.000000 312.841766 -195.863739 136232.578125
2.000000 1.960000 -3.960000 364.058258 -1.408062 132540.406250
2.000000 1.960000 -3.920000 266.859192 164.177643 98168.125000
2.000000 1.960000 -3.880000 102.773010 204.116943 52226.019531
2.000000 1.960000 -3.840000 -9.756996 128.037079 16488.693359
2.000000 1.960000 -3.800000 -17.185253 29.337711 1156.034180
2.000000 2.000000 -4.200000 36.179794 23.148235 1844.818359
2.000000 2.000000 -4.160000 -36.397083 -28.537872 2139.157715
2.000000 2.000000 -4.120000 -27.558777 -150.685516 23465.611328
2.000000 2.000000 -4.080000 105.124245 -238.946228 68146.406250
2.000000 2.000000 -4.040000 290.436066 -189.524414 120272.609375
2.000000 2.000000 -4.000000 391.952118 -1.929120 153630.187500
2.000000 2.000000 -3.960000 326.347839 207.759979 149667.125000
2.000000 2.000000 -3.920000 139.379211 302.683807 111044.046875
2.000000 2.000000 -3.880000 -34.923985 241.074341 59336.519531
2.000000 2.000000 -3.840000 -92.026466 102.825745 19042.003906
2.000000 2.000000 -3.800000 -38.323326 6.702679 1513.603271
2.000000 2.040000 -4.200000 7.884737 43.690308 1971.012085
2.000000 2.040000 -4.160000 -27.363415 -38.097424 2200.170166
2.000000 2.040000 -4.120000 40.843769 -136.841049 20393.685547
2.000000 2.040000 -4.080000 194.526810 -144.848328 58821.718750
2.000000 2.040000 -4.040000 322.147552 -12.602142 103937.859375
2.000000 2.040000 -4.000000 310.914764 190.898666 133110.296875
2.000000 2.040000 -3.960000 151.337021 327.542664 130187.093750
2.000000 2.040000 -3.920000 -48.982494 308.043335 97289.976562
2.000000 2.040000 -3.880000 -158.369247 166.679428 52862.851562
2.000000 2.040000 -3.840000 -131.797241 22.789581 17889.878906
2.000000 2.040000 -3.800000 -35.372551 -29.213905 2104.669678
2.000000 2.080000 -4.200000 -20.506893 35.459026 1677.875244
2.000000 2.080000 -4.160000 -11.297144 -40.048702 1731.524048
2.000000 2.080000 -4.120000 79.895485 -83.488670 13353.646484
2.000000 2.080000 -4.080000 193.924500 -24.788750 38221.191406
2.000000 2.080000 -4.040000 228.784271 123.787186 67665.507812
2.000000 2.080000 -4.000000 132.742722 263.401550 87001.007812
2.000000 2.080000 -3.960000 -40.859749 289.823730 85667.312500
2.000000 2.080000 -3.920000 -174.753662 185.395081 64910.179688
2.000000 2.080000 -3.880000 -188.140198 33.036331 36488.132812
2.000000 2.080000 -3.840000 -100.716537 -60.184647 13766.012695
2.000000 2.080000 -3.800000 -2.489613 -54.042553 2926.795654
2.000000 2.120000 -4.200000 -29.317459 13.711319 1047.513672
2.000000 2.120000 -4.160000 1.695833 -30.915688 958.655579
2.000000 2.120000 -4.120000 72.736687 -27.912842 6069.751953
2.000000 2.120000 -4.080000 122.901680 46.232513 17242.269531
2.000000 2.120000 -4.040000 92.656235 148.362793 30596.695312
2.000000 2.120000 -4.000000 -15.500259 198.223221 39532.703125
2.000000 2.120000 -3.960000 -130.585968 149.348465 39357.660156
2.000000 2.120000 -3.920000 -171.952866 33.211426 30670.785156
2.000000 2.120000 -3.880000 -118.525223 -67.616203 18620.179688
2.000000 2.120000 -3.840000 -22.512562 -91.444550 8868.920898
2.000000 2.120000 -3.800000 42.681229 -45.204483 3865.132568
2.000000 2.160000 -4.200000 -20.901587 -0.758831 437.452148
2.000000 2.160000 -4.160000 3.939804 -18.239300 348.194122
2.000000 2.160000 -4.120000 39.367420 -2.936268 1558.415527
2.000000 2.160000 -4.080000 48.370892 43.906227 4267.500000
2.000000 2.160000 -4.040000 10.050018 85.789993 7460.925781
2.000000 2.160000 -4.000000 -54.406441 81.366058 9580.496094
2.000000 2.160000 -3.960000 -95.541229 24.609879 9733.773438
2.000000 2.160000 -3.920000 -78.877441 -45.870834 8325.784180
2.000000 2.160000 -3.880000 -16.069283 -79.390823 6561.124512
2.000000 2.160000 -3.840000 46.327332 -56.631317 5353.328125
2.000000 2.160000 -3.800000 68.521912 -2.548729 4701.748535
2.000000 2.200000 -4.200000 -11.102936 -1.412178 125.269432
2.000000 2.200000 -4.160000 -1.599823 -12.006905 146.725189
2.000000 2.200000 -4.120000 14.195156 -9.520195 292.136566
2.000000 2.200000 -4.080000 20.401283 5.827421 450.171204
2.000000 2.200000 -4.040000 9.258423 18.408081 424.575836
2.000000 2.200000 -4.000000 -8.206005 12.611198 226.380844
2.000000 2.200000 -3.960000 -11.236183 -9.533066 217.131165
2.000000 2.200000 -3.920000 9.896584 -27.700676 865.269836
2.000000 2.200000 -3.880000 42.635162 -21.566730 2282.880859
2.000000 2.200000 -3.840000 62.367180 9.924578 3988.162354
2.000000 2.200000 -3.800000 54.107700 47.438179 5178.024414
2.040000 1.800000 -4.200000 -65.549446 23.322821 4840.684082
2.040000 1.800000 -4.160000 -73.341415 -17.770962 5694.770508
2.040000 1.800000 -4.120000 -48.057419 -55.016003 5336.276367
2.040000 1.800000 -4.080000 -4.570213 -62.505657 3927.844238
2.040000 1.800000 -4.040000 26.526432 -38.020905 2149.240723
2.040000 1.800000 -4.000000 26.770180 -5.468559 746.547668
2.040000 1.800000 -3.960000 5.888809 8.121085 100.630096
2.040000 1.800000 -3.920000 -10.006126 -2.449589 106.123055
2.040000 1.800000 -3.880000 -5.106304 -18.695244 375.586487
2.040000 1.800000 -3.840000 12.336906 -20.035963 553.639099
2.040000 1.800000 -3.800000 21.992977 -4.869013 507.398315
2.040000 1.840000 -4.200000 -58.067856 -25.040531 3998.904297
2.040000 1.840000 -4.160000 -53.069225 -42.460312 4619.220703
2.040000 1.840000 -4.120000 -42.872498 -57.614548 5157.487305
2.040000 1.840000 -4.080000 -28.391373 -69.828964 5682.154297
2.040000 1.840000 -4.040000 -9.223747 -78.137222 6190.502930
2.040000 1.840000 -4.000000 14.636139 -79.189217 6485.148926
2.040000 1.840000 -3.960000 39.199211 -68.480728 6226.188477
2.040000 1.840000 -3.920000 55.886570 -45.487122 5192.386719
2.040000 1.840000 -3.880000 56.839012 -17.620979 3541.172363
2.040000 1.840000 -3.840000 42.409241 2.750322 1806.108032
2.040000 1.840000 -3.800000 22.932480 7.400410 580.664673
2.040000 1.880000 -4.200000 -17.272610 -49.352222 2733.984863
2.040000 1.880000 -4.160000 -29.956619 -45.891304 3003.410645
2.040000 1.880000 -4.120000 -48.325298 -70.380394 7288.734375
2.040000 1.880000 -4.080000 -39.224121 -119.823753 15896.262695
2.040000 1.880000 -4.040000 15.217865 -160.080963 25857.498047
2.040000 1.880000 -4.000000 94.972923 -152.575302 32299.078125
2.040000 1.880000 -3.960000 153.354904 -89.943916 31607.634766
2.040000 1.880000 -3.920000 154.776520 -6.405823 23996.806641
2.040000 1.880000 -3.880000 104.886139 48.907471 13393.042969
2.040000 1.880000 -3.840000 44.720852 51.927597 4696.429688
2.040000 1.880000 -3.800000 14.658983 20.295492 626.792786
2.040000 1.920000 -4.200000 24.401409 -33.971970 1749.523438
2.040000 1.920000 -4.160000 -18.845032 -38.914211 1869.451050
2.040000 1.920000 -4.120000 -42.395267 -101.896515 12180.257812
2.040000 1.920000 -4.080000 6.679993 -182.940155 33511.722656
2.040000 1.920000 -4.040000 123.315933 -207.406616 58224.324219
2.040000 1.920000 -4.000000 237.067184 -133.264893 73960.382812
2.040000 1.920000 -3.960000 268.195740 4.892517 71952.890625
2.040000 1.920000 -3.920000 197.069046 120.534439 53364.757812
2.040000 1.920000 -3.880000 80.829880 147.862640 28396.830078
2.040000 1.920000 -3.840000 1.559578 94.345001 8903.412109
2.040000 1.920000 -3.800000 -3.611322 25.418428 659.138123
2.040000 1.960000 -4.200000 36.929482 4.348053 1382.692139
2.040000 1.960000 -4.160000 -17.308632 -36.445801 1627.885132
2.040000 1.960000 -4.120000 -5.346458 -132.405045 17559.679688
2.040000 1.960000 -4.080000 105.707603 -198.518539 50583.707031
2.040000 1.960000 -4.040000 256.527893 -151.671768 88810.890625
2.040000 1.960000 -4.000000 336.064728 6.448418 112981.085938
2.040000 1.960000 -3.960000 277.957123 179.804169 109589.703125
2.040000 1.960000 -3.920000 121.571365 256.848694 80750.843750
2.040000 1.960000 -3.880000 -22.366669 204.925674 42494.800781
2.040000 1.960000 -3.840000 -68.555946 91.208282 13018.869141
2.040000 1.960000 -3.800000 -23.710497 14.046970 759.505066
2.040000 2.000000 -4.200000 17.158117 33.913757 1444.543945
2.040000 2.000000 -4.160000 -13.107864 -41.165836 1866.442139
2.040000 2.000000 -4.120000 53.694504 -130.569229 19931.423828
2.040000 2.000000 -4.080000 199.172546 -133.158768 57400.960938
2.040000 2.000000 -4.040000 317.514771 -3.867123 100830.585938
2.040000 2.000000 -4.000000 303.283386 190.596512 128307.843750
2.040000 2.000000 -3.960000 149.430145 319.633148 124494.718750
2.040000 2.000000 -3.920000 -41.098854 300.283752 91859.445312
2.040000 2.000000 -3.880000 -144.188660 166.811737 48616.523438
2.040000 2.000000 -3.840000 -118.995316 32.940479 15244.959961
2.040000 2.000000 -3.800000 -29.978251 -12.854702 1063.938843
2.040000 2.040000 -4.200000 -13.030174 36.350697 1491.158569
2.040000 2.040000 -4.160000 -0.706532 -43.287548 1874.310913
2.040000 2.040000 -4.120000 99.597923 -86.411926 17386.767578
2.040000 2.040000 -4.080000 222.335175 -18.153343 49762.472656
2.040000 2.040000 -4.040000 257.072266 146.241669 87472.773438
2.040000 2.040000 -4.000000 149.479538 298.641052 111530.609375
2.040000 2.040000 -3.960000 -40.860733 326.987457 108590.398438
2.040000 2.040000 -3.920000 -186.727722 214.128540 80718.273438
2.040000 2.040000 -3.880000 -202.315491 51.077896 43540.511719
2.040000 2.040000 -3.840000 -111.084061 -47.083839 14556.556641
2.040000 2.040000 -3.800000 -11.160772 -39.377148 1675.122681
2.040000 2.080000 -4.200000 -29.902845 18.737432 1245.271484
2.040000 2.080000 -4.160000 12.246292 -34.552570 1343.851807
2.040000 2.080000 -4.120000 102.801491 -25.057987 11196.048828
2.040000 2.080000 -4.080000 163.192627 74.303131 32152.789062
2.040000 2.080000 -4.040000 119.599846 206.192017 56819.273438
2.040000 2.080000 -4.000000 -21.804123 268.970978 72820.812500
2.040000 2.080000 -3.960000 -169.830292 206.347229 71421.507812
2.040000 2.080000 -3.920000 -224.139008 60.365829 53882.328125
2.040000 2.080000 -3.880000 -161.035263 -65.217598 30185.691406
2.040000 2.080000 -3.840000 -47.516422 -95.785812 11432.732422
2.040000 2.080000 -3.800000 26.216530 -43.290794 2561.399414
2.040000 2.120000 -4.200000 -28.018515 1.007321 786.051880
2.040000 2.120000 -4.160000 14.660294 -19.257486 585.774963
2.040000 2.120000 -4.120000 67.417809 14.584883 4757.879883
2.040000 2.120000 -4.080000 72.334503 94.169769 14100.225586
2.040000 2.120000 -4.040000 2.097015 159.110275 25320.478516
2.040000 2.120000 -4.000000 -104.991470 147.570770 32800.343750
2.040000 2.120000 -3.960000 -171.845856 55.495728 32610.773438
2.040000 2.120000 -3.920000 -149.428513 -55.074326 25362.062500
2.040000 2.120000 -3.880000 -59.500191 -109.129990 15449.626953
2.040000 2.120000 -3.840000 27.766140 -82.330566 7549.280762
2.040000 2.120000 -3.800000 57.532917 -14.735352 3527.167236
2.040000 2.160000 -4.200000 -19.210447 -5.185213 395.927734
2.040000 2.160000 -4.160000 5.657568 -9.850181 129.034134
2.040000 2.160000 -4.120000 26.647099 14.900267 932.085815
2.040000 2.160000 -4.080000 14.802185 53.755058 3108.710938
2.040000 2.160000 -4.040000 -31.730133 69.396820 5822.719727
2.040000 2.160000 -4.000000 -79.000664 37.929749 7679.770508
2.040000 2.160000 -3.960000 -85.280518 -24.340439 7865.223633
2.040000 2.160000 -3.920000 -40.011284 -71.781723 6753.518555
2.040000 2.160000 -3.880000 25.134270 -69.242485 5426.253418
2.040000 2.160000 -3.840000 64.427513 -22.167885 4642.319336
2.040000 2.160000 -3.800000 57.401184 31.565514 4291.277832
2.040000 2.200000 -4.200000 -15.664718 -4.369122 264.472595
2.040000 2.200000 -4.160000 -3.843378 -12.903677 181.276443
2.040000 2.200000 -4.120000 10.690510 -7.225597 166.496262
2.040000 2.200000 -4.080000 13.222889 7.641682 233.240082
2.040000 2.200000 -4.040000 1.693983 15.386154 239.603317
2.040000 2.200000 -4.000000 -9.321518 6.250481 125.959198
2.040000 2.200000 -3.960000 -3.247772 -10.796227 127.106537
2.040000 2.200000 -3.920000 20.289513 -15.472948 651.076477
2.040000 2.200000 -3.880000 43.089272 3.772877 1870.919922
2.040000 2.200000 -3.840000 44.824501 37.722801 3432.245605
2.040000 2.200000 -3.800000 21.525305 64.473450 4620.164551
2.080000 1.800000 -4.200000 -53.620106 -11.849810 3015.533691
2.080000 1.800000 -4.160000 -41.315155 -45.834450 3807.738770
2.080000 1.800000 -4.120000 -5.436245 -63.085098 4009.282471
2.080000 1.800000 -4.080000 32.446632 -49.587177 3511.672119
2.080000 1.800000 -4.040000 47.598709 -15.268841 2498.774658
2.080000 1.800000 -4.000000 34.058907 14.138496 1359.906250
2.080000 1.800000 -3.960000 8.905090 20.192165 487.024170
2.080000 1.800000 -3.920000 -5.124897 6.861198 73.340614
2.080000 1.800000 -3.880000 -0.578306 -6.630978 44.304302
2.080000 1.800000 -3.840000 10.919708 -6.384180 159.997787
2.080000 1.800000 -3.800000 13.880381 3.904121 207.907120
2.080000 1.840000 -4.200000 -28.709341 -41.463699 2543.464600
2.080000 1.840000 -4.160000 -16.580000 -53.990788 3189.901611
2.080000 1.840000 -4.120000 1.227139 -61.286629 3757.556641
2.080000 1.840000 -4.080000 21.521145 -60.421597 4113.928711
2.080000 1.840000 -4.040000 39.904510 -50.894550 4182.625488
2.080000 1.840000 -4.000000 52.444954 -34.495049 3940.381348
2.080000 1.840000 -3.960000 56.373379 -14.633919 3392.109375
2.080000 1.840000 -3.920000 50.684418 3.897430 2584.100098
2.080000 1.840000 -3.880000 37.401863 15.749924 1646.959473
2.080000 1.840000 -3.840000 22.193405 17.545530 800.392883
2.080000 1.840000 -3.800000 12.165646 10.849617 265.717102
2.080000 1.880000 -4.200000 8.432974 -41.008766 1752.833984
2.080000 1.880000 -4.160000 0.720774 -46.054413 2121.528564
2.080000 1.880000 -4.120000 3.135172 -69.578690 4851.022949
2.080000 1.880000 -4.080000 33.279022 -94.189453 9979.146484
2.080000 1.880000 -4.040000 85.326241 -91.758621 15700.211914
2.080000 1.880000 -4.000000 129.470886 -49.351383 19198.269531
2.080000 1.880000 -3.960000 135.014236 15.353851 18464.583984
2.080000 1.880000 -3.920000 97.183777 65.593117 13747.143555
2.080000 1.880000 -3.880000 42.358147 75.087547 7432.352539
2.080000 1.880000 -3.840000 6.132202 48.872669 2426.141846
2.080000 1.880000 -3.800000 4.271441 16.473974 289.637024
2.080000 1.920000 -4.200000 29.683670 -14.220079 1083.330933
2.080000 1.920000 -4.160000 5.197042 -36.566277 1364.101807
2.080000 1.920000 -4.120000 18.896038 -86.718781 7877.207031
2.080000 1.920000 -4.080000 86.470184 -116.021713 20938.130859
2.080000 1.920000 -4.040000 171.702362 -79.528008 35806.406250
2.080000 1.920000 -4.000000 211.381790 18.226013 45014.449219
2.080000 1.920000 -3.960000 170.226135 119.992447 43375.125000
2.080000 1.920000 -3.920000 74.127831 162.066391 31760.451172
2.080000 1.920000 -3.880000 -11.237724 127.954300 16498.589844
2.080000 1.920000 -3.840000 -36.791546 59.142178 4851.415039
2.080000 1.920000 -3.800000 -8.202252 14.306856 271.963074
2.080000 1.960000 -4.200000 23.054859 15.328518 766.489990
2.080000 1.960000 -4.160000 5.874290 -34.490974 1224.134644
2.080000 1.960000 -4.120000 55.448624 -91.600334 11465.170898
2.080000 1.960000 -4.080000 156.715942 -86.599594 32059.376953
2.080000 1.960000 -4.040000 235.329132 9.271545 55465.761719
2.080000 1.960000 -4.000000 219.444534 147.237976 69834.921875
2.080000 1.960000 -3.960000 106.907944 235.895370 67075.937500
2.080000 1.960000 -3.920000 -28.380741 219.077454 48800.394531
2.080000 1.960000 -3.880000 -99.575073 123.280060 25113.167969
2.080000 1.960000 -3.840000 -79.815369 29.839058 7260.862305
2.080000 1.960000 -3.800000 -16.713886 0.697651 279.840729
2.080000 2.000000 -4.200000 0.040890 26.789587 717.683594
2.080000 2.000000 -4.160000 12.291786 -34.940037 1371.894165
2.080000 2.000000 -4.120000 94.340744 -65.283600 13162.124023
2.080000 2.000000 -4.080000 191.784088 -5.192684 36808.101562
2.080000 2.000000 -4.040000 215.684875 130.835236 63637.824219
2.080000 2.000000 -4.000000 124.067322 254.226105 80023.617188
2.080000 2.000000 -3.960000 -32.746941 275.122986 76765.015625
2.080000 2.000000 -3.920000 -151.073486 181.761749 55860.531250
2.080000 2.000000 -3.880000 -162.624344 49.741211 28920.865234
2.080000 2.000000 -3.840000 -88.731567 -27.440983 8626.298828
2.080000 2.000000 -3.800000 -10.753664 -18.304970 450.713226
2.080000 2.040000 -4.200000 -18.853010 18.564098 700.061768
2.080000 2.040000 -4.160000 22.120026 -28.008127 1273.750732
2.080000 2.040000 -4.120000 106.125320 -14.584646 11475.295898
2.080000 2.040000 -4.080000 159.196411 81.913696 32053.351562
2.080000 2.040000 -4.040000 113.928444 206.134705 55471.207031
2.080000 2.040000 -4.000000 -21.552053 263.359070 69822.492188
2.080000 2.040000 -3.960000 -160.911713 203.027069 67112.570312
2.080000 2.040000 -3.920000 -211.460571 66.481750 49135.398438
2.080000 2.040000 -3.880000 -153.436386 -49.052166 25948.839844
2.080000 2.040000 -3.840000 -51.161976 -75.788910 8361.506836
2.080000 2.040000 -3.800000 11.565113 -27.744959 903.534546
2.080000 2.080000 -4.200000 -23.612455 4.325382 576.256958
2.080000 2.080000 -4.160000 24.394939 -13.076475 766.107300
2.080000 2.080000 -4.120000 79.490944 29.632988 7196.923828
2.080000 2.080000 -4.080000 78.843506 119.683716 20540.490234
2.080000 2.080000 -4.040000 -4.072845 189.472580 35916.449219
2.080000 2.080000 -4.000000 -124.316780 173.314224 45492.484375
2.080000 2.080000 -3.960000 -197.701050 70.248955 44020.621094
2.080000 2.080000 -3.920000 -173.647247 -50.342110 32687.695312
2.080000 2.080000 -3.880000 -78.850082 -108.468407 17982.730469
2.080000 2.080000 -3.840000 10.252531 -81.359818 6724.534180
2.080000 2.080000 -3.800000 37.384857 -15.003661 1622.737427
2.080000 2.120000 -4.200000 -19.849503 -3.919797 409.367554
2.080000 2.120000 -4.160000 13.828285 -1.342434 193.023590
2.080000 2.120000 -4.120000 34.408142 39.844467 2771.501953
2.080000 2.120000 -4.080000 6.604790 92.819138 8659.015625
2.080000 2.120000 -4.040000 -64.912048 107.094666 15682.841797
2.080000 2.120000 -4.000000 -130.636032 56.188095 20222.875000
2.080000 2.120000 -3.960000 -137.259399 -32.270927 19881.554688
2.080000 2.120000 -3.920000 -76.533394 -96.890808 15245.189453
2.080000 2.120000 -3.880000 6.472546 -95.777840 9215.288086
2.080000 2.120000 -3.840000 54.235706 -41.171227 4636.582031
2.080000 2.120000 -3.800000 46.134605 17.016138 2417.950684
2.080000 2.160000 -4.200000 -17.478222 -6.539597 348.254578
2.080000 2.160000 -4.160000 -1.008815 -3.511923 13.351309
2.080000 2.160000 -4.120000 4.491951 17.348499 321.148041
2.080000 2.160000 -4.080000 -15.440651 36.662682 1582.565918
2.080000 2.160000 -4.040000 -49.394520 29.118233 3287.689941
2.080000 2.160000 -4.000000 -66.414314 -8.928711 4490.583008
2.080000 2.160000 -3.960000 -44.964417 -51.136894 4636.780762
2.080000 2.160000 -3.920000 4.400429 -63.109303 4002.147949
2.080000 2.160000 -3.880000 46.663918 -33.896713 3326.508301
2.080000 2.160000 -3.840000 53.389275 14.447987 3059.158936
2.080000 2.160000 -3.800000 26.342482 48.172379 3014.504395
2.080000 2.200000 -4.200000 -17.983727 -11.061594 445.773285
2.080000 2.200000 -4.160000 -5.670450 -16.912449 318.184937
2.080000 2.200000 -4.120000 6.072971 -10.356020 144.128128
2.080000 2.200000 -4.080000 7.013758 1.021435 50.236126
2.080000 2.200000 -4.040000 -0.204756 4.811127 23.188866
2.080000 2.200000 -4.000000 -2.924900 -1.638290 11.239036
2.080000 2.200000 -3.960000 6.923843 -7.333828 101.724640
2.080000 2.200000 -3.920000 22.620964 0.838055 512.410339
2.080000 2.200000 -3.880000 28.291416 23.492781 1352.314941
2.080000 2.200000 -3.840000 14.548931 46.842155 2405.858887
2.080000 2.200000 -3.800000 -12.400309 55.321041 3214.185059
2.120000 1.800000 -4.200000 -25.469673 -23.337723 1193.353516
2.120000 1.800000 -4.160000 -5.720041 -41.058342 1718.506348
2.120000 1.800000 -4.120000 24.812962 -40.026497 2217.803467
2.120000 1.800000 -4.080000 47.217560 -16.505283 2501.922363
2.120000 1.800000 -4.040000 46.387024 15.697840 2398.178223
2.120000 1.800000 -4.000000 24.413006 35.957996 1888.972412
2.120000 1.800000 -3.960000 -1.428766 34.082596 1163.664673
2.120000 1.800000 -3.920000 -14.145136 17.587574 509.407623
2.120000 1.800000 -3.880000 -10.758308 2.694902 123.003700
2.120000 1.800000 -3.840000 -1.630665 -1.067412 3.798437
2.120000 1.800000 -3.800000 2.156575 2.647432 11.659712
2.120000 1.840000 -4.200000 -3.062967 -32.093971 1039.404663
2.120000 1.840000 -4.160000 10.570030 -37.518093 1519.332886
2.120000 1.840000 -4.120000 28.431368 -34.866711 2024.030151
2.120000 1.840000 -4.080000 43.586803 -21.540451 2363.800537
2.120000 1.840000 -4.040000 48.812756 -1.449629 2384.786377
2.120000 1.840000 -4.000000 41.995213 17.204285 2059.585205
2.120000 1.840000 -3.960000 27.430159 27.397659 1503.045288
2.120000 1.840000 -3.920000 12.450542 27.341843 902.592346
2.120000 1.840000 -3.880000 2.777206 20.293470 419.537842
2.120000 1.840000 -3.840000 0.180918 11.470134 131.596695
2.120000 1.840000 -3.800000 3.099071 5.110767 35.724182
2.120000 1.880000 -4.200000 16.591108 -21.223923 725.719727
2.120000 1.880000 -4.160000 17.538656 -27.974613 1090.183472
2.120000 1.880000 -4.120000 31.300070 -37.330925 2373.292236
2.120000 1.880000 -4.080000 57.229729 -34.166481 4442.590332
2.120000 1.880000 -4.040000 80.286392 -9.310085 6532.582520
2.120000 1.880000 -4.000000 82.055153 29.567413 7607.280273
2.120000 1.880000 -3.960000 56.986092 61.432373 7021.351074
2.120000 1.880000 -3.920000 18.857372 68.112595 4994.926270
2.120000 1.880000 -3.880000 -9.357452 49.230591 2511.213135
2.120000 1.880000 -3.840000 -13.718307 22.214916 681.694458
2.120000 1.880000 -3.800000 0.518307 7.377359 54.694073
2.120000 1.920000 -4.200000 20.484114 -1.776774 422.755829
2.120000 1.920000 -4.160000 18.047453 -22.074360 812.987915
2.120000 1.920000 -4.120000 44.877808 -41.325195 3721.789307
2.120000 1.920000 -4.080000 90.420830 -29.787466 9063.219727
2.120000 1.920000 -4.040000 119.973633 21.279060 14846.471680
2.120000 1.920000 -4.000000 103.653687 86.124611 18161.535156
2.120000 1.920000 -3.960000 44.928642 122.844536 17109.363281
2.120000 1.920000 -3.920000 -19.437176 108.738113 12201.781250
2.120000 1.920000 -3.880000 -49.737671 59.811573 6051.260254
2.120000 1.920000 -3.840000 -36.183434 15.843973 1560.272339
2.120000 1.920000 -3.800000 -3.884265 5.339470 43.597454
2.120000 1.960000 -4.200000 10.460751 11.271990 236.485046
2.120000 1.960000 -4.160000 20.335140 -20.034105 814.883301
2.120000 1.960000 -4.120000 67.057602 -31.366394 5480.572754
2.120000 1.960000 -4.080000 118.702400 7.905704 14152.759766
2.120000 1.960000 -4.040000 126.458473 86.968719 23555.302734
2.120000 1.960000 -4.000000 69.418465 155.172836 28897.533203
2.120000 1.960000 -3.960000 -21.770433 163.283051 27135.306641
2.120000 1.960000 -3.920000 -88.057114 107.095284 19223.455078
2.120000 1.960000 -3.880000 -92.085419 31.325691 9461.023438
2.120000 1.960000 -3.840000 -48.143982 -10.504431 2428.186035
2.120000 1.960000 -3.800000 -4.452597 -1.663319 22.592245
2.120000 2.000000 -4.200000 -2.073694 12.505737 160.693665
2.120000 2.000000 -4.160000 25.954351 -14.446796 882.338257
2.120000 2.000000 -4.120000 79.790169 -1.473534 6368.642578
2.120000 2.000000 -4.080000 111.203705 64.667755 16548.181641
2.120000 2.000000 -4.040000 77.472000 146.707001 27524.853516
2.120000 2.000000 -4.000000 -14.522638 182.869888 33652.300781
2.120000 2.000000 -3.960000 -107.324898 141.163651 31445.808594
2.120000 2.000000 -3.920000 -140.246765 50.099770 22179.140625
2.120000 2.000000 -3.880000 -101.405975 -25.505892 10933.722656
2.120000 2.000000 -3.840000 -34.781967 -41.226967 2909.448242
2.120000 2.000000 -3.800000 3.241232 -7.951020 73.724304
2.120000 2.040000 -4.200000 -9.005270 7.515275 137.574234
2.120000 2.040000 -4.160000 27.094860 -1.979601 738.050293
2.120000 2.040000 -4.120000 66.353317 33.551147 5528.442383
2.120000 2.040000 -4.080000 62.178192 103.145691 14505.161133
2.120000 2.040000 -4.040000 -4.080847 155.481384 24191.113281
2.120000 2.040000 -4.000000 -97.428764 141.617462 29547.871094
2.120000 2.040000 -3.960000 -153.977844 61.940243 27545.769531
2.120000 2.040000 -3.920000 -136.093414 -30.130482 19429.263672
2.120000 2.040000 -3.880000 -65.219917 -73.920860 9717.931641
2.120000 2.040000 -3.840000 -0.302000 -53.282974 2839.166748
2.120000 2.040000 -3.800000 16.320066 -5.038500 291.731049
2.120000 2.080000 -4.200000 -11.578030 3.219752 144.417572
2.120000 2.080000 -4.160000 16.727795 9.699658 373.902496
2.120000 2.080000 -4.120000 30.701996 48.987843 3342.421387
2.120000 2.080000 -4.080000 0.882713 95.756592 9170.104492
2.120000 2.080000 -4.040000 -66.321793 105.670303 15564.792969
2.120000 2.080000 -4.000000 -125.989357 57.147812 19139.191406
2.120000 2.080000 -3.960000 -131.696396 -23.482033 17895.347656
2.120000 2.080000 -3.920000 -78.029152 -81.464859 12725.072266
2.120000 2.080000 -3.880000 -6.282677 -81.141022 6623.337402
2.120000 2.080000 -3.840000 33.111298 -35.537891 2359.299805
2.120000 2.080000 -3.800000 24.366875 10.087402 695.500244
2.120000 2.120000 -4.200000 -14.622630 -0.362803 213.952927
2.120000 2.120000 -4.160000 -0.517965 8.961687 80.580124
2.120000 2.120000 -4.120000 -2.764824 33.812256 1150.912964
2.120000 2.120000 -4.080000 -32.558811 50.858299 3646.642822
2.120000 2.120000 -4.040000 -73.053772 34.943382 6557.893555
2.120000 2.120000 -4.000000 -90.021744 -13.145729 8276.724609
2.120000 2.120000 -3.960000 -63.460022 -61.928394 7862.300293
2.120000 2.120000 -3.920000 -8.687206 -75.456055 5769.083984
2.120000 2.120000 -3.880000 35.767197 -45.754791 3372.793457
2.120000 2.120000 -3.840000 42.405338 0.864200 1798.959595
2.120000 2.120000 -3.800000 17.292519 29.619854 1176.366943
2.120000 2.160000 -4.200000 -17.694691 -7.744419 373.078125
2.120000 2.160000 -4.160000 -10.367710 -6.057394 144.181427
2.120000 2.160000 -4.120000 -10.799522 2.615102 123.468445
2.120000 2.160000 -4.080000 -22.547092 5.411144 537.651855
2.120000 2.160000 -4.040000 -33.824265 -7.639687 1202.445679
2.120000 2.160000 -4.000000 -28.152451 -29.908634 1687.086914
2.120000 2.160000 -3.960000 -2.606037 -41.649162 1741.444092
2.120000 2.160000 -3.920000 26.345119 -28.743629 1520.261475
2.120000 2.160000 -3.880000 36.937157 2.570980 1370.963501
2.120000 2.160000 -3.840000 22.174534 30.805126 1440.665771
2.120000 2.160000 -3.800000 -4.729427 39.034340 1546.047119
2.120000 2.200000 -4.200000 -14.576557 -19.107670 577.579102
2.120000 2.200000 -4.160000 -3.029153 -22.902691 533.709045
2.120000 2.200000 -4.120000 7.073524 -17.469479 355.217407
2.120000 2.200000 -4.080000 10.133301 -8.957535 182.921204
2.120000 2.200000 -4.040000 9.063963 -3.937023 97.655579
2.120000 2.200000 -4.000000 10.166634 -1.739117 106.384964
2.120000 2.200000 -3.960000 14.316097 3.871620 219.940079
2.120000 2.200000 -3.920000 15.077141 16.011478 483.687622
2.120000 2.200000 -3.880000 5.988042 29.429935 901.977722
2.120000 2.200000 -3.840000 -11.556658 34.979141 1357.096680
2.120000 2.200000 -3.800000 -28.906162 28.686480 1658.480347
2.160000 1.800000 -4.200000 -5.502338 -11.682703 166.761276
2.160000 1.800000 -4.160000 8.701676 -16.621943 352.008148
2.160000 1.800000 -4.120000 26.139236 -8.633870 757.803406
2.160000 1.800000 -4.080000 34.286598 12.383496 1328.921753
2.160000 1.800000 -4.040000 24.568443 35.179264 1841.188965
2.160000 1.800000 -4.000000 0.929355 45.078861 2032.967407
2.160000 1.800000 -3.960000 -22.305094 36.023186 1795.187134
2.160000 1.800000 -3.920000 -31.868256 15.422125 1253.427612
2.160000 1.800000 -3.880000 -25.746307 -2.730976 670.330566
2.160000 1.800000 -3.840000 -12.853001 -9.650852 258.338562
2.160000 1.800000 -3.800000 -3.501342 -7.341689 66.159798
2.160000 1.840000 -4.200000 2.996171 -12.507504 165.414703
2.160000 1.840000 -4.160000 13.409810 -13.133394 352.309052
2.160000 1.840000 -4.120000 25.145582 -4.589358 653.362488
2.160000 1.840000 -4.080000 29.093733 12.566988 1004.374512
2.160000 1.840000 -4.040000 19.724827 29.589401 1264.601440
2.160000 1.840000 -4.000000 0.884100 36.011230 1297.590332
2.160000 1.840000 -3.960000 -16.592190 28.234068 1072.463379
2.160000 1.840000 -3.920000 -23.329426 12.245585 694.216431
2.160000 1.840000 -3.880000 -18.119869 -1.722910 331.298065
2.160000 1.840000 -3.840000 -7.244365 -7.159707 103.742226
2.160000 1.840000 -3.800000 1.860878 -4.711152 25.657822
2.160000 1.880000 -4.200000 8.653348 -8.069188 139.992218
2.160000 1.880000 -4.160000 15.116419 -10.055722 329.623657
2.160000 1.880000 -4.120000 25.572428 -5.162215 680.597473
2.160000 1.880000 -4.080000 32.038372 9.007776 1107.597290
2.160000 1.880000 -4.040000 27.059191 26.734110 1446.912476
2.160000 1.880000 -4.000000 10.578543 37.711445 1534.058594
2.160000 1.880000 -3.960000 -8.961679 35.008785 1305.926636
2.160000 1.880000 -3.920000 -20.573092 20.723753 852.726074
2.160000 1.880000 -3.880000 -18.820213 4.532593 374.744843
2.160000 1.880000 -3.840000 -7.480177 -3.546733 68.532364
2.160000 1.880000 -3.800000 3.961147 -0.211702 15.735506
2.160000 1.920000 -4.200000 10.290626 -2.668772 113.019318
2.160000 1.920000 -4.160000 17.640312 -8.141207 377.459839
2.160000 1.920000 -4.120000 32.166607 -4.116120 1051.633057
2.160000 1.920000 -4.080000 42.473774 14.116358 2003.293091
2.160000 1.920000 -4.040000 36.509365 39.118004 2863.151855
2.160000 1.920000 -4.000000 12.821208 55.157810 3206.767334
2.160000 1.920000 -3.960000 -16.069681 50.631744 2821.808105
2.160000 1.920000 -3.920000 -32.568951 28.485056 1872.135010
2.160000 1.920000 -3.880000 -28.241070 4.671390 819.379944
2.160000 1.920000 -3.840000 -10.687214 -4.773512 137.002960
2.160000 1.920000 -3.800000 3.344292 3.238883 21.674656
2.160000 1.960000 -4.200000 9.974058 2.016533 103.548241
2.160000 1.960000 -4.160000 21.875656 -3.158542 488.520721
2.160000 1.960000 -4.120000 39.601147 6.533653 1610.939453
2.160000 1.960000 -4.080000 46.678368 33.282604 3286.601807
2.160000 1.960000 -4.040000 29.905937 62.833534 4842.417969
2.160000 1.960000 -4.000000 -6.515247 73.698112 5473.859863
2.160000 1.960000 -3.960000 -41.150459 55.660824 4791.487305
2.160000 1.960000 -3.920000 -52.093243 20.353426 3127.967773
2.160000 1.960000 -3.880000 -35.796421 -7.455750 1336.972046
2.160000 1.960000 -3.840000 -10.022440 -10.952383 220.403992
2.160000 1.960000 -3.800000 2.457820 4.824884 29.320383
2.160000 2.000000 -4.200000 8.168597 7.124786 117.488564
2.160000 2.000000 -4.160000 22.351494 7.366914 553.860718
2.160000 2.000000 -4.120000 36.055664 24.906292 1920.334229
2.160000 2.000000 -4.080000 31.384121 55.150139 4026.500977
2.160000 2.000000 -4.040000 0.885595 77.417831 5994.304688
2.160000 2.000000 -4.000000 -41.134022 71.172333 6757.508789
2.160000 2.000000 -3.960000 -67.366180 35.954754 5830.946289
2.160000 2.000000 -3.920000 -60.679428 -5.325739 3710.356445
2.160000 2.000000 -3.880000 -29.884899 -25.210445 1528.673706
2.160000 2.000000 -3.840000 -1.916800 -15.599333 247.013306
2.160000 2.000000 -3.800000 2.809699 6.350397 48.221947
2.160000 2.040000 -4.200000 2.525008 12.147787 153.944397
2.160000 2.040000 -4.160000 12.948972 17.918608 488.752380
2.160000 2.040000 -4.120000 16.591953 37.349205 1670.256104
2.160000 2.040000 -4.080000 0.018010 59.828205 3579.414307
2.160000 2.040000 -4.040000 -34.731140 64.663071 5387.564453
2.160000 2.040000 -4.000000 -66.549355 40.365025 6058.151367
2.160000 2.040000 -3.960000 -71.716232 -1.269046 5144.828125
2.160000 2.040000 -3.920000 -45.991470 -32.587353 3177.150879
2.160000 2.040000 -3.880000 -9.921374 -34.066185 1258.938721
2.160000 2.040000 -3.840000 9.449213 -11.671241 225.505493
2.160000 2.040000 -3.800000 3.037896 9.972073 108.671043
2.160000 2.080000 -4.200000 -7.667695 12.556792 216.466583
2.160000 2.080000 -4.160000 -4.013875 18.200193 347.358246
2.160000 2.080000 -4.120000 -8.246050 30.668316 1008.542908
2.160000 2.080000 -4.080000 -26.673155 38.590450 2200.680176
2.160000 2.080000 -4.040000 -50.891045 28.102871 3379.669922
2.160000 2.080000 -4.000000 -61.718655 -1.148203 3810.510742
2.160000 2.080000 -3.960000 -46.876572 -31.406651 3183.790771
2.160000 2.080000 -3.920000 -14.722612 -41.079918 1904.314941
2.160000 2.080000 -3.880000 11.581944 -24.825394 750.441589
2.160000 2.080000 -3.840000 15.031994 1.221639 227.453247
2.160000 2.080000 -3.800000 -0.036149 15.176456 230.326141
2.160000 2.120000 -4.200000 -17.213936 3.961687 312.014526
2.160000 2.120000 -4.160000 -16.553972 4.018536 290.182617
2.160000 2.120000 -4.120000 -19.726595 6.760431 434.841980
2.160000 2.120000 -4.080000 -28.583544 4.811262 840.167236
2.160000 2.120000 -4.040000 -35.327263 -7.558895 1305.152344
2.160000 2.120000 -4.000000 -29.256258 -25.068434 1484.354980
2.160000 2.120000 -3.960000 -9.305225 -33.769451 1226.963135
2.160000 2.120000 -3.920000 12.022557 -24.354237 737.670715
2.160000 2.120000 -3.880000 19.255930 -2.563191 377.360779
2.160000 2.120000 -3.840000 8.780838 15.338361 312.368408
2.160000 2.120000 -3.800000 -7.932136 18.080975 389.840393
2.160000 2.160000 -4.200000 -17.567520 -11.231258 434.758942
2.160000 2.160000 -4.160000 -13.160358 -15.805338 423.003723
2.160000 2.160000 -4.120000 -8.491130 -16.510235 344.687134
2.160000 2.160000 -4.080000 -5.595945 -16.567411 305.793732
2.160000 2.160000 -4.040000 -1.637365 -17.958199 325.177856
2.160000 2.160000 -4.000000 6.160606 -17.379148 339.987854
2.160000 2.160000 -3.960000 14.769138 -9.798460 314.137268
2.160000 2.160000 -3.920000 16.723932 4.303037 298.206055
2.160000 2.160000 -3.880000 7.991327 17.155977 358.188843
2.160000 2.160000 -3.840000 -6.678769 20.596008 468.801514
2.160000 2.160000 -3.800000 -17.803427 14.306902 521.649414
2.160000 2.200000 -4.200000 -5.187908 -22.940979 553.202881
2.160000 2.200000 -4.160000 5.134329 -25.418156 672.443970
2.160000 2.200000 -4.120000 15.383080 -20.872496 672.300171
2.160000 2.200000 -4.080000 21.645523 -11.638500 603.983337
2.160000 2.200000 -4.040000 23.071159 -0.741678 532.828491
2.160000 2.200000 -4.000000 19.908516 10.086146 498.079346
2.160000 2.200000 -3.960000 11.923939 19.207874 511.122742
2.160000 2.200000 -3.920000 -0.240206 23.708771 562.163513
2.160000 2.200000 -3.880000 -13.071648 21.102289 616.174561
2.160000 2.200000 -3.840000 -21.534973 12.605572 622.655518
2.160000 2.200000 -3.800000 -23.435814 3.282059 560.009277
2.200000 1.800000 -4.200000 -5.145510 5.158954 53.091072
2.200000 1.800000 -4.160000 -0.812231 2.649500 7.679571
2.200000 1.800000 -4.120000 6.744170 6.758491 91.161026
2.200000 1.800000 -4.080000 8.955061 19.266300 451.383453
2.200000 1.800000 -4.040000 -1.366822 32.518139 1059.297485
2.200000 1.800000 -4.000000 -21.528614 34.719322 1668.912476
2.200000 1.800000 -3.960000 -39.241920 20.760588 1970.930420
2.200000 1.800000 -3.920000 -42.550720 -2.170643 1815.275513
2.200000 1.800000 -3.880000 -30.077606 -20.201416 1312.759644
2.200000 1.800000 -3.840000 -11.637117 -24.449455 733.198364
2.200000 1.800000 -3.800000 1.131927 -17.446711 305.668945
2.200000 1.840000 -4.200000 -6.796896 -1.568077 48.656662
2.200000 1.840000 -4.160000 -0.801527 -1.834112 4.006412
2.200000 1.840000 -4.120000 4.176049 5.798345 51.060188
2.200000 1.840000 -4.080000 0.074892 17.538406 307.601318
2.200000 1.840000 -4.040000 -14.314100 23.310127 748.255493
2.200000 1.840000 -4.000000 -30.543835 15.784414 1182.073608
2.200000 1.840000 -3.960000 -37.079140 -2.289443 1380.104126
2.200000 1.840000 -3.920000 -29.181929 -19.845022 1245.409912
2.200000 1.840000 -3.880000 -12.637043 -26.760166 875.801392
2.200000 1.840000 -3.840000 1.916748 -21.656605 472.682465
2.200000 1.840000 -3.800000 8.013094 -11.240396 190.556183
2.200000 1.880000 -4.200000 -1.564660 -8.588356 76.208015
2.200000 1.880000 -4.160000 4.069907 -5.103968 42.614632
2.200000 1.880000 -4.120000 4.245364 3.418957 29.712383
2.200000 1.880000 -4.080000 -3.809201 9.853518 111.601837
2.200000 1.880000 -4.040000 -15.347387 7.556069 292.636475
2.200000 1.880000 -4.000000 -21.866844 -3.366859 489.494629
2.200000 1.880000 -3.960000 -18.396561 -15.979496 593.777710
2.200000 1.880000 -3.920000 -7.322989 -22.377407 554.374512
2.200000 1.880000 -3.880000 4.260845 -19.753521 408.356415
2.200000 1.880000 -3.840000 10.531963 -11.336504 239.438568
2.200000 1.880000 -3.800000 10.403002 -2.469423 114.320496
2.200000 1.920000 -4.200000 9.319105 -9.065746 169.033478
2.200000 1.920000 -4.160000 11.453635 -2.290308 136.431274
2.200000 1.920000 -4.120000 7.061545 3.649704 63.185764
2.200000 1.920000 -4.080000 -0.253639 3.705371 13.794106
2.200000 1.920000 -4.040000 -4.536337 -1.850958 24.004396
2.200000 1.920000 -4.000000 -2.882053 -8.274765 76.777962
2.200000 1.920000 -3.960000 2.752069 -11.000870 128.593018
2.200000 1.920000 -3.920000 8.303452 -9.004797 150.033691
2.200000 1.920000 -3.880000 11.133720 -4.199343 141.594208
2.200000 1.920000 -3.840000 10.835781 1.232564 118.933372
2.200000 1.920000 -3.800000 7.731282 6.008651 95.876610
2.200000 1.960000 -4.200000 18.150442 0.686435 329.909729
2.200000 1.960000 -4.160000 14.485643 7.686194 268.911438
2.200000 1.960000 -4.120000 7.924819 8.589421 136.580933
2.200000 1.960000 -4.080000 4.817603 4.614271 44.500797
2.200000 1.960000 -4.040000 6.859665 1.367262 48.924416
2.200000 1.960000 -4.000000 10.304881 2.415976 112.027512
2.200000 1.960000 -3.960000 10.973745 6.195747 158.810364
2.200000 1.960000 -3.920000 8.639740 9.022781 156.055695
2.200000 1.960000 -3.880000 5.938576 9.766501 130.651245
2.200000 1.960000 -3.840000 4.012846 10.257534 121.319939
2.200000 1.960000 -3.800000 0.994849 11.431984 131.679993
2.200000 2.000000 -4.200000 16.080303 15.858850 510.079285
2.200000 2.000000 -4.160000 7.239771 18.656057 400.462738
2.200000 2.000000 -4.120000 1.856132 14.005169 199.589981
2.200000 2.000000 -4.080000 3.691483 9.218777 98.612900
2.200000 2.000000 -4.040000 8.212234 10.340349 174.363617
2.200000 2.000000 -4.000000 8.623333 15.943411 328.554230
2.200000 2.000000 -3.960000 3.537364 19.827419 405.639496
2.200000 2.000000 -3.920000 -2.451827 18.599289 351.945007
2.200000 2.000000 -3.880000 -5.100043 14.858850 246.795868
2.200000 2.000000 -3.840000 -5.433913 12.726229 191.484299
2.200000 2.000000 -3.800000 -7.280400 11.953808 195.897751
2.200000 2.040000 -4.200000 1.634773 25.050505 630.200256
2.200000 2.040000 -4.160000 -8.361383 20.646883 496.206543
2.200000 2.040000 -4.120000 -9.482005 11.945534 232.604187
2.200000 2.040000 -4.080000 -3.540352 8.465841 84.204559
2.200000 2.040000 -4.040000 0.960660 12.724563 162.837357
2.200000 2.040000 -4.000000 -1.452301 18.832493 356.771973
2.200000 2.040000 -3.960000 -8.166609 20.104305 470.876587
2.200000 2.040000 -3.920000 -12.939940 16.158112 428.526611
2.200000 2.040000 -3.880000 -13.472145 11.691124 318.181061
2.200000 2.040000 -3.840000 -12.816331 9.614681 256.700439
2.200000 2.040000 -3.800000 -13.753339 7.716031 248.691467
2.200000 2.080000 -4.200000 -15.944974 19.531128 635.707153
2.200000 2.080000 -4.160000 -21.727797 8.773662 549.074280
2.200000 2.080000 -4.120000 -16.802471 -0.817411 282.991180
2.200000 2.080000 -4.080000 -7.653302 -1.679294 61.393055
2.200000 2.080000 -4.040000 -3.060677 4.595874 30.489798
2.200000 2.080000 -4.000000 -5.604427 10.725119 146.437775
2.200000 2.080000 -3.960000 -11.038332 11.929871 264.166565
2.200000 2.080000 -3.920000 -14.554058 9.430195 300.749176
2.200000 2.080000 -3.880000 -15.579017 6.665974 287.140961
2.200000 2.080000 -3.840000 -16.070522 4.400087 277.622467
2.200000 2.080000 -3.800000 -15.996325 1.144331 257.191895
2.200000 2.120000 -4.200000 -23.187677 1.806890 540.933228
2.200000 2.120000 -4.160000 -21.536533 -10.600479 576.192444
2.200000 2.120000 -4.120000 -11.081843 -17.169703 417.605927
2.200000 2.120000 -4.080000 0.099378 -13.943609 194.434113
2.200000 2.120000 -4.040000 5.000230 -4.674455 46.852825
2.200000 2.120000 -4.000000 2.601221 4.056444 23.221088
2.200000 2.120000 -3.960000 -3.626019 8.412882 83.924591
2.200000 2.120000 -3.920000 -10.024607 8.321974 169.747986
2.200000 2.120000 -3.880000 -14.662848 5.100460 241.013794
2.200000 2.120000 -3.840000 -16.313993 0.084486 266.153534
2.200000 2.120000 -3.800000 -14.049657 -4.445198 217.152634
2.200000 2.160000 -4.200000 -13.885031 -15.123322 421.508942
2.200000 2.160000 -4.160000 -6.126874 -23.528908 591.148071
2.200000 2.160000 -4.120000 6.650059 -24.206680 630.186646
2.200000 2.160000 -4.080000 17.336670 -15.807561 550.439087
2.200000 2.160000 -4.040000 20.430437 -2.308886 422.733734
2.200000 2.160000 -4.000000 14.756711 10.126717 320.310913
2.200000 2.160000 -3.960000 3.224752 16.415216 279.858337
2.200000 2.160000 -3.920000 -8.889969 14.521891 289.916870
2.200000 2.160000 -3.880000 -16.174099 6.316230 301.496246
2.200000 2.160000 -3.840000 -15.867285 -2.887495 260.108337
2.200000 2.160000 -3.800000 -10.162333 -7.135153 154.183426
2.200000 2.200000 -4.200000 4.905900 -18.242659 356.862457
2.200000 2.200000 -4.160000 13.653105 -19.957560 584.711487
2.200000 2.200000 -4.120000 24.169037 -14.935131 807.200439
2.200000 2.200000 -4.080000 30.984083 -2.492234 966.224670
2.200000 2.200000 -4.040000 28.951151 13.709444 1026.117920
2.200000 2.200000 -4.000000 16.633175 26.574558 982.869629
2.200000 2.200000 -3.960000 -1.519471 29.280014 859.627991
2.200000 2.200000 -3.920000 -16.725336 20.189800 687.364868
2.200000 2.200000 -3.880000 -21.475183 5.133383 487.535126
2.200000 2.200000 -3.840000 -15.536381 -6.100034 278.589539
2.200000 2.200000 -3.800000 -6.664542 -7.446198 99.861984
