#kx 	ky 	kz 	real 	imag 	intensity
2.800000 0.800000 2.800000 -19.087578 11.308841 492.225525
2.800000 0.800000 2.840000 -20.197514 2.720012 415.338013
2.800000 0.800000 2.880000 -17.119339 -3.700417 306.764862
2.800000 0.800000 2.920000 -12.883363 -7.297564 219.235474
2.800000 0.800000 2.960000 -8.520147 -9.582762 164.422241
2.800000 0.800000 3.000000 -2.936657 -10.846066 126.261116
2.800000 0.800000 3.040000 4.045203 -9.090388 98.998833
2.800000 0.800000 3.080000 9.681852 -2.668613 100.859764
2.800000 0.800000 3.120000 10.180931 6.681292 148.291016
2.800000 0.800000 3.160000 4.534252 14.313566 225.437622
2.800000 0.800000 3.200000 -4.117733 16.505501 289.387268
2.800000 0.840000 2.800000 -21.836569 -4.126035 493.859894
2.800000 0.840000 2.840000 -17.660624 -9.833264 408.590698
2.800000 0.840000 2.880000 -12.471622 -12.215461 304.758820
2.800000 0.840000 2.920000 -7.940655 -12.174091 211.262497
2.800000 0.840000 2.960000 -4.538009 -10.685247 134.768036
2.800000 0.840000 3.000000 -2.487980 -8.308954 75.228760
2.800000 0.840000 3.040000 -2.078251 -5.818051 38.168850
2.800000 0.840000 3.080000 -2.901215 -4.356183 27.393379
2.800000 0.840000 3.120000 -3.504656 -4.324395 30.983002
2.800000 0.840000 3.160000 -2.684361 -4.429814 26.829046
2.800000 0.840000 3.200000 -1.280616 -2.722084 9.049718
2.800000 0.880000 2.800000 -12.443063 -17.448822 459.291199
2.800000 0.880000 2.840000 -6.320765 -17.691902 352.955444
2.800000 0.880000 2.880000 -2.042321 -15.479422 243.783569
2.800000 0.880000 2.920000 -0.148901 -12.005412 144.152084
2.800000 0.880000 2.960000 -1.252507 -8.693739 77.149872
2.800000 0.880000 3.000000 -4.963144 -8.047977 89.402740
2.800000 0.880000 3.040000 -8.196917 -12.121825 214.128082
2.800000 0.880000 3.080000 -6.278289 -19.337250 413.346130
2.800000 0.880000 3.120000 2.642977 -23.779646 572.456909
2.800000 0.880000 3.160000 14.074699 -19.487474 577.858826
2.800000 0.880000 3.200000 19.359238 -6.654070 419.056732
2.800000 0.920000 2.800000 3.569124 -19.688078 400.359070
2.800000 0.920000 2.840000 7.424138 -14.882509 276.606903
2.800000 0.920000 2.880000 7.835871 -9.858105 158.583099
2.800000 0.920000 2.920000 4.891355 -5.920115 58.973106
2.800000 0.920000 2.960000 -1.055401 -5.652012 33.059109
2.800000 0.920000 3.000000 -6.456074 -11.991407 185.474747
2.800000 0.920000 3.040000 -4.656655 -23.647928 580.908936
2.800000 0.920000 3.080000 8.351722 -32.571228 1130.636108
2.800000 0.920000 3.120000 27.577501 -28.759068 1587.602539
2.800000 0.920000 3.160000 40.036671 -9.828558 1699.535645
2.800000 0.920000 3.200000 34.743908 14.131231 1406.830811
2.800000 0.960000 2.800000 15.370882 -9.616960 328.749908
2.800000 0.960000 2.840000 14.202084 -2.945252 210.373688
2.800000 0.960000 2.880000 9.764297 1.205153 96.793900
2.800000 0.960000 2.920000 3.005617 1.377936 10.932440
2.800000 0.960000 2.960000 -3.349919 -4.925874 35.486191
2.800000 0.960000 3.000000 -2.940370 -17.490421 314.560608
2.800000 0.960000 3.040000 9.867558 -28.998131 938.260315
2.800000 0.960000 3.080000 32.049961 -27.689720 1793.920532
2.800000 0.960000 3.120000 49.891228 -7.661114 2547.827148
2.800000 0.960000 3.160000 48.157898 22.610001 2830.395264
2.800000 0.960000 3.200000 23.971712 43.907730 2502.531738
2.800000 1.000000 2.800000 15.340834 4.990999 260.251251
2.800000 1.000000 2.840000 9.358996 9.372828 175.440735
2.800000 1.000000 2.880000 2.159139 9.109701 87.648537
2.800000 1.000000 2.920000 -4.014342 3.373628 27.496304
2.800000 1.000000 2.960000 -4.644838 -7.786486 82.203888
2.800000 1.000000 3.000000 5.554986 -19.192142 399.196228
2.800000 1.000000 3.040000 25.871735 -20.334469 1082.837280
2.800000 1.000000 3.080000 45.093651 -3.345999 2044.633057
2.800000 1.000000 3.120000 47.196426 27.009106 2956.994385
2.800000 1.000000 3.160000 25.050783 52.750031 3410.107422
2.800000 1.000000 3.200000 -10.572419 55.403587 3181.333496
2.800000 1.040000 2.800000 4.936173 13.724594 212.730301
2.800000 1.040000 2.840000 -2.908893 13.033909 178.344437
2.800000 1.040000 2.880000 -8.658794 7.366469 129.239594
2.800000 1.040000 2.920000 -9.405738 -2.092056 92.844604
2.800000 1.040000 2.960000 -1.799754 -11.661259 139.224075
2.800000 1.040000 3.000000 14.205227 -13.747523 390.782867
2.800000 1.040000 3.040000 30.881708 -1.230907 955.195007
2.800000 1.040000 3.080000 34.852867 24.205177 1800.612915
2.800000 1.040000 3.120000 17.456215 48.772392 2683.465820
2.800000 1.040000 3.160000 -15.253322 54.782169 3233.750000
2.800000 1.040000 3.200000 -43.959106 35.281452 3177.184082
2.800000 1.080000 2.800000 -7.286202 11.827092 192.968857
2.800000 1.080000 2.840000 -13.129938 6.074553 209.295471
2.800000 1.080000 2.880000 -13.739892 -2.587503 195.479813
2.800000 1.080000 2.920000 -7.548830 -10.426555 165.697876
2.800000 1.080000 2.960000 4.575539 -12.165741 168.940796
2.800000 1.080000 3.000000 17.054499 -3.120498 300.593445
2.800000 1.080000 3.040000 20.379272 15.783834 664.444214
2.800000 1.080000 3.080000 7.504618 34.970161 1279.231567
2.800000 1.080000 3.120000 -18.422434 40.705990 1996.363770
2.800000 1.080000 3.160000 -43.188095 25.711926 2526.314697
2.800000 1.080000 3.200000 -50.856846 -3.140885 2596.283936
2.800000 1.120000 2.800000 -13.377754 2.977399 187.829208
2.800000 1.120000 2.840000 -14.619773 -5.416534 243.076599
2.800000 1.120000 2.880000 -9.282068 -12.834377 250.878021
2.800000 1.120000 2.920000 0.767337 -14.415363 208.391510
2.800000 1.120000 2.960000 10.152220 -7.309334 156.493927
2.800000 1.120000 3.000000 11.857899 6.555790 183.588135
2.800000 1.120000 3.040000 1.664094 19.632189 388.192047
2.800000 1.120000 3.080000 -17.374723 22.338547 800.891724
2.800000 1.120000 3.120000 -34.903595 9.987170 1318.004517
2.800000 1.120000 3.160000 -39.596558 -12.288116 1718.885132
2.800000 1.120000 3.200000 -27.786407 -31.849215 1786.456909
2.800000 1.160000 2.800000 -12.087835 -5.441651 175.727341
2.800000 1.160000 2.840000 -8.441399 -13.412359 251.148590
2.800000 1.160000 2.880000 0.564037 -16.301342 266.051910
2.800000 1.160000 2.920000 9.216206 -10.913795 204.049377
2.800000 1.160000 2.960000 10.644041 0.243189 113.354752
2.800000 1.160000 3.000000 1.991604 9.593102 95.994110
2.800000 1.160000 3.040000 -12.502814 9.377803 244.263550
2.800000 1.160000 3.080000 -23.550613 -2.360189 560.201904
2.800000 1.160000 3.120000 -23.259172 -19.540184 922.807861
2.800000 1.160000 3.160000 -11.146808 -31.936134 1144.167969
2.800000 1.160000 3.200000 5.227435 -32.623333 1091.607910
2.800000 1.200000 2.800000 -8.007405 -9.420965 152.873123
2.800000 1.200000 2.840000 -0.848180 -14.967136 224.734573
2.800000 1.200000 2.880000 8.457951 -12.685899 232.468948
2.800000 1.200000 2.920000 12.096805 -3.414973 157.994720
2.800000 1.200000 2.960000 5.881258 5.273309 62.396980
2.800000 1.200000 3.000000 -6.118820 4.930388 61.748684
2.800000 1.200000 3.040000 -14.060353 -6.184530 235.941940
2.800000 1.200000 3.080000 -10.402591 -20.814404 541.453247
2.800000 1.200000 3.120000 3.424832 -28.313860 813.404175
2.800000 1.200000 3.160000 17.958561 -23.498545 874.691528
2.800000 1.200000 3.200000 23.582779 -10.868734 674.276855
2.840000 0.800000 2.800000 -29.831745 7.571782 947.264954
2.840000 0.800000 2.840000 -28.223852 -5.157887 823.189636
2.840000 0.800000 2.880000 -20.251122 -13.591127 594.826660
2.840000 0.800000 2.920000 -10.784395 -15.903210 369.215271
2.840000 0.800000 2.960000 -3.162199 -14.070418 207.976166
2.840000 0.800000 3.000000 2.356575 -10.404535 113.807800
2.840000 0.800000 3.040000 6.416517 -5.228745 68.511459
2.840000 0.800000 3.080000 8.079672 1.914907 68.947968
2.840000 0.800000 3.120000 5.357885 9.640575 121.647629
2.840000 0.800000 3.160000 -1.933249 14.443977 212.365936
2.840000 0.800000 3.200000 -10.678129 13.504682 296.398865
2.840000 0.840000 2.800000 -24.549318 -13.786855 792.746338
2.840000 0.840000 2.840000 -10.602884 -21.235117 563.351379
2.840000 0.840000 2.880000 4.418829 -15.979582 274.873077
2.840000 0.840000 2.920000 9.916079 -1.653677 101.063263
2.840000 0.840000 2.960000 2.478710 10.714327 120.940804
2.840000 0.840000 3.000000 -10.930750 11.935911 261.947266
2.840000 0.840000 3.040000 -19.074673 2.396439 369.586060
2.840000 0.840000 3.080000 -16.169577 -8.823139 339.302979
2.840000 0.840000 3.120000 -6.278358 -12.435946 194.070557
2.840000 0.840000 3.160000 1.268864 -6.856884 48.626873
2.840000 0.840000 3.200000 0.552642 1.478626 2.491749
2.840000 0.880000 2.800000 -4.768549 -24.226744 609.674194
2.840000 0.880000 2.840000 15.337734 -16.653069 512.570801
2.840000 0.880000 2.880000 23.508724 6.927482 600.650085
2.840000 0.880000 2.920000 8.783554 31.015511 1039.112793
2.840000 0.880000 2.960000 -22.010859 35.510654 1745.484497
2.840000 0.880000 3.000000 -46.961140 13.524837 2388.269775
2.840000 0.880000 3.040000 -46.607140 -20.705557 2600.945312
2.840000 0.880000 3.080000 -20.867586 -42.569931 2247.655029
2.840000 0.880000 3.120000 10.589531 -37.558807 1522.802246
2.840000 0.880000 3.160000 25.228905 -12.812243 800.651184
2.840000 0.880000 3.200000 16.147707 10.459830 370.156494
2.840000 0.920000 2.800000 15.436111 -15.945559 492.534363
2.840000 0.920000 2.840000 28.259306 8.665586 873.680786
2.840000 0.920000 2.880000 14.974449 40.913750 1898.169067
2.840000 0.920000 2.920000 -24.797123 54.181870 3550.572266
2.840000 0.920000 2.960000 -66.500565 30.123568 5329.754395
2.840000 0.920000 3.000000 -77.567368 -21.429129 6475.903809
2.840000 0.920000 3.040000 -45.560753 -66.170853 6454.363770
2.840000 0.920000 3.080000 8.759182 -72.412567 5320.303223
2.840000 0.920000 3.120000 47.322144 -37.797554 3668.040283
2.840000 0.920000 3.160000 46.148949 9.151969 2213.483887
2.840000 0.920000 3.200000 13.695578 34.090717 1349.745850
2.840000 0.960000 2.800000 21.065369 4.152010 460.988953
2.840000 0.960000 2.840000 15.109632 35.868233 1514.831177
2.840000 0.960000 2.880000 -21.442856 57.095470 3719.688965
2.840000 0.960000 2.920000 -71.040207 40.983345 6726.345703
2.840000 0.960000 2.960000 -96.308273 -14.274420 9479.041992
2.840000 0.960000 3.000000 -70.645355 -76.176842 10793.677734
2.840000 0.960000 3.040000 -4.912195 -100.591743 10142.829102
2.840000 0.960000 3.080000 57.196724 -68.782166 8002.451660
2.840000 0.960000 3.120000 73.908188 -4.698671 5484.498047
2.840000 0.960000 3.160000 39.561962 44.728172 3565.758301
2.840000 0.960000 3.200000 -12.996582 48.686096 2539.247070
2.840000 1.000000 2.800000 8.858898 19.889509 474.072662
2.840000 1.000000 2.840000 -15.741071 42.529427 2056.533447
2.840000 1.000000 2.880000 -60.362274 37.900154 5080.025879
2.840000 1.000000 2.920000 -93.865967 -7.081185 8860.962891
2.840000 1.000000 2.960000 -82.314064 -71.817001 11933.287109
2.840000 1.000000 3.000000 -21.514885 -111.671425 12933.397461
2.840000 1.000000 3.040000 52.472153 -93.777161 11547.483398
2.840000 1.000000 3.080000 89.222000 -27.494421 8716.508789
2.840000 1.000000 3.120000 65.422890 40.520248 5922.044922
2.840000 1.000000 3.160000 4.117152 64.310875 4152.839844
2.840000 1.000000 3.200000 -46.235931 35.551262 3401.653320
2.840000 1.040000 2.800000 -10.258048 19.456915 483.799072
2.840000 1.040000 2.840000 -40.764809 22.534304 2169.564453
2.840000 1.040000 2.880000 -71.833687 -5.430555 5189.569336
2.840000 1.040000 2.920000 -73.049873 -58.064030 8707.715820
2.840000 1.040000 2.960000 -29.315208 -101.865776 11236.018555
2.840000 1.040000 3.000000 39.137569 -100.336586 11599.179688
2.840000 1.040000 3.040000 87.127640 -47.049046 9804.837891
2.840000 1.040000 3.080000 80.368881 24.127750 7041.305664
2.840000 1.040000 3.120000 25.283054 64.376587 4783.577637
2.840000 1.040000 3.160000 -35.668549 49.742924 3746.603760
2.840000 1.040000 3.200000 -59.714939 -0.654695 3566.302734
2.840000 1.080000 2.800000 -21.108965 4.805463 468.680878
2.840000 1.080000 2.840000 -41.717186 -8.574068 1813.838257
2.840000 1.080000 2.880000 -47.913372 -41.809692 4043.741699
2.840000 1.080000 2.920000 -23.311508 -76.698227 6426.044434
2.840000 1.080000 2.960000 26.226164 -84.649963 7853.427734
2.840000 1.080000 3.000000 70.563774 -51.345978 7615.655273
2.840000 1.080000 3.040000 77.061050 6.388899 5979.223145
2.840000 1.080000 3.080000 38.841179 50.155663 4024.227783
2.840000 1.080000 3.120000 -16.997177 50.399666 2829.030273
2.840000 1.080000 3.160000 -50.677677 10.914698 2687.357666
2.840000 1.080000 3.200000 -42.174908 -35.236755 3020.351562
2.840000 1.120000 2.800000 -17.129890 -11.496145 425.594482
2.840000 1.120000 2.840000 -20.885265 -27.974560 1218.770264
2.840000 1.120000 2.880000 -8.975765 -47.723774 2358.123047
2.840000 1.120000 2.920000 18.912983 -55.064457 3389.795410
2.840000 1.120000 2.960000 48.007492 -38.231468 3766.364258
2.840000 1.120000 3.000000 57.119781 -2.412342 3268.488770
2.840000 1.120000 3.040000 36.353630 30.276323 2238.242188
2.840000 1.120000 3.080000 -2.081734 36.902435 1366.123291
2.840000 1.120000 3.120000 -31.614582 12.932043 1166.719482
2.840000 1.120000 3.160000 -32.372528 -23.160469 1584.387939
2.840000 1.120000 3.200000 -7.087358 -44.995697 2074.843506
2.840000 1.160000 2.800000 -4.397273 -18.194206 350.365143
2.840000 1.160000 2.840000 3.015743 -25.586208 663.748779
2.840000 1.160000 2.880000 16.009565 -26.592527 963.468750
2.840000 1.160000 2.920000 28.094490 -17.305027 1088.764282
2.840000 1.160000 2.960000 30.661682 -0.538776 940.429016
2.840000 1.160000 3.000000 19.748940 14.013651 586.403015
2.840000 1.160000 3.040000 0.832413 16.002045 256.758331
2.840000 1.160000 3.080000 -13.666128 2.884041 195.080750
2.840000 1.160000 3.120000 -13.442721 -16.902452 466.399658
2.840000 1.160000 3.160000 1.339347 -29.749472 886.824890
2.840000 1.160000 3.200000 19.942753 -27.443411 1150.854248
2.840000 1.200000 2.800000 5.906337 -14.458904 243.944717
2.840000 1.200000 2.840000 13.240092 -10.627050 288.234253
2.840000 1.200000 2.880000 15.292483 -2.161085 238.530334
2.840000 1.200000 2.920000 9.863641 5.011818 122.409729
2.840000 1.200000 2.960000 0.431519 5.180321 27.021933
2.840000 1.200000 3.000000 -6.098454 -2.588400 43.890949
2.840000 1.200000 3.040000 -4.495365 -13.449328 201.092743
2.840000 1.200000 3.080000 4.887074 -20.244312 433.715668
2.840000 1.200000 3.120000 16.448423 -18.696243 620.100098
2.840000 1.200000 3.160000 23.551075 -10.236945 659.448181
2.840000 1.200000 3.200000 23.161919 -0.519797 536.744690
2.880000 0.800000 2.800000 -36.252934 -5.779463 1347.677368
2.880000 0.800000 2.840000 -28.432009 -20.143589 1214.143311
2.880000 0.800000 2.880000 -14.098625 -26.077120 878.787415
2.880000 0.800000 2.920000 -1.145416 -22.568457 510.647217
2.880000 0.800000 2.960000 5.579834 -14.482488 240.876999
2.880000 0.800000 3.000000 6.914074 -7.152287 98.959618
2.880000 0.800000 3.040000 6.290438 -2.063881 43.829212
2.880000 0.800000 3.080000 5.209295 2.387745 32.838081
2.880000 0.800000 3.120000 2.333527 6.969452 54.018608
2.880000 0.800000 3.160000 -3.413338 9.642875 104.635902
2.880000 0.800000 3.200000 -10.022042 7.804426 161.350403
2.880000 0.840000 2.800000 -18.507864 -25.186190 976.885193
2.880000 0.840000 2.840000 5.392214 -23.820087 596.472534
2.880000 0.840000 2.880000 20.062317 -2.167627 407.195160
2.880000 0.840000 2.920000 11.041939 24.037544 699.727966
2.880000 0.840000 2.960000 -16.272602 32.834255 1342.885864
2.880000 0.840000 3.000000 -40.027290 16.224388 1865.414795
2.880000 0.840000 3.040000 -41.338531 -12.074928 1854.677979
2.880000 0.840000 3.080000 -21.117092 -29.276978 1303.072998
2.880000 0.840000 3.120000 2.006477 -24.169371 588.184387
2.880000 0.840000 3.160000 9.855408 -5.701178 129.632477
2.880000 0.840000 3.200000 0.580126 7.734587 60.160378
2.880000 0.880000 2.800000 7.801076 -23.732203 624.074219
2.880000 0.880000 2.840000 30.501606 5.906834 965.238647
2.880000 0.880000 2.880000 17.867798 50.616875 2881.326416
2.880000 0.880000 2.920000 -32.828564 72.197517 6290.196289
2.880000 0.880000 2.960000 -88.260841 44.438690 9764.773438
2.880000 0.880000 3.000000 -104.993431 -19.401352 11400.032227
2.880000 0.880000 3.040000 -68.231331 -74.620483 10223.730469
2.880000 0.880000 3.080000 -5.939758 -83.137077 6947.054199
2.880000 0.880000 3.120000 35.963665 -45.804657 3391.451904
2.880000 0.880000 3.160000 33.489166 1.361731 1123.378662
2.880000 0.880000 3.200000 1.715132 21.757607 476.335114
2.880000 0.920000 2.800000 22.119951 -2.499962 495.542053
2.880000 0.920000 2.840000 19.421974 48.576176 2736.857910
2.880000 0.920000 2.880000 -35.739006 86.888184 8826.833008
2.880000 0.920000 2.920000 -115.339188 65.862610 17641.011719
2.880000 0.920000 2.960000 -158.391922 -18.093834 25415.386719
2.880000 0.920000 3.000000 -123.484756 -113.228577 28069.195312
2.880000 0.920000 3.040000 -29.199234 -152.654190 24155.896484
2.880000 0.920000 3.080000 58.658176 -111.846710 15950.468750
2.880000 0.920000 3.120000 83.004028 -28.961412 7728.432617
2.880000 0.920000 3.160000 42.055916 31.058680 2733.341797
2.880000 0.920000 3.200000 -16.041470 33.102814 1353.125000
2.880000 0.960000 2.800000 13.271444 20.613659 601.054199
2.880000 0.960000 2.840000 -25.809166 67.288315 5193.830078
2.880000 0.960000 2.880000 -107.818085 65.387810 15900.304688
2.880000 0.960000 2.920000 -173.397217 -12.688847 30227.601562
2.880000 0.960000 2.960000 -158.675797 -129.405960 41923.910156
2.880000 0.960000 3.000000 -56.451241 -204.230835 44896.976562
2.880000 0.960000 3.040000 69.252571 -181.125397 37602.328125
2.880000 0.960000 3.080000 134.085388 -78.865143 24198.601562
2.880000 0.960000 3.120000 104.196709 24.835186 11473.740234
2.880000 0.960000 3.160000 20.813469 60.920319 4144.485840
2.880000 0.960000 3.200000 -42.297272 24.243921 2376.826904
2.880000 1.000000 2.800000 -10.403044 26.108469 789.875488
2.880000 1.000000 2.840000 -71.872162 42.010067 6930.453125
2.880000 1.000000 2.880000 -141.962891 -9.407619 20241.966797
2.880000 1.000000 2.920000 -152.852509 -117.789566 37238.269531
2.880000 1.000000 2.960000 -70.218399 -213.096283 50340.652344
2.880000 1.000000 3.000000 65.626251 -219.984741 52700.089844
2.880000 1.000000 3.040000 165.363464 -125.692574 43143.699219
2.880000 1.000000 3.080000 164.476898 4.322813 27071.337891
2.880000 1.000000 3.120000 77.306961 80.796387 12504.421875
2.880000 1.000000 3.160000 -19.307096 65.072891 4607.245117
2.880000 1.000000 3.200000 -55.487797 -5.331246 3107.317627
2.880000 1.040000 2.800000 -28.403278 9.798573 902.758240
2.880000 1.040000 2.840000 -82.507561 -10.794706 6924.023438
2.880000 1.040000 2.880000 -108.656631 -86.735458 19329.302734
2.880000 1.040000 2.920000 -60.453968 -175.835846 34572.925781
2.880000 1.040000 2.960000 52.991341 -207.093246 45695.695312
2.880000 1.040000 3.000000 162.584229 -142.798279 46824.976562
2.880000 1.040000 3.040000 192.661621 -18.073803 37445.164062
2.880000 1.040000 3.080000 125.891342 83.610458 22839.339844
2.880000 1.040000 3.120000 18.325979 99.504776 10237.041992
2.880000 1.040000 3.160000 -50.089195 37.647163 3926.236328
2.880000 1.040000 3.200000 -42.666752 -37.277885 3210.092285
2.880000 1.080000 2.800000 -26.130024 -14.253181 885.931335
2.880000 1.080000 2.840000 -50.603546 -52.160263 5281.412109
2.880000 1.080000 2.880000 -32.636604 -113.121628 13861.650391
2.880000 1.080000 2.920000 39.361469 -149.695526 23958.076172
2.880000 1.080000 2.960000 128.550934 -119.567116 30821.636719
2.880000 1.080000 3.000000 173.124481 -27.988037 30755.416016
2.880000 1.080000 3.040000 138.218307 68.924385 23854.871094
2.880000 1.080000 3.080000 48.426517 107.939888 13996.147461
2.880000 1.080000 3.120000 -31.378326 71.091263 6038.567383
2.880000 1.080000 3.160000 -50.436050 -1.647142 2546.508301
2.880000 1.080000 3.200000 -11.478149 -50.188709 2650.654297
2.880000 1.120000 2.800000 -6.803169 -27.083288 779.787598
2.880000 1.120000 2.840000 -3.213919 -55.049587 3040.786377
2.880000 1.120000 2.880000 29.855751 -78.624512 7073.179688
2.880000 1.120000 2.920000 81.224350 -69.881287 11480.789062
2.880000 1.120000 2.960000 116.933289 -20.390289 14089.157227
2.880000 1.120000 3.000000 106.757553 45.037556 13425.556641
2.880000 1.120000 3.040000 52.310345 84.371765 9854.966797
2.880000 1.120000 3.080000 -10.746075 72.528717 5375.893066
2.880000 1.120000 3.120000 -40.829666 22.781342 2186.051270
2.880000 1.120000 3.160000 -24.116474 -24.888897 1201.061523
2.880000 1.120000 3.200000 16.679123 -37.821064 1708.625977
2.880000 1.160000 2.800000 13.305262 -21.343752 632.585754
2.880000 1.160000 2.840000 24.508413 -26.222927 1288.304199
2.880000 1.160000 2.880000 41.438351 -21.513359 2179.961670
2.880000 1.160000 2.920000 54.124756 -3.015182 2938.580566
2.880000 1.160000 2.960000 51.073475 22.975060 3136.353027
2.880000 1.160000 3.000000 29.632545 41.527733 2602.640381
2.880000 1.160000 3.040000 0.800064 39.969074 1598.166992
2.880000 1.160000 3.080000 -17.561646 18.927526 666.662659
2.880000 1.160000 3.120000 -14.509123 -6.845863 257.380493
2.880000 1.160000 3.160000 5.141989 -19.731041 415.754028
2.880000 1.160000 3.200000 25.068586 -13.067090 799.182861
2.880000 1.200000 2.800000 20.545414 -5.730280 454.950165
2.880000 1.200000 2.840000 20.209375 4.232792 426.335388
2.880000 1.200000 2.880000 12.559765 10.805828 274.513611
2.880000 1.200000 2.920000 3.027803 9.453995 98.545609
2.880000 1.200000 2.960000 -1.671925 1.896072 6.390422
2.880000 1.200000 3.000000 0.902725 -5.814109 34.618774
2.880000 1.200000 3.040000 7.664394 -8.646381 133.502853
2.880000 1.200000 3.080000 13.545115 -6.178017 221.638016
2.880000 1.200000 3.120000 15.881138 -1.546055 254.600830
2.880000 1.200000 3.160000 15.467978 2.283678 244.473541
2.880000 1.200000 3.200000 14.257010 4.734783 225.680511
2.920000 0.800000 2.800000 -30.553579 -21.734299 1405.901001
2.920000 0.800000 2.840000 -16.253187 -32.464069 1318.081909
2.920000 0.800000 2.880000 1.105892 -31.194078 974.293579
2.920000 0.800000 2.920000 11.967056 -20.457981 561.739441
2.920000 0.800000 2.960000 13.131966 -8.683052 247.843903
2.920000 0.800000 3.000000 9.060844 -2.178192 86.843422
2.920000 0.800000 3.040000 5.982353 -0.468086 36.007656
2.920000 0.800000 3.080000 5.613815 0.991287 32.497574
2.920000 0.800000 3.120000 4.862129 4.598886 44.790058
2.920000 0.800000 3.160000 0.877688 8.027000 65.203079
2.920000 0.800000 3.200000 -4.866069 7.594967 81.362144
2.920000 0.840000 2.800000 -4.637838 -29.132420 870.207397
2.920000 0.840000 2.840000 18.919441 -11.648123 493.624023
2.920000 0.840000 2.880000 17.847672 22.192589 811.050354
2.920000 0.840000 2.920000 -13.524864 43.465187 2072.144531
2.920000 0.840000 2.960000 -52.404182 30.282181 3663.208740
2.920000 0.840000 3.000000 -66.614380 -10.031715 4538.110840
2.920000 0.840000 3.040000 -44.214443 -46.167187 4086.326172
2.920000 0.840000 3.080000 -4.369347 -51.135986 2633.980469
2.920000 0.840000 3.120000 21.162495 -25.974741 1122.538330
2.920000 0.840000 3.160000 17.054312 3.896925 306.035583
2.920000 0.840000 3.200000 -4.498528 14.389282 227.288193
2.920000 0.880000 2.800000 16.609322 -12.900959 442.304321
2.920000 0.880000 2.840000 20.145172 36.812988 1761.024170
2.920000 0.880000 2.880000 -29.348236 78.021774 6948.716309
2.920000 0.880000 2.920000 -106.002884 62.678032 15165.146484
2.920000 0.880000 2.960000 -149.764343 -14.659317 22644.255859
2.920000 0.880000 3.000000 -119.489136 -104.305893 25157.373047
2.920000 0.880000 3.040000 -32.878067 -141.930786 21225.314453
2.920000 0.880000 3.080000 47.314857 -104.977402 13258.951172
2.920000 0.880000 3.120000 68.498161 -30.664400 5632.303711
2.920000 0.880000 3.160000 31.650383 20.785831 1433.797607
2.920000 0.880000 3.200000 -17.145538 20.092974 697.697083
2.920000 0.920000 2.800000 15.206123 13.217438 405.926819
2.920000 0.920000 2.840000 -25.774597 70.580208 5645.895508
2.920000 0.920000 2.880000 -120.439285 73.003738 19835.167969
2.920000 0.920000 2.920000 -198.798996 -14.317459 39726.027344
2.920000 0.920000 2.960000 -185.067688 -148.225601 56220.878906
2.920000 0.920000 3.000000 -70.621262 -235.128937 60272.980469
2.920000 0.920000 3.040000 70.532936 -211.220505 49588.996094
2.920000 0.920000 3.080000 143.133209 -99.501221 30387.609375
2.920000 0.920000 3.120000 111.849792 11.987526 12654.077148
2.920000 0.920000 3.160000 25.409361 49.087929 3055.260254
2.920000 0.920000 3.200000 -35.791470 11.081502 1403.828979
2.920000 0.960000 2.800000 -7.428102 25.973993 729.825012
2.920000 0.960000 2.840000 -88.162193 52.558441 10534.961914
2.920000 0.960000 2.880000 -184.586456 -12.367962 34225.125000
2.920000 0.960000 2.920000 -203.105621 -156.461761 65732.179688
2.920000 0.960000 2.960000 -96.264656 -285.167145 90587.179688
2.920000 0.960000 3.000000 81.973862 -297.607056 95289.671875
2.920000 0.960000 3.040000 213.438385 -177.933121 77216.140625
2.920000 0.960000 3.080000 215.550858 -12.915237 46628.976562
2.920000 0.960000 3.120000 109.876114 83.374619 19024.087891
2.920000 0.960000 3.160000 -4.596548 66.051743 4383.960938
2.920000 0.960000 3.200000 -43.868004 -13.370590 2103.174316
2.920000 1.000000 2.800000 -30.918941 13.434280 1136.460815
2.920000 1.000000 2.840000 -116.285904 -12.198906 13671.224609
2.920000 1.000000 2.880000 -161.797577 -126.827515 42263.671875
2.920000 1.000000 2.920000 -92.619156 -265.567261 79104.273438
2.920000 1.000000 2.960000 78.526550 -317.828461 107181.351562
2.920000 1.000000 3.000000 245.973465 -225.378418 111298.375000
2.920000 1.000000 3.040000 295.682312 -41.758244 89171.781250
2.920000 1.000000 3.080000 203.450287 108.607224 53187.546875
2.920000 1.000000 3.120000 53.280647 135.851440 21294.441406
2.920000 1.000000 3.160000 -40.574097 55.520584 4728.792480
2.920000 1.000000 3.200000 -31.274078 -38.781727 2482.090332
2.920000 1.040000 2.800000 -33.996571 -14.148987 1355.960693
2.920000 1.040000 2.840000 -84.850380 -77.648613 13228.894531
2.920000 1.040000 2.880000 -60.252460 -188.800797 39276.101562
2.920000 1.040000 2.920000 64.573105 -260.485748 72022.515625
2.920000 1.040000 2.960000 224.609741 -214.000031 96245.546875
2.920000 1.040000 3.000000 309.211060 -56.956772 98855.546875
2.920000 1.040000 3.040000 256.407959 112.513794 78404.390625
2.920000 1.040000 3.080000 108.808929 185.439270 46227.105469
2.920000 1.040000 3.120000 -23.588875 132.763214 18182.505859
2.920000 1.040000 3.160000 -58.512787 22.647318 3936.647461
2.920000 1.040000 3.200000 -4.491976 -48.114037 2335.138184
2.920000 1.080000 2.800000 -13.330656 -33.779350 1318.750977
2.920000 1.080000 2.840000 -17.265717 -96.758232 9660.259766
2.920000 1.080000 2.880000 48.335140 -157.942062 27281.980469
2.920000 1.080000 2.920000 162.453323 -149.947983 48875.480469
2.920000 1.080000 2.960000 248.883163 -48.759071 64320.273438
2.920000 1.080000 3.000000 237.688156 93.657135 65267.320312
2.920000 1.080000 3.040000 129.079025 185.798752 51182.570312
2.920000 1.080000 3.080000 -2.576088 172.574677 29788.656250
2.920000 1.080000 3.120000 -70.966751 80.398483 11500.195312
2.920000 1.080000 3.160000 -48.560310 -10.289882 2463.985352
2.920000 1.080000 3.200000 18.929649 -36.831772 1714.911133
2.920000 1.120000 2.800000 14.484825 -30.365492 1131.873291
2.920000 1.120000 2.840000 36.062828 -62.220001 5171.856445
2.920000 1.120000 2.880000 92.122200 -68.802750 13220.318359
2.920000 1.120000 2.920000 148.938019 -22.738808 22699.585938
2.920000 1.120000 2.960000 158.737518 62.575188 29113.253906
2.920000 1.120000 3.000000 102.233490 136.106323 28976.617188
2.920000 1.120000 3.040000 10.264099 149.078476 22329.744141
2.920000 1.120000 3.080000 -58.622211 96.488388 12746.572266
2.920000 1.120000 3.120000 -65.906227 21.254395 4795.380371
2.920000 1.120000 3.160000 -22.549366 -23.086767 1041.472778
2.920000 1.120000 3.200000 25.680523 -16.044708 916.921875
2.920000 1.160000 2.800000 28.866854 -8.938337 913.189087
2.920000 1.160000 2.840000 42.815544 -9.287777 1919.433594
2.920000 1.160000 2.880000 59.813236 4.894989 3601.584229
2.920000 1.160000 2.920000 64.833275 34.200089 5372.999512
2.920000 1.160000 2.960000 46.562294 64.818268 6369.455078
2.920000 1.160000 3.000000 9.392265 76.962463 6011.435547
2.920000 1.160000 3.040000 -26.915466 60.884697 4431.388672
2.920000 1.160000 3.080000 -41.478252 26.222252 2408.052002
2.920000 1.160000 3.120000 -28.697737 -4.622433 844.927002
2.920000 1.160000 3.160000 -2.218561 -13.930271 198.974472
2.920000 1.160000 3.200000 17.009621 -1.670313 292.117157
2.920000 1.200000 2.800000 23.218685 12.140110 686.489624
2.920000 1.200000 2.840000 13.592878 19.800901 576.842041
2.920000 1.200000 2.880000 1.559408 17.906902 323.088928
2.920000 1.200000 2.920000 -4.081749 8.533344 89.478638
2.920000 1.200000 2.960000 -0.464706 0.189952 0.252034
2.920000 1.200000 3.000000 6.810860 -0.507954 46.645828
2.920000 1.200000 3.040000 9.692272 4.951614 118.458626
2.920000 1.200000 3.080000 5.855774 9.257095 119.983902
2.920000 1.200000 3.120000 0.495247 7.383869 54.766792
2.920000 1.200000 3.160000 0.102631 1.758659 3.103416
2.920000 1.200000 3.200000 5.228691 -0.839901 28.044643
2.960000 0.800000 2.800000 -14.427639 -28.736622 1033.950195
2.960000 0.800000 2.840000 1.812469 -31.868198 1018.867126
2.960000 0.800000 2.880000 15.698746 -23.255817 787.283691
2.960000 0.800000 2.920000 19.648399 -9.416557 474.731140
2.960000 0.800000 2.960000 14.751507 0.408783 217.774048
2.960000 0.800000 3.000000 8.503632 2.641907 79.291420
2.960000 0.800000 3.040000 6.787277 1.406143 48.044369
2.960000 0.800000 3.080000 8.618767 2.815546 82.210442
2.960000 0.800000 3.120000 8.610500 8.172249 140.926361
2.960000 0.800000 3.160000 3.685249 13.212460 188.150146
2.960000 0.800000 3.200000 -3.556758 13.447991 193.498993
2.960000 0.840000 2.800000 7.561123 -21.009800 498.582275
2.960000 0.840000 2.840000 17.232590 7.966957 360.434570
2.960000 0.840000 2.880000 -5.815826 37.067120 1407.795166
2.960000 0.840000 2.920000 -49.187160 35.163757 3655.866699
2.960000 0.840000 2.960000 -77.195694 -4.383102 5978.386719
2.960000 0.840000 3.000000 -63.361813 -53.883072 6918.104492
2.960000 0.840000 3.040000 -16.223473 -74.973846 5884.278809
2.960000 0.840000 3.080000 27.815849 -53.375511 3622.666748
2.960000 0.840000 3.120000 37.734245 -10.582214 1535.856567
2.960000 0.840000 3.160000 14.383965 18.081009 533.821289
2.960000 0.840000 3.200000 -14.743500 16.054491 475.117462
2.960000 0.880000 2.800000 13.040924 1.387947 171.992096
2.960000 0.880000 2.840000 -15.070278 49.703407 2697.541992
2.960000 0.880000 2.880000 -89.324326 56.331329 11152.053711
2.960000 0.880000 2.920000 -153.682892 -9.582581 23710.257812
2.960000 0.880000 2.960000 -145.638046 -114.834167 34397.328125
2.960000 0.880000 3.000000 -56.856522 -184.059052 37110.398438
2.960000 0.880000 3.040000 53.651917 -165.554810 30286.921875
2.960000 0.880000 3.080000 109.745712 -77.818802 18099.886719
2.960000 0.880000 3.120000 84.036690 8.729874 7138.375977
2.960000 0.880000 3.160000 16.382639 36.056812 1568.484619
2.960000 0.880000 3.200000 -29.685261 5.599279 912.566650
2.960000 0.920000 2.800000 -3.510509 17.649904 323.842804
2.960000 0.920000 2.840000 -79.080246 46.884998 8451.888672
2.960000 0.920000 2.880000 -173.051178 -12.235542 30096.419922
2.960000 0.920000 2.920000 -193.416534 -149.625366 59797.707031
2.960000 0.920000 2.960000 -92.800758 -273.765503 83559.531250
2.960000 0.920000 3.000000 76.965897 -286.691071 88115.523438
2.960000 0.920000 3.040000 201.936615 -173.425797 70854.906250
2.960000 0.920000 3.080000 203.742615 -17.938858 41832.855469
2.960000 0.920000 3.120000 104.802460 71.381287 16078.843750
2.960000 0.920000 3.160000 -0.008734 54.439404 2963.648682
2.960000 0.920000 3.200000 -33.436905 -17.380718 1420.115967
2.960000 0.960000 2.800000 -27.041454 11.255474 857.925903
2.960000 0.960000 2.840000 -122.621712 -13.341835 15214.088867
2.960000 0.960000 2.880000 -176.097992 -139.371506 50434.917969
2.960000 0.960000 2.920000 -101.491867 -294.575378 97075.257812
2.960000 0.960000 2.960000 87.765198 -354.279877 133216.968750
2.960000 0.960000 3.000000 273.376404 -253.276932 138883.859375
2.960000 0.960000 3.040000 328.800415 -51.937290 110807.195312
2.960000 0.960000 3.080000 229.038284 111.824921 64963.347656
2.960000 0.960000 3.120000 68.262756 141.215530 24601.628906
2.960000 0.960000 3.160000 -29.602680 56.768379 4098.967773
2.960000 0.960000 3.200000 -18.130051 -38.403648 1803.538940
2.960000 1.000000 2.800000 -34.874336 -14.068794 1414.150391
2.960000 1.000000 2.840000 -103.344490 -92.412552 19220.164062
2.960000 1.000000 2.880000 -75.636681 -235.333588 61102.804688
2.960000 1.000000 2.920000 82.253342 -329.614929 115411.609375
2.960000 1.000000 2.960000 286.808105 -272.774719 156664.937500
2.960000 1.000000 3.000000 395.774841 -74.663177 162212.312500
2.960000 1.000000 3.040000 330.959442 138.950943 128841.515625
2.960000 1.000000 3.080000 148.214844 230.860275 75264.109375
2.960000 1.000000 3.120000 -13.682213 167.627655 28286.234375
2.960000 1.000000 3.160000 -55.222244 37.146378 4429.349609
2.960000 1.000000 3.200000 7.776661 -42.124012 1834.908813
2.960000 1.040000 2.800000 -17.504288 -36.995689 1675.081055
2.960000 1.040000 2.840000 -29.303337 -131.548645 18163.732422
2.960000 1.040000 2.880000 65.336311 -227.236023 55905.042969
2.960000 1.040000 2.920000 236.078278 -219.931122 104102.656250
2.960000 1.040000 2.960000 367.422058 -71.968887 140178.484375
2.960000 1.040000 3.000000 353.923401 138.587219 144468.187500
2.960000 1.040000 3.040000 196.714508 275.310486 114492.468750
2.960000 1.040000 3.080000 6.665611 258.492371 66862.734375
2.960000 1.040000 3.120000 -91.268143 129.606522 25127.722656
2.960000 1.040000 3.160000 -61.528366 5.859989 3820.079102
2.960000 1.040000 3.200000 26.464676 -27.066216 1432.959106
2.960000 1.080000 2.800000 12.612862 -37.778442 1586.294922
2.960000 1.080000 2.840000 46.468433 -103.662590 12905.248047
2.960000 1.080000 2.880000 150.569702 -124.589905 38193.878906
2.960000 1.080000 2.920000 260.779358 -44.905075 70022.343750
2.960000 1.080000 2.960000 284.773682 111.511948 93530.960938
2.960000 1.080000 3.000000 185.245850 248.429291 96033.140625
2.960000 1.080000 3.040000 19.948898 275.151489 76106.304688
2.960000 1.080000 3.080000 -103.606552 184.137817 44641.050781
2.960000 1.080000 3.120000 -118.179474 54.756157 16964.625000
2.960000 1.080000 3.160000 -47.401379 -19.076748 2610.812988
2.960000 1.080000 3.200000 26.998863 -6.978622 777.639771
2.960000 1.120000 2.800000 32.643436 -15.694963 1311.925903
2.960000 1.120000 2.840000 72.948959 -36.012501 6618.451172
2.960000 1.120000 2.880000 134.060074 -8.971466 18052.589844
2.960000 1.120000 2.920000 163.809601 72.907524 32149.093750
2.960000 1.120000 2.960000 121.491882 166.208313 42385.480469
2.960000 1.120000 3.000000 19.083786 207.302826 43338.652344
2.960000 1.120000 3.040000 -82.644623 166.274796 34477.441406
2.960000 1.120000 3.080000 -122.830276 73.725296 20522.695312
2.960000 1.120000 3.120000 -89.757118 -5.474319 8086.308594
2.960000 1.120000 3.160000 -25.678986 -26.692055 1371.875977
2.960000 1.120000 3.200000 14.607165 2.291018 218.618042
2.960000 1.160000 2.800000 29.812372 11.606850 1023.496460
2.960000 1.160000 2.840000 44.186905 17.385033 2254.721924
2.960000 1.160000 2.880000 54.295776 41.021622 4630.804688
2.960000 1.160000 2.920000 43.144165 74.522781 7415.063965
2.960000 1.160000 2.960000 6.440460 96.584846 9370.112305
2.960000 1.160000 3.000000 -40.096397 88.871933 9505.941406
2.960000 1.160000 3.040000 -70.737885 52.177765 7726.367188
2.960000 1.160000 3.080000 -69.475723 7.383461 4881.391602
2.960000 1.160000 3.120000 -42.250309 -20.377163 2200.317383
2.960000 1.160000 3.160000 -11.033014 -20.579254 545.233093
2.960000 1.160000 3.200000 4.279837 -3.001373 27.325243
2.960000 1.200000 2.800000 11.129425 25.212711 759.544922
2.960000 1.200000 2.840000 -1.825607 24.899006 623.293335
2.960000 1.200000 2.880000 -10.294304 15.310329 340.378876
2.960000 1.200000 2.920000 -8.365875 4.376781 89.144089
2.960000 1.200000 2.960000 -0.135597 1.473499 2.189587
2.960000 1.200000 3.000000 4.022221 7.569542 73.476227
2.960000 1.200000 3.040000 -1.742750 13.824989 194.167511
2.960000 1.200000 3.080000 -12.190273 10.703796 263.174011
2.960000 1.200000 3.120000 -16.051659 -1.650311 260.379242
2.960000 1.200000 3.160000 -7.830177 -12.911507 228.018677
2.960000 1.200000 3.200000 6.033503 -12.903723 202.909210
3.000000 0.800000 2.800000 0.811703 -21.265490 452.879913
3.000000 0.800000 2.840000 12.620804 -18.105896 487.108154
3.000000 0.800000 2.880000 18.858257 -7.680782 414.628296
3.000000 0.800000 2.920000 16.592438 2.682991 282.507446
3.000000 0.800000 2.960000 10.163483 7.037712 152.825775
3.000000 0.800000 3.000000 6.224945 6.070969 75.606598
3.000000 0.800000 3.040000 7.021240 5.395491 78.409134
3.000000 0.800000 3.080000 8.744904 9.130571 159.840668
3.000000 0.800000 3.120000 6.244984 15.640545 283.626465
3.000000 0.800000 3.160000 -1.347628 19.633280 387.281769
3.000000 0.800000 3.200000 -9.901602 17.818256 415.531982
3.000000 0.840000 2.800000 8.161937 -6.883770 114.003494
3.000000 0.840000 2.840000 -0.686020 18.863396 356.298309
3.000000 0.840000 2.880000 -34.974331 26.997482 1952.067871
3.000000 0.840000 2.920000 -67.859901 -0.733871 4605.504883
3.000000 0.840000 2.960000 -66.802750 -49.958038 6958.413086
3.000000 0.840000 3.000000 -25.645004 -83.221687 7583.515625
3.000000 0.840000 3.040000 27.016693 -73.583206 6144.390137
3.000000 0.840000 3.080000 52.720215 -29.491299 3649.157715
3.000000 0.840000 3.120000 37.222374 13.634850 1571.414307
3.000000 0.840000 3.160000 0.667746 26.203894 687.089905
3.000000 0.840000 3.200000 -24.458246 8.947010 678.254822
3.000000 0.880000 2.800000 -1.623592 6.549294 45.529297
3.000000 0.880000 2.840000 -50.715263 28.882191 3406.218750
3.000000 0.880000 2.880000 -115.053246 -8.616081 13311.486328
3.000000 0.880000 2.920000 -130.561646 -101.016518 27250.679688
3.000000 0.880000 2.960000 -63.089584 -185.636276 38441.125000
3.000000 0.880000 3.000000 52.301697 -194.250473 40468.714844
3.000000 0.880000 3.040000 136.789093 -116.134445 32198.464844
3.000000 0.880000 3.080000 136.191833 -9.532059 18639.074219
3.000000 0.880000 3.120000 66.581100 50.558746 6989.229492
3.000000 0.880000 3.160000 -5.964560 37.135387 1414.612915
3.000000 0.880000 3.200000 -28.518246 -13.298481 990.139954
3.000000 0.920000 2.800000 -19.838390 3.624325 406.697479
3.000000 0.920000 2.840000 -97.798584 -14.147060 9764.703125
3.000000 0.920000 2.880000 -142.957901 -116.807999 34081.070312
3.000000 0.920000 2.920000 -82.202660 -245.073898 66818.492188
3.000000 0.920000 2.960000 74.198601 -294.549683 92264.945312
3.000000 0.920000 3.000000 227.515549 -210.483734 96066.726562
3.000000 0.920000 3.040000 272.242432 -43.612816 76018.023438
3.000000 0.920000 3.080000 188.465698 90.861389 43775.113281
3.000000 0.920000 3.120000 55.678825 113.362724 15951.239258
3.000000 0.920000 3.160000 -23.445080 42.881134 2388.463379
3.000000 0.920000 3.200000 -12.562226 -34.092087 1320.079956
3.000000 0.960000 2.800000 -27.716257 -16.389019 1036.790894
3.000000 0.960000 2.840000 -94.013657 -89.025352 16764.080078
3.000000 0.960000 2.880000 -68.886185 -225.665726 55670.328125
3.000000 0.960000 2.920000 82.162613 -316.648315 107016.851562
3.000000 0.960000 2.960000 278.632385 -262.100525 146332.687500
3.000000 0.960000 3.000000 382.752869 -71.662277 151635.250000
3.000000 0.960000 3.040000 319.695557 132.602661 119788.718750
3.000000 0.960000 3.080000 144.843933 219.003662 68942.375000
3.000000 0.960000 3.120000 -7.789982 157.669769 24920.439453
3.000000 0.960000 3.160000 -44.853863 35.121956 3245.420898
3.000000 0.960000 3.200000 14.869064 -35.994690 1516.706787
3.000000 1.000000 2.800000 -14.009035 -37.205254 1580.483887
3.000000 1.000000 2.840000 -29.529732 -140.339279 20567.119141
3.000000 1.000000 2.880000 73.292755 -247.048889 66404.984375
3.000000 1.000000 2.920000 261.823059 -240.190308 126242.695312
3.000000 1.000000 2.960000 407.145935 -77.136353 171717.828125
3.000000 1.000000 3.000000 391.978790 154.822998 177617.531250
3.000000 1.000000 3.040000 218.888000 304.174011 140433.781250
3.000000 1.000000 3.080000 11.875450 284.516541 81090.687500
3.000000 1.000000 3.120000 -92.357635 144.550049 29424.648438
3.000000 1.000000 3.160000 -58.701714 13.988529 3641.570068
3.000000 1.000000 3.200000 33.242657 -16.776779 1386.534546
3.000000 1.040000 2.800000 13.557022 -39.785622 1766.688477
3.000000 1.040000 2.840000 54.049721 -126.851120 19012.580078
3.000000 1.040000 2.880000 188.099762 -157.143234 60075.515625
3.000000 1.040000 2.920000 331.901245 -56.105522 113306.265625
3.000000 1.040000 2.960000 364.043884 145.327148 153647.937500
3.000000 1.040000 3.000000 236.301788 321.135254 158966.390625
3.000000 1.040000 3.040000 25.213642 354.276245 126147.382812
3.000000 1.040000 3.080000 -129.979630 237.818146 73452.171875
3.000000 1.040000 3.120000 -145.879639 76.331680 27107.394531
3.000000 1.040000 3.160000 -57.559700 -11.539322 3446.275146
3.000000 1.040000 3.200000 29.245356 6.974699 903.937256
3.000000 1.080000 2.800000 34.546486 -19.831699 1586.755981
3.000000 1.080000 2.840000 98.695755 -59.008121 13222.810547
3.000000 1.080000 2.880000 200.550354 -20.358711 40634.921875
3.000000 1.080000 2.920000 252.720276 110.011002 75969.960938
3.000000 1.080000 2.960000 187.337326 260.152771 102774.734375
3.000000 1.080000 3.000000 25.058838 325.516968 106589.242188
3.000000 1.080000 3.040000 -133.980225 259.456696 85268.476562
3.000000 1.080000 3.080000 -193.222336 114.800941 50514.125000
3.000000 1.080000 3.120000 -139.126434 -3.835846 19370.876953
3.000000 1.080000 3.160000 -43.277374 -30.437033 2799.344238
3.000000 1.080000 3.200000 9.774963 15.104792 323.704651
3.000000 1.120000 2.800000 34.054283 8.389117 1230.071533
3.000000 1.120000 2.840000 80.374596 11.167778 6584.794922
3.000000 1.120000 2.880000 119.780846 68.057594 18979.287109
3.000000 1.120000 2.920000 101.173317 156.819992 34828.550781
3.000000 1.120000 2.960000 12.404709 216.261932 46923.097656
3.000000 1.120000 3.000000 -100.827179 196.969025 48962.917969
3.000000 1.120000 3.040000 -169.105392 106.261841 39888.210938
3.000000 1.120000 3.080000 -156.661362 3.742622 24556.791016
3.000000 1.120000 3.120000 -88.653091 -49.052582 10265.526367
3.000000 1.120000 3.160000 -24.430330 -37.454636 1999.690796
3.000000 1.120000 3.200000 -4.778057 2.902157 31.252344
3.000000 1.160000 2.800000 15.293194 25.411451 879.623657
3.000000 1.160000 2.840000 26.517048 37.458370 2106.283203
3.000000 1.160000 2.880000 23.781868 64.677094 4748.703613
3.000000 1.160000 2.920000 -4.494835 89.628143 8053.407715
3.000000 1.160000 2.960000 -50.251328 90.105492 10644.195312
3.000000 1.160000 3.000000 -89.094391 58.177505 11322.432617
3.000000 1.160000 3.040000 -98.591034 8.395905 9790.683594
3.000000 1.160000 3.080000 -75.689407 -32.708351 6798.722656
3.000000 1.160000 3.120000 -38.033840 -46.667889 3624.464844
3.000000 1.160000 3.160000 -8.962680 -35.187382 1318.481445
3.000000 1.160000 3.200000 -0.211399 -15.154297 229.697403
3.000000 1.200000 2.800000 -5.153503 23.718189 589.111084
3.000000 1.200000 2.840000 -14.234919 17.438364 506.729431
3.000000 1.200000 2.880000 -16.015228 6.534594 299.188477
3.000000 1.200000 2.920000 -9.704247 -0.281788 94.251808
3.000000 1.200000 2.960000 -3.266205 2.111092 15.124802
3.000000 1.200000 3.000000 -5.557023 8.598846 104.820663
3.000000 1.200000 3.040000 -16.044716 8.075867 322.652527
3.000000 1.200000 3.080000 -23.726181 -4.675547 584.792358
3.000000 1.200000 3.120000 -17.697498 -21.979889 796.316956
3.000000 1.200000 3.160000 0.930229 -29.466969 869.167603
3.000000 1.200000 3.200000 18.621525 -20.159676 753.173706
3.040000 0.800000 2.800000 3.698024 -5.769958 46.967800
3.040000 0.800000 2.840000 8.285000 -2.443609 74.612450
3.040000 0.800000 2.880000 9.090672 3.066124 92.041428
3.040000 0.800000 2.920000 6.536581 6.915154 90.546234
3.040000 0.800000 2.960000 3.847588 7.829414 76.103661
3.040000 0.800000 3.000000 3.304550 8.002441 74.959122
3.040000 0.800000 3.040000 3.794571 10.294483 120.375153
3.040000 0.800000 3.080000 2.103352 14.876949 225.747711
3.040000 0.800000 3.120000 -3.593660 18.772499 365.321106
3.040000 0.800000 3.160000 -11.678516 18.643696 483.975159
3.040000 0.800000 3.200000 -18.461842 13.861468 532.979919
3.040000 0.840000 2.800000 -3.180989 0.862352 10.862344
3.040000 0.840000 2.840000 -21.155661 10.554008 558.949097
3.040000 0.840000 2.880000 -46.650444 -3.315384 2187.255615
3.040000 0.840000 2.920000 -53.019497 -39.904427 4403.430664
3.040000 0.840000 2.960000 -25.433144 -73.483269 6046.635742
3.040000 0.840000 3.000000 21.681412 -75.349213 6147.587402
3.040000 0.840000 3.040000 55.017097 -41.007385 4708.486816
3.040000 0.840000 3.080000 51.627605 4.536430 2685.988770
3.040000 0.840000 3.120000 18.690786 29.023182 1191.690552
3.040000 0.840000 3.160000 -15.005463 20.855629 660.121155
3.040000 0.840000 3.200000 -26.266321 -4.069006 706.476440
3.040000 0.880000 2.800000 -14.955158 -3.842926 238.424835
3.040000 0.880000 2.840000 -58.231834 -13.721397 3579.223389
3.040000 0.880000 2.880000 -83.423645 -72.834702 12264.398438
3.040000 0.880000 2.920000 -46.945869 -146.956924 23800.251953
3.040000 0.880000 2.960000 45.414307 -174.371918 32468.025391
3.040000 0.880000 3.000000 134.956360 -122.731056 33276.132812
3.040000 0.880000 3.040000 158.982193 -22.769577 25793.791016
3.040000 0.880000 3.080000 106.286987 56.376209 14475.201172
3.040000 0.880000 3.120000 25.251028 67.427216 5184.043457
3.040000 0.880000 3.160000 -22.325382 22.619612 1010.069519
3.040000 0.880000 3.200000 -15.123476 -25.501774 879.059998
3.040000 0.920000 2.800000 -18.117050 -20.328474 741.474365
3.040000 0.920000 2.840000 -63.257965 -70.258255 8937.791992
3.040000 0.920000 2.880000 -44.435650 -166.121918 29571.019531
3.040000 0.920000 2.920000 64.044800 -229.551254 56795.515625
3.040000 0.920000 2.960000 204.495285 -188.486115 77345.335938
3.040000 0.920000 3.000000 277.474548 -50.163551 79508.507812
3.040000 0.920000 3.040000 229.437119 96.637245 61980.148438
3.040000 0.920000 3.080000 101.614845 156.764282 34900.617188
3.040000 0.920000 3.120000 -8.245575 109.838486 12132.482422
3.040000 0.920000 3.160000 -33.215084 19.993778 1502.992920
3.040000 0.920000 3.200000 11.359692 -30.939968 1086.324219
3.040000 0.960000 2.800000 -4.326656 -36.074425 1320.084106
3.040000 0.960000 2.840000 -16.785053 -118.771027 14388.294922
3.040000 0.960000 2.880000 68.200577 -205.690582 46959.937500
3.040000 0.960000 2.920000 224.550964 -198.597488 89864.093750
3.040000 0.960000 2.960000 344.433533 -61.373184 122401.125000
3.040000 0.960000 3.000000 329.572845 132.481079 126169.492188
3.040000 0.960000 3.040000 183.079208 255.579224 98838.734375
3.040000 0.960000 3.080000 10.210495 236.432236 56004.457031
3.040000 0.960000 3.120000 -74.541000 117.968842 19473.007812
3.040000 0.960000 3.160000 -43.955650 10.153828 2035.199463
3.040000 0.960000 3.200000 32.717278 -12.692810 1231.527710
3.040000 1.000000 2.800000 19.987743 -35.963131 1692.856689
3.040000 1.000000 2.840000 56.964081 -117.284798 17000.630859
3.040000 1.000000 2.880000 183.937622 -145.902222 55120.507812
3.040000 1.000000 2.920000 320.912140 -48.801414 105366.179688
3.040000 1.000000 2.960000 350.424561 144.599335 143706.343750
3.040000 1.000000 3.000000 226.179932 312.238251 148650.093750
3.040000 1.000000 3.040000 23.314087 341.495636 117162.812500
3.040000 1.000000 3.080000 -123.262794 227.716003 67048.296875
3.040000 1.000000 3.120000 -135.040359 73.858719 23691.007812
3.040000 1.000000 3.160000 -49.323608 -6.312256 2472.662842
3.040000 1.000000 3.200000 30.404694 14.912003 1146.813232
3.040000 1.040000 2.800000 37.730129 -16.566429 1698.009155
3.040000 1.040000 2.840000 107.480812 -61.351738 15316.160156
3.040000 1.040000 2.880000 221.323334 -19.467667 49363.007812
3.040000 1.040000 2.920000 280.028931 126.176163 94336.625000
3.040000 1.040000 2.960000 206.190948 294.003784 128952.937500
3.040000 1.040000 3.000000 23.989307 365.355347 134060.015625
3.040000 1.040000 3.040000 -152.163406 288.897797 106615.640625
3.040000 1.040000 3.080000 -214.170105 127.036461 62007.093750
3.040000 1.040000 3.120000 -150.568314 -1.338013 22672.607422
3.040000 1.040000 3.160000 -45.514462 -25.190033 2706.104004
3.040000 1.040000 3.200000 6.856575 27.481478 802.244263
3.040000 1.080000 2.800000 35.963837 9.770940 1388.868896
3.040000 1.080000 2.840000 101.641609 10.094666 10432.918945
3.040000 1.080000 2.880000 159.560120 87.852921 33177.566406
3.040000 1.080000 2.920000 135.683456 211.892487 63308.425781
3.040000 1.080000 2.960000 12.703568 294.347900 86802.070312
3.040000 1.080000 3.000000 -142.971344 265.523407 90943.484375
3.040000 1.080000 3.040000 -232.746414 138.705414 73410.085938
3.040000 1.080000 3.080000 -209.577332 0.701607 43923.148438
3.040000 1.080000 3.120000 -114.336121 -63.682472 17128.205078
3.040000 1.080000 3.160000 -32.268456 -40.580326 2688.016113
3.040000 1.080000 3.200000 -15.365835 13.883764 428.867798
3.040000 1.120000 2.800000 17.334707 25.589046 955.291382
3.040000 1.120000 2.840000 51.769592 48.998711 5080.963867
3.040000 1.120000 2.880000 54.683796 111.646370 15455.229492
3.040000 1.120000 2.920000 -3.082916 170.909668 29219.619141
3.040000 1.120000 2.960000 -100.806648 173.265472 40182.906250
3.040000 1.120000 3.000000 -178.993652 103.208565 42690.734375
3.040000 1.120000 3.040000 -188.366074 0.401123 35481.937500
3.040000 1.120000 3.080000 -131.110138 -72.764717 22484.574219
3.040000 1.120000 3.120000 -55.852222 -82.783646 9972.602539
3.040000 1.120000 3.160000 -13.050806 -47.638515 2439.751709
3.040000 1.120000 3.200000 -14.674042 -12.485506 371.215363
3.040000 1.160000 2.800000 -3.074953 23.586586 565.782349
3.040000 1.160000 2.840000 1.341343 39.325043 1548.258179
3.040000 1.160000 2.880000 -14.281761 60.653786 3882.850586
3.040000 1.160000 2.920000 -49.882217 66.722473 6940.124023
3.040000 1.160000 2.960000 -86.983429 44.023636 9504.197266
3.040000 1.160000 3.000000 -102.284439 -0.812439 10462.766602
3.040000 1.160000 3.040000 -86.106781 -45.195610 9457.021484
3.040000 1.160000 3.080000 -49.248108 -67.891052 7034.571289
3.040000 1.160000 3.120000 -13.158794 -63.843647 4249.165039
3.040000 1.160000 3.160000 6.576395 -44.587994 2031.338257
3.040000 1.160000 3.200000 8.982197 -26.303337 772.545410
3.040000 1.200000 2.800000 -12.163425 11.655643 283.802917
3.040000 1.200000 2.840000 -16.034508 5.772518 290.427399
3.040000 1.200000 2.880000 -14.653595 -1.610748 217.322357
3.040000 1.200000 2.920000 -9.359833 -4.553780 108.343376
3.040000 1.200000 2.960000 -6.977963 -1.894661 52.281715
3.040000 1.200000 3.000000 -11.864998 -0.353142 140.902878
3.040000 1.200000 3.040000 -19.046486 -7.929260 425.641785
3.040000 1.200000 3.080000 -17.420097 -23.794960 869.659912
3.040000 1.200000 3.120000 -1.379543 -36.303360 1319.837158
3.040000 1.200000 3.160000 21.225689 -33.159531 1550.084351
3.040000 1.200000 3.200000 34.511410 -14.306260 1395.706421
3.080000 0.800000 2.800000 -6.984305 4.449497 68.578545
3.080000 0.800000 2.840000 -6.168371 2.153683 42.687149
3.080000 0.800000 2.880000 -4.004377 0.898949 16.843147
3.080000 0.800000 2.920000 -1.231670 1.596020 4.064291
3.080000 0.800000 2.960000 0.632095 4.518032 20.812157
3.080000 0.800000 3.000000 0.100197 8.674236 75.252419
3.080000 0.800000 3.040000 -3.224327 12.193287 159.072525
3.080000 0.800000 3.080000 -8.360353 13.485718 251.760086
3.080000 0.800000 3.120000 -13.689104 12.063999 332.931641
3.080000 0.800000 3.160000 -17.910728 8.432159 391.895508
3.080000 0.800000 3.200000 -20.372700 3.413996 426.702271
3.080000 0.840000 2.800000 -15.914629 -5.065556 278.935272
3.080000 0.840000 2.840000 -27.313734 -11.306913 873.886353
3.080000 0.840000 2.880000 -31.528877 -31.804327 2005.585327
3.080000 0.840000 2.920000 -15.467239 -54.599174 3220.305420
3.080000 0.840000 2.960000 17.167862 -59.668266 3855.037598
3.080000 0.840000 3.000000 45.740925 -38.001007 3536.308594
3.080000 0.840000 3.040000 49.798805 -1.984283 2483.858398
3.080000 0.840000 3.080000 27.370745 24.117916 1330.831543
3.080000 0.840000 3.120000 -3.435390 24.836103 628.633911
3.080000 0.840000 3.160000 -20.917334 5.580286 468.674438
3.080000 0.840000 3.200000 -17.987881 -14.722093 540.303833
3.080000 0.880000 2.800000 -13.873007 -22.425856 695.379333
3.080000 0.880000 2.840000 -30.952770 -46.903423 3158.005127
3.080000 0.880000 2.880000 -17.567970 -91.546364 8689.370117
3.080000 0.880000 2.920000 37.926750 -118.580864 15499.859375
3.080000 0.880000 2.960000 106.471497 -93.771317 20129.238281
3.080000 0.880000 3.000000 139.183990 -22.313309 19870.066406
3.080000 0.880000 3.040000 110.897964 50.632259 14861.984375
3.080000 0.880000 3.080000 43.933014 77.884048 7996.034668
3.080000 0.880000 3.120000 -11.842506 50.580166 2698.598145
3.080000 0.880000 3.160000 -23.091545 2.298462 538.502380
3.080000 0.880000 3.200000 1.516139 -25.176838 636.171875
3.080000 0.920000 2.800000 3.708221 -34.923447 1233.397949
3.080000 0.920000 2.840000 0.016619 -80.771729 6524.072754
3.080000 0.920000 2.880000 52.550232 -128.573166 19292.585938
3.080000 0.920000 2.920000 146.059799 -119.997604 35732.890625
3.080000 0.920000 2.960000 215.724869 -33.834641 47682.000000
3.080000 0.920000 3.000000 202.593018 84.604179 48201.796875
3.080000 0.920000 3.040000 109.856407 157.505402 36876.382812
3.080000 0.920000 3.080000 3.129684 142.064377 20192.082031
3.080000 0.920000 3.120000 -47.186287 66.257965 6616.664062
3.080000 0.920000 3.160000 -25.512589 -1.079720 652.057922
3.080000 0.920000 3.200000 23.861595 -14.351011 775.327271
3.080000 0.960000 2.800000 28.014837 -30.044025 1687.474609
3.080000 0.960000 2.840000 53.862495 -81.641800 9566.551758
3.080000 0.960000 2.880000 140.984772 -97.936859 29468.332031
3.080000 0.960000 2.920000 234.472046 -27.307123 55722.820312
3.080000 0.960000 2.960000 251.781586 109.873184 75466.085938
3.080000 0.960000 3.000000 160.513855 227.055725 77319.000000
3.080000 0.960000 3.040000 15.010925 244.467560 59989.714844
3.080000 0.960000 3.080000 -87.915802 160.121307 33368.023438
3.080000 0.960000 3.120000 -92.980194 49.271351 11072.982422
3.080000 0.960000 3.160000 -29.024910 -6.247402 881.475403
3.080000 0.960000 3.200000 28.062166 11.724854 924.957336
3.080000 1.000000 2.800000 42.336327 -7.575980 1849.760010
3.080000 1.000000 2.840000 95.205994 -40.377720 10694.541992
3.080000 1.000000 2.880000 183.930618 -5.539303 33861.156250
3.080000 1.000000 2.920000 228.735962 112.365997 64946.257812
3.080000 1.000000 2.960000 166.184509 247.555878 88901.203125
3.080000 1.000000 3.000000 16.147434 302.968842 92050.859375
3.080000 1.000000 3.040000 -126.858482 237.149048 72332.750000
3.080000 1.000000 3.080000 -174.202911 103.052635 40966.500000
3.080000 1.000000 3.120000 -118.517555 -0.328732 14046.519531
3.080000 1.000000 3.160000 -31.779387 -15.781487 1258.984741
3.080000 1.000000 3.200000 7.954613 30.176193 973.878540
3.080000 1.040000 2.800000 36.143696 18.457680 1647.052612
3.080000 1.040000 2.840000 94.594193 18.451340 9288.513672
3.080000 1.040000 2.880000 147.534271 90.609650 29976.468750
3.080000 1.040000 2.920000 123.809975 206.887726 58131.441406
3.080000 1.040000 2.960000 6.105972 283.332001 80314.304688
3.080000 1.040000 3.000000 -141.511444 253.038208 84053.828125
3.080000 1.040000 3.040000 -223.900482 130.054901 67045.703125
3.080000 1.040000 3.080000 -197.319214 -0.331429 38934.980469
3.080000 1.040000 3.120000 -104.352844 -56.839951 14120.295898
3.080000 1.040000 3.160000 -29.016701 -29.732271 1725.976807
3.080000 1.040000 3.200000 -19.126389 22.672226 879.848572
3.080000 1.080000 2.800000 14.658314 31.131365 1184.028076
3.080000 1.080000 2.840000 54.713745 56.327053 6166.331055
3.080000 1.080000 2.880000 59.224075 128.721100 20076.613281
3.080000 1.080000 2.920000 -8.023422 197.951599 39249.210938
3.080000 1.080000 2.960000 -122.389297 199.362595 54724.585938
3.080000 1.080000 3.000000 -211.685745 115.009071 58037.941406
3.080000 1.080000 3.040000 -217.439362 -5.282127 47307.777344
3.080000 1.080000 3.080000 -145.790207 -85.665771 28593.410156
3.080000 1.080000 3.120000 -58.839474 -89.098038 11400.543945
3.080000 1.080000 3.160000 -16.584976 -43.168289 2138.562744
3.080000 1.080000 3.200000 -27.314774 -5.504149 776.392517
3.080000 1.120000 2.800000 -5.735195 25.132965 664.558411
3.080000 1.120000 2.840000 7.344990 53.763195 2944.430176
3.080000 1.120000 2.880000 -17.002838 95.618019 9431.902344
3.080000 1.120000 2.920000 -80.216591 109.610756 18449.218750
3.080000 1.120000 2.960000 -145.571503 69.057335 25959.978516
3.080000 1.120000 3.000000 -167.275299 -10.655319 28094.560547
3.080000 1.120000 3.040000 -130.348862 -82.521286 23800.589844
3.080000 1.120000 3.080000 -63.001217 -107.437912 15512.058594
3.080000 1.120000 3.120000 -10.288591 -85.082146 7344.826660
3.080000 1.120000 3.160000 4.303207 -48.148495 2336.795166
3.080000 1.120000 3.200000 -7.038418 -28.895912 884.513062
3.080000 1.160000 2.800000 -12.347452 10.508406 262.886169
3.080000 1.160000 2.840000 -15.942947 24.744604 866.472961
3.080000 1.160000 2.880000 -37.129578 33.060429 2471.597656
3.080000 1.160000 2.920000 -65.049278 20.707191 4660.196289
3.080000 1.160000 2.960000 -80.178123 -12.195007 6577.249512
3.080000 1.160000 3.000000 -70.387634 -49.741989 7428.684570
3.080000 1.160000 3.040000 -40.324890 -72.921318 6943.615234
3.080000 1.160000 3.080000 -6.302101 -73.721359 5474.555176
3.080000 1.160000 3.120000 17.064892 -58.451218 3707.755371
3.080000 1.160000 3.160000 25.830662 -39.560406 2232.248779
3.080000 1.160000 3.200000 25.121931 -25.503387 1281.534180
3.080000 1.200000 2.800000 -6.965988 1.980301 52.446579
3.080000 1.200000 2.840000 -10.281840 -0.389065 105.867615
3.080000 1.200000 2.880000 -10.500813 -5.515766 140.690735
3.080000 1.200000 2.920000 -7.529728 -8.855942 135.124512
3.080000 1.200000 2.960000 -5.744003 -9.320114 119.858093
3.080000 1.200000 3.000000 -7.316284 -11.516666 186.161621
3.080000 1.200000 3.040000 -7.409317 -19.737310 444.459412
3.080000 1.200000 3.080000 1.604515 -30.380760 925.565063
3.080000 1.200000 3.120000 20.279720 -32.847466 1490.223022
3.080000 1.200000 3.160000 38.120106 -19.984398 1852.518555
3.080000 1.200000 3.200000 41.857964 2.585691 1758.774902
3.120000 0.800000 2.800000 -21.076324 0.993841 445.199188
3.120000 0.800000 2.840000 -17.417992 -7.239127 355.791412
3.120000 0.800000 2.880000 -8.835899 -10.630249 191.075317
3.120000 0.800000 2.920000 -0.751869 -6.745304 46.064434
3.120000 0.800000 2.960000 1.394215 1.415913 3.948643
3.120000 0.800000 3.000000 -3.200500 7.752419 70.343201
3.120000 0.800000 3.040000 -10.317034 8.260544 174.677765
3.120000 0.800000 3.080000 -14.830944 4.028549 236.186111
3.120000 0.800000 3.120000 -15.167183 -0.781644 230.654404
3.120000 0.800000 3.160000 -13.645553 -3.409985 197.829102
3.120000 0.800000 3.200000 -12.981971 -4.698775 190.610062
3.120000 0.840000 2.800000 -18.105698 -19.717470 716.594910
3.120000 0.840000 2.840000 -14.497339 -29.555264 1083.686523
3.120000 0.840000 2.880000 -2.492577 -38.604813 1496.544434
3.120000 0.840000 2.920000 16.375359 -38.293991 1734.582153
3.120000 0.840000 2.960000 32.430458 -24.119614 1633.490356
3.120000 0.840000 3.000000 34.899036 -1.815071 1221.237183
3.120000 0.840000 3.040000 21.529209 15.646622 708.323608
3.120000 0.840000 3.080000 1.350422 18.264362 335.410583
3.120000 0.840000 3.120000 -12.528904 6.984321 205.754166
3.120000 0.840000 3.160000 -13.401489 -7.932055 242.517395
3.120000 0.840000 3.200000 -5.124141 -16.256140 290.518890
3.120000 0.880000 2.800000 2.683661 -33.567421 1133.973755
3.120000 0.880000 2.840000 9.215666 -47.474297 2338.737305
3.120000 0.880000 2.880000 33.489899 -58.393013 4531.317383
3.120000 0.880000 2.920000 68.258385 -47.222855 6889.205078
3.120000 0.880000 2.960000 89.746384 -9.133564 8137.835449
3.120000 0.880000 3.000000 78.221756 36.820286 7474.376465
3.120000 0.880000 3.040000 37.942715 61.439690 5214.485352
3.120000 0.880000 3.080000 -4.286991 50.577271 2576.438477
3.120000 0.880000 3.120000 -21.750509 17.408764 776.149719
3.120000 0.880000 3.160000 -10.079823 -10.301634 207.726471
3.120000 0.880000 3.200000 12.008686 -15.186615 374.841797
3.120000 0.920000 2.800000 30.120617 -26.789923 1624.951538
3.120000 0.920000 2.840000 44.827442 -42.533463 3818.594971
3.120000 0.920000 2.880000 83.518532 -42.537483 8784.783203
3.120000 0.920000 2.920000 122.207245 -4.615559 14955.914062
3.120000 0.920000 2.960000 124.141312 61.070679 19140.693359
3.120000 0.920000 3.000000 75.819771 114.065109 18759.488281
3.120000 0.920000 3.040000 4.357178 117.709679 13874.553711
3.120000 0.920000 3.080000 -43.634888 72.854881 7211.836914
3.120000 0.920000 3.120000 -42.484459 17.304205 2104.364746
3.120000 0.920000 3.160000 -7.911135 -8.846606 140.848495
3.120000 0.920000 3.200000 21.675060 2.311971 475.153442
3.120000 0.960000 2.800000 44.782196 -0.265834 2005.515747
3.120000 0.960000 2.840000 69.307800 -10.493452 4913.683594
3.120000 0.960000 2.880000 111.380219 12.042165 12550.566406
3.120000 0.960000 2.920000 129.925171 76.699554 22763.373047
3.120000 0.960000 2.960000 90.853546 148.773193 30387.830078
3.120000 0.960000 3.000000 5.244770 175.420898 30800.000000
3.120000 0.960000 3.040000 -74.038177 134.280182 23512.820312
3.120000 0.960000 3.080000 -97.427902 56.253387 12656.639648
3.120000 0.960000 3.120000 -62.014294 -1.705372 3848.680908
3.120000 0.960000 3.160000 -10.638304 -7.422495 168.266937
3.120000 0.960000 3.200000 11.081969 21.983021 606.063232
3.120000 1.000000 2.800000 35.170605 28.925051 2073.629883
3.120000 1.000000 2.840000 63.960838 31.289148 5069.999512
3.120000 1.000000 2.880000 91.103455 74.958572 13918.626953
3.120000 1.000000 2.920000 72.467911 145.163055 26323.910156
3.120000 1.000000 2.960000 -4.083247 190.019547 36124.101562
3.120000 1.000000 3.000000 -98.300224 166.738998 37464.828125
3.120000 1.000000 3.040000 -148.799042 84.599632 29298.251953
3.120000 1.000000 3.080000 -127.657234 -0.096682 16296.378906
3.120000 1.000000 3.120000 -64.424767 -33.947910 5303.011230
3.120000 1.000000 3.160000 -15.956802 -12.226818 404.114624
3.120000 1.000000 3.200000 -13.263500 23.758827 740.402344
3.120000 1.040000 2.800000 8.435537 40.939926 1747.235840
3.120000 1.040000 2.840000 31.596025 56.406647 4180.018555
3.120000 1.040000 2.880000 32.304169 105.281685 12127.792969
3.120000 1.040000 2.920000 -17.797726 152.777649 23657.769531
3.120000 1.040000 2.960000 -102.134064 150.735992 33152.707031
3.120000 1.040000 3.000000 -166.795578 85.061409 35056.210938
3.120000 1.040000 3.040000 -167.459564 -6.139936 28080.404297
3.120000 1.040000 3.080000 -109.978256 -64.416740 16244.733398
3.120000 1.040000 3.120000 -43.915581 -62.444073 5827.840332
3.120000 1.040000 3.160000 -15.771486 -24.491003 848.548950
3.120000 1.040000 3.200000 -29.068853 2.485538 851.176147
3.120000 1.080000 2.800000 -15.272792 30.119514 1140.443359
3.120000 1.080000 2.840000 -4.964426 51.533409 2680.337646
3.120000 1.080000 2.880000 -26.101269 86.399429 8146.137695
3.120000 1.080000 2.920000 -82.383278 97.375877 16269.066406
3.120000 1.080000 2.960000 -140.568558 58.639130 23198.066406
3.120000 1.080000 3.000000 -157.412659 -15.568180 25021.113281
3.120000 1.080000 3.040000 -119.380791 -80.004166 20652.439453
3.120000 1.080000 3.080000 -55.444504 -97.820076 12642.860352
3.120000 1.080000 3.120000 -10.055752 -71.696381 5241.489258
3.120000 1.080000 3.160000 -3.605767 -36.742538 1363.015747
3.120000 1.080000 3.200000 -19.177338 -24.490515 967.555664
3.120000 1.120000 2.800000 -20.458416 9.444533 507.746002
3.120000 1.120000 2.840000 -22.757374 26.994328 1246.591797
3.120000 1.120000 2.880000 -49.142082 39.254326 3955.846436
3.120000 1.120000 2.920000 -86.312309 23.683075 8010.703125
3.120000 1.120000 2.960000 -105.536407 -20.993088 11578.643555
3.120000 1.120000 3.000000 -88.410187 -70.545738 12793.062500
3.120000 1.120000 3.040000 -44.036736 -95.521584 11063.607422
3.120000 1.120000 3.080000 -0.612343 -86.390274 7463.654297
3.120000 1.120000 3.120000 19.704161 -59.190834 3891.808838
3.120000 1.120000 3.160000 17.667994 -37.842827 1744.237549
3.120000 1.120000 3.200000 10.637590 -32.303307 1156.661987
3.120000 1.160000 2.800000 -9.550694 -2.113592 95.683014
3.120000 1.160000 2.840000 -17.903049 5.488037 350.637726
3.120000 1.160000 2.880000 -34.110447 1.384453 1165.439331
3.120000 1.160000 2.920000 -44.830677 -17.664013 2321.806885
3.120000 1.160000 2.960000 -39.445656 -42.362297 3350.523926
3.120000 1.160000 3.000000 -19.063316 -58.904701 3833.173828
3.120000 1.160000 3.040000 5.611099 -60.264565 3663.302002
3.120000 1.160000 3.080000 24.090157 -49.862373 3066.592041
3.120000 1.160000 3.120000 33.290146 -35.768532 2387.621582
3.120000 1.160000 3.160000 36.160568 -23.068054 1839.721802
3.120000 1.160000 3.200000 35.736919 -12.183673 1425.569336
3.120000 1.200000 2.800000 0.989686 2.576794 7.619344
3.120000 1.200000 2.840000 -5.709011 0.401564 32.754063
3.120000 1.200000 2.880000 -7.415544 -6.872713 102.224472
3.120000 1.200000 2.920000 -3.180546 -12.624628 169.497116
3.120000 1.200000 2.960000 2.067551 -13.959036 199.129440
3.120000 1.200000 3.000000 4.886993 -14.316150 228.834854
3.120000 1.200000 3.040000 8.281300 -17.447083 372.980621
3.120000 1.200000 3.080000 17.485926 -20.479698 725.175659
3.120000 1.200000 3.120000 31.327713 -15.572828 1223.938599
3.120000 1.200000 3.160000 40.288155 0.490356 1623.375854
3.120000 1.200000 3.200000 35.342075 19.923429 1646.005371
3.160000 0.800000 2.800000 -26.438414 -12.549911 856.489929
3.160000 0.800000 2.840000 -16.261103 -21.517618 727.431396
3.160000 0.800000 2.880000 -2.511524 -20.612070 431.165161
3.160000 0.800000 2.920000 5.640243 -10.523133 142.548676
3.160000 0.800000 2.960000 3.370585 0.721525 11.881441
3.160000 0.800000 3.000000 -5.531644 4.747192 53.134918
3.160000 0.800000 3.040000 -12.464036 0.141125 155.372101
3.160000 0.800000 3.080000 -12.076564 -7.094995 196.182343
3.160000 0.800000 3.120000 -6.556897 -10.052928 144.054260
3.160000 0.800000 3.160000 -2.230863 -7.475568 60.860863
3.160000 0.800000 3.200000 -2.624932 -3.907418 22.158180
3.160000 0.840000 2.800000 -7.562067 -30.607796 994.022034
3.160000 0.840000 2.840000 5.835535 -31.305298 1014.075134
3.160000 0.840000 2.880000 17.780544 -23.559059 871.177063
3.160000 0.840000 2.920000 22.500971 -10.110304 608.511963
3.160000 0.840000 2.960000 17.865410 2.531071 325.579193
3.160000 0.840000 3.000000 7.271730 8.259995 121.105576
3.160000 0.840000 3.040000 -2.636911 5.563576 37.906677
3.160000 0.840000 3.080000 -6.730181 -1.829407 48.642063
3.160000 0.840000 3.120000 -4.596203 -8.275915 89.615845
3.160000 0.840000 3.160000 0.243431 -10.488854 110.075325
3.160000 0.840000 3.200000 3.928268 -9.150305 99.159370
3.160000 0.880000 2.800000 21.972448 -27.702730 1250.229736
3.160000 0.880000 2.840000 31.748726 -20.491116 1427.867432
3.160000 0.880000 2.880000 38.677826 -8.587379 1569.717285
3.160000 0.880000 2.920000 39.121601 7.180608 1582.060791
3.160000 0.880000 2.960000 29.962828 21.927458 1378.584473
3.160000 0.880000 3.000000 13.137383 28.321291 974.686340
3.160000 0.880000 3.040000 -3.333092 22.386747 512.275940
3.160000 0.880000 3.080000 -10.467970 8.029117 174.045105
3.160000 0.880000 3.120000 -5.565048 -5.009071 56.060555
3.160000 0.880000 3.160000 5.412010 -8.785334 106.471947
3.160000 0.880000 3.200000 13.103725 -3.471500 183.758942
3.160000 0.920000 2.800000 40.739086 -1.293062 1661.345093
3.160000 0.920000 2.840000 42.857208 8.536903 1909.619141
3.160000 0.920000 2.880000 44.077705 21.119614 2388.882324
3.160000 0.920000 2.920000 38.785492 37.888710 2939.868652
3.160000 0.920000 2.960000 21.592888 51.953552 3165.424316
3.160000 0.920000 3.000000 -3.530251 52.389282 2757.099609
3.160000 0.920000 3.040000 -23.094059 35.610683 1801.456299
3.160000 0.920000 3.080000 -25.097639 11.469707 761.445679
3.160000 0.920000 3.120000 -10.633324 -3.818539 127.648811
3.160000 0.920000 3.160000 6.395024 -1.954906 44.717991
3.160000 0.920000 3.200000 12.044300 10.263843 250.411636
3.160000 0.960000 2.800000 32.915428 31.649147 2085.093994
3.160000 0.960000 2.840000 28.867289 38.076298 2283.124756
3.160000 0.960000 2.880000 25.567333 48.817322 3036.819336
3.160000 0.960000 2.920000 13.319634 63.550827 4216.120117
3.160000 0.960000 2.960000 -12.100951 70.340668 5094.242676
3.160000 0.960000 3.000000 -40.158806 57.392143 4906.587891
3.160000 0.960000 3.040000 -52.637497 27.726986 3539.491699
3.160000 0.960000 3.080000 -41.212997 -0.221767 1698.560303
3.160000 0.960000 3.120000 -16.946548 -8.649648 362.001923
3.160000 0.960000 3.160000 -0.577687 2.896752 8.724896
3.160000 0.960000 3.200000 -2.886127 17.771719 324.163696
3.160000 1.000000 2.800000 3.087665 47.353645 2251.901367
3.160000 1.000000 2.840000 -1.986792 48.280342 2334.938721
3.160000 1.000000 2.880000 -8.156013 56.108078 3214.636963
3.160000 1.000000 2.920000 -26.163803 64.439064 4836.937500
3.160000 1.000000 2.960000 -53.776733 58.165764 6275.193359
3.160000 1.000000 3.000000 -73.793259 31.111729 6413.384277
3.160000 1.000000 3.040000 -70.031540 -3.704457 4918.139648
3.160000 1.000000 3.080000 -44.818390 -24.081280 2588.596191
3.160000 1.000000 3.120000 -18.469694 -19.690908 728.861450
3.160000 1.000000 3.160000 -10.112872 -1.989805 106.229507
3.160000 1.000000 3.200000 -19.588289 7.865315 445.564270
3.160000 1.040000 2.800000 -26.418465 35.563568 1962.702637
3.160000 1.040000 2.840000 -28.635452 33.822994 1963.984131
3.160000 1.040000 2.880000 -36.520741 38.415886 2809.544922
3.160000 1.040000 2.920000 -55.727257 37.250999 4493.164062
3.160000 1.040000 2.960000 -75.931900 18.469961 6106.792969
3.160000 1.040000 3.000000 -79.343544 -13.984638 6490.968262
3.160000 1.040000 3.040000 -59.451271 -41.027023 5217.670410
3.160000 1.040000 3.080000 -29.492512 -46.099949 2995.013672
3.160000 1.040000 3.120000 -10.554323 -31.493065 1103.206787
3.160000 1.040000 3.160000 -11.292917 -15.639994 372.139404
3.160000 1.040000 3.200000 -20.670010 -14.058104 624.879578
3.160000 1.080000 2.800000 -34.668533 8.613241 1276.095215
3.160000 1.080000 2.840000 -34.818523 8.353935 1282.117798
3.160000 1.080000 2.880000 -43.569164 9.187867 1982.688965
3.160000 1.080000 2.920000 -57.903152 -0.677959 3353.234863
3.160000 1.080000 2.960000 -64.135666 -24.086245 4693.530762
3.160000 1.080000 3.000000 -51.893742 -49.299332 5123.384766
3.160000 1.080000 3.040000 -25.974510 -60.231300 4302.484863
3.160000 1.080000 3.080000 -2.777817 -52.160469 2728.430908
3.160000 1.080000 3.120000 5.370820 -36.057182 1328.966064
3.160000 1.080000 3.160000 1.421294 -26.941938 727.888123
3.160000 1.080000 3.200000 -1.351986 -28.818060 832.308472
3.160000 1.120000 2.800000 -20.346245 -9.993973 513.849182
3.160000 1.120000 2.840000 -22.513721 -8.135363 573.051758
3.160000 1.120000 2.880000 -30.611076 -11.842118 1077.273804
3.160000 1.120000 2.920000 -35.932652 -25.600142 1946.522705
3.160000 1.120000 2.960000 -29.472746 -43.474979 2758.716553
3.160000 1.120000 3.000000 -11.524769 -54.030876 3052.156006
3.160000 1.120000 3.040000 8.115519 -51.219917 2689.341553
3.160000 1.120000 3.080000 19.549755 -39.666527 1955.626221
3.160000 1.120000 3.120000 21.632034 -29.051315 1311.923828
3.160000 1.120000 3.160000 21.098801 -24.143087 1028.048096
3.160000 1.120000 3.200000 23.818550 -21.315319 1021.666138
3.160000 1.160000 2.800000 -1.762966 -7.183306 54.707932
3.160000 1.160000 2.840000 -8.288894 -7.292338 121.883957
3.160000 1.160000 2.880000 -13.040155 -15.452824 408.835419
3.160000 1.160000 2.920000 -9.463736 -26.889004 812.580811
3.160000 1.160000 2.960000 1.847242 -33.606148 1132.785522
3.160000 1.160000 3.000000 14.311131 -32.098080 1235.095215
3.160000 1.160000 3.040000 22.403883 -25.622927 1158.468262
3.160000 1.160000 3.080000 26.365456 -19.197533 1063.682495
3.160000 1.160000 3.120000 29.713154 -13.766184 1072.379395
3.160000 1.160000 3.160000 33.294846 -6.400316 1149.510742
3.160000 1.160000 3.200000 33.588383 4.216229 1145.956055
3.160000 1.200000 2.800000 1.442921 8.451636 73.512177
3.160000 1.200000 2.840000 -6.315811 1.552816 42.300709
3.160000 1.200000 2.880000 -4.852557 -8.726329 99.696129
3.160000 1.200000 2.920000 3.721708 -13.537321 197.110168
3.160000 1.200000 2.960000 11.453594 -10.891804 249.816193
3.160000 1.200000 3.000000 13.988912 -6.407749 236.748901
3.160000 1.200000 3.040000 14.838605 -5.167519 246.887436
3.160000 1.200000 3.080000 19.507528 -4.855104 404.115723
3.160000 1.200000 3.120000 26.900208 1.202974 725.068298
3.160000 1.200000 3.160000 28.981285 14.571039 1052.229980
3.160000 1.200000 3.200000 19.941332 27.510693 1154.494873
3.200000 0.800000 2.800000 -19.643677 -24.910463 1006.405212
3.200000 0.800000 2.840000 -5.303781 -29.084337 874.028748
3.200000 0.800000 2.880000 7.841171 -21.853752 539.070435
3.200000 0.800000 2.920000 11.236822 -8.471083 198.025421
3.200000 0.800000 2.960000 4.306241 0.954487 19.454758
3.200000 0.800000 3.000000 -5.055286 0.437099 25.746977
3.200000 0.800000 3.040000 -7.949057 -6.776774 109.112167
3.200000 0.800000 3.080000 -2.603148 -11.949108 149.557571
3.200000 0.800000 3.120000 4.778296 -9.515197 113.371086
3.200000 0.800000 3.160000 6.825439 -1.951186 50.393745
3.200000 0.800000 3.200000 2.233493 3.580531 17.808689
3.200000 0.840000 2.800000 6.667754 -29.689526 925.926880
3.200000 0.840000 2.840000 17.664795 -19.285212 683.964355
3.200000 0.840000 2.880000 17.969294 -4.499311 343.139313
3.200000 0.840000 2.920000 8.115940 4.890736 89.787781
3.200000 0.840000 2.960000 -3.814334 3.425104 26.280485
3.200000 0.840000 3.000000 -8.908983 -5.787632 112.866669
3.200000 0.840000 3.040000 -4.600732 -14.219563 223.362686
3.200000 0.840000 3.080000 4.071439 -15.411860 254.102036
3.200000 0.840000 3.120000 9.768845 -9.812693 191.719269
3.200000 0.840000 3.160000 9.253036 -3.021291 94.746880
3.200000 0.840000 3.200000 5.124723 0.033988 26.263947
3.200000 0.880000 2.800000 29.199406 -10.386364 960.481812
3.200000 0.880000 2.840000 24.953493 7.280630 675.684387
3.200000 0.880000 2.880000 9.719200 16.114010 354.124176
3.200000 0.880000 2.920000 -5.912045 11.218165 160.799515
3.200000 0.880000 2.960000 -11.921995 -2.340907 147.613815
3.200000 0.880000 3.000000 -6.226955 -14.303027 243.351562
3.200000 0.880000 3.040000 5.076830 -17.455219 330.458893
3.200000 0.880000 3.080000 13.745867 -12.089005 335.092896
3.200000 0.880000 3.120000 15.716465 -3.820183 261.601074
3.200000 0.880000 3.160000 12.563505 1.989512 161.799820
3.200000 0.880000 3.200000 8.310148 3.799637 83.495804
3.200000 0.920000 2.800000 28.540630 21.649567 1283.271240
3.200000 0.920000 2.840000 7.550573 31.530615 1051.190796
3.200000 0.920000 2.880000 -13.510269 23.295275 725.197144
3.200000 0.920000 2.920000 -21.365860 3.697752 470.173340
3.200000 0.920000 2.960000 -13.285908 -13.528287 359.529907
3.200000 0.920000 3.000000 2.532044 -18.699314 356.075592
3.200000 0.920000 3.040000 15.043818 -12.105551 372.860809
3.200000 0.920000 3.080000 18.650412 -1.054591 348.950012
3.200000 0.920000 3.120000 15.001126 7.370895 279.363892
3.200000 0.920000 3.160000 8.906626 10.690838 193.621994
3.200000 0.920000 3.200000 3.859925 10.179882 118.529022
3.200000 0.960000 2.800000 2.398878 42.513184 1813.125366
3.200000 0.960000 2.840000 -23.782051 33.811806 1708.824097
3.200000 0.960000 2.880000 -35.407116 9.456890 1343.096558
3.200000 0.960000 2.920000 -26.615372 -14.085130 906.768860
3.200000 0.960000 2.960000 -6.090674 -23.039936 567.934998
3.200000 0.960000 3.000000 11.675251 -15.808417 386.217529
3.200000 0.960000 3.040000 17.814215 -1.187869 318.757294
3.200000 0.960000 3.080000 13.270264 10.658964 289.713409
3.200000 0.960000 3.120000 4.498189 15.216905 251.787888
3.200000 0.960000 3.160000 -2.967368 13.705229 196.638565
3.200000 0.960000 3.200000 -6.940410 9.212416 133.037903
3.200000 1.000000 2.800000 -30.403278 35.812096 2206.865479
3.200000 1.000000 2.840000 -46.068089 11.254847 2248.940430
3.200000 1.000000 2.880000 -39.783615 -16.548569 1856.591187
3.200000 1.000000 2.920000 -17.419415 -30.609428 1240.373169
3.200000 1.000000 2.960000 5.288488 -25.371727 671.692627
3.200000 1.000000 3.000000 15.652051 -8.613525 319.179504
3.200000 1.000000 3.040000 11.883837 7.050127 190.929855
3.200000 1.000000 3.080000 0.888121 13.829325 192.038986
3.200000 1.000000 3.120000 -9.227230 11.652921 220.932343
3.200000 1.000000 3.160000 -14.173933 4.729903 223.272354
3.200000 1.000000 3.200000 -13.404209 -2.624822 186.562515
3.200000 1.040000 2.800000 -45.279362 7.607099 2108.088623
3.200000 1.040000 2.840000 -43.543480 -18.971434 2255.949951
3.200000 1.040000 2.880000 -24.254780 -36.486984 1919.594482
3.200000 1.040000 2.920000 -0.219525 -35.784454 1280.575439
3.200000 1.040000 2.960000 14.440235 -20.646435 634.795654
3.200000 1.040000 3.000000 14.153035 -2.933802 208.915604
3.200000 1.040000 3.040000 3.515392 6.979245 61.067837
3.200000 1.040000 3.080000 -8.444605 6.118200 108.743713
3.200000 1.040000 3.120000 -14.837523 -1.914328 223.816757
3.200000 1.040000 3.160000 -13.563429 -11.163279 308.585388
3.200000 1.040000 3.200000 -6.398980 -16.639484 317.819397
3.200000 1.080000 2.800000 -33.433376 -18.574675 1462.809204
3.200000 1.080000 2.840000 -21.239576 -34.533783 1643.701782
3.200000 1.080000 2.880000 -1.861411 -38.206543 1463.204712
3.200000 1.080000 2.920000 13.746605 -28.744137 1015.194580
3.200000 1.080000 2.960000 18.138149 -13.328067 506.629822
3.200000 1.080000 3.000000 11.573000 -1.478348 136.119843
3.200000 1.080000 3.040000 0.510951 1.059979 1.384626
3.200000 1.080000 3.080000 -7.250477 -5.125600 78.841187
3.200000 1.080000 3.120000 -7.073612 -14.608797 263.452942
3.200000 1.080000 3.160000 0.556510 -20.750082 430.875610
3.200000 1.080000 3.200000 10.851280 -19.343536 491.922668
3.200000 1.120000 2.800000 -9.276755 -22.978970 614.091187
3.200000 1.120000 2.840000 0.315796 -27.510715 756.939209
3.200000 1.120000 2.880000 10.976257 -25.329735 762.073669
3.200000 1.120000 2.920000 17.823103 -17.282808 616.358459
3.200000 1.120000 2.960000 17.749668 -7.589768 372.655304
3.200000 1.120000 3.000000 11.630399 -1.759278 138.361237
3.200000 1.120000 3.040000 4.423244 -3.085975 29.088335
3.200000 1.120000 3.080000 2.221299 -9.848384 101.924835
3.200000 1.120000 3.120000 7.677294 -15.890022 311.433655
3.200000 1.120000 3.160000 17.425028 -15.033176 529.627991
3.200000 1.120000 3.200000 24.248848 -6.140529 625.712769
3.200000 1.160000 2.800000 3.710381 -7.197053 65.564499
3.200000 1.160000 2.840000 4.361139 -10.257013 124.225861
3.200000 1.160000 2.880000 8.739546 -12.377877 229.591492
3.200000 1.160000 2.920000 14.306866 -10.105527 306.808075
3.200000 1.160000 2.960000 16.335941 -4.282331 285.201355
3.200000 1.160000 3.000000 13.355782 0.060468 178.380569
3.200000 1.160000 3.040000 9.544678 -0.922386 91.951668
3.200000 1.160000 3.080000 10.647650 -4.989761 138.270157
3.200000 1.160000 3.120000 17.314955 -5.450528 329.515900
3.200000 1.160000 3.160000 23.439793 1.771500 552.562073
3.200000 1.160000 3.200000 21.960392 13.142824 654.992676
3.200000 1.200000 2.800000 -4.751656 8.700846 98.282951
3.200000 1.200000 2.840000 -7.284910 -2.265594 58.202827
3.200000 1.200000 2.880000 0.120714 -10.568995 111.718239
3.200000 1.200000 2.920000 10.533520 -9.575497 202.645172
3.200000 1.200000 2.960000 15.284728 -1.952905 237.436752
3.200000 1.200000 3.000000 12.945175 4.118489 184.539520
3.200000 1.200000 3.040000 9.761967 4.489881 115.455025
3.200000 1.200000 3.080000 11.343366 3.293227 139.517303
3.200000 1.200000 3.120000 15.523680 7.132298 291.854309
3.200000 1.200000 3.160000 14.871133 16.225466 484.416321
3.200000 1.200000 3.200000 5.953870 23.195877 573.497253
