#kx 	ky 	kz 	real 	imag 	intensity
3.800000 3.800000 7.800000 -11.895116 -9.978716 241.068542
3.800000 3.800000 7.840000 -10.353905 -6.626505 151.113922
3.800000 3.800000 7.880000 -12.959810 -8.065756 233.013092
3.800000 3.800000 7.920000 -11.797441 -15.247858 371.676758
3.800000 3.800000 7.960000 -2.441590 -21.159065 453.667419
3.800000 3.800000 8.000000 10.712707 -18.184010 445.420288
3.800000 3.800000 8.040000 18.534891 -6.286927 383.067627
3.800000 3.800000 8.080000 16.192547 6.830860 308.859222
3.800000 3.800000 8.120000 7.409335 13.493151 236.963348
3.800000 3.800000 8.160000 -0.399005 13.072819 171.057800
3.800000 3.800000 8.200000 -4.125584 10.693597 131.373459
3.800000 3.840000 7.800000 -4.637026 -16.570778 296.092682
3.800000 3.840000 7.840000 -6.489024 -11.056080 164.344330
3.800000 3.840000 7.880000 -10.080008 -13.560012 285.480469
3.800000 3.840000 7.920000 -6.836709 -19.993748 446.490540
3.800000 3.840000 7.960000 2.952858 -21.159443 456.441376
3.800000 3.840000 8.000000 10.844261 -13.549119 301.176636
3.800000 3.840000 8.040000 10.078737 -3.263400 112.230728
3.800000 3.840000 8.080000 3.179451 1.140382 11.409379
3.800000 3.840000 8.120000 -1.362700 -1.553863 4.271439
3.800000 3.840000 8.160000 0.631134 -4.248696 18.449751
3.800000 3.840000 8.200000 3.940481 -0.634552 15.930049
3.800000 3.880000 7.800000 6.187884 -19.139008 404.591522
3.800000 3.880000 7.840000 1.330745 -14.385501 208.713516
3.800000 3.880000 7.880000 -1.644814 -17.710308 316.360413
3.800000 3.880000 7.920000 2.273892 -21.702587 476.172882
3.800000 3.880000 7.960000 8.588577 -19.901432 469.830627
3.800000 3.880000 8.000000 10.406911 -14.358333 314.465515
3.800000 3.880000 8.040000 7.741816 -12.012956 204.246826
3.800000 3.880000 8.080000 7.526772 -14.809824 275.983185
3.800000 3.880000 8.120000 14.133580 -15.999098 455.729218
3.800000 3.880000 8.160000 21.971926 -7.976248 546.386047
3.800000 3.880000 8.200000 20.054247 6.983611 450.943634
3.800000 3.920000 7.800000 18.676826 -14.743011 566.180237
3.800000 3.920000 7.840000 12.487881 -11.491375 287.998840
3.800000 3.920000 7.880000 9.989742 -14.302716 304.362640
3.800000 3.920000 7.920000 12.164833 -16.527868 421.153625
3.800000 3.920000 7.960000 14.689083 -16.155113 476.756836
3.800000 3.920000 8.000000 16.052095 -16.463970 528.732056
3.800000 3.920000 8.040000 20.287701 -18.702436 761.371948
3.800000 3.920000 8.080000 30.343435 -17.267181 1218.879639
3.800000 3.920000 8.120000 40.541195 -5.085972 1669.455566
3.800000 3.920000 8.160000 39.049961 15.900248 1777.717285
3.800000 3.920000 8.200000 20.053274 32.064133 1430.242432
3.800000 3.960000 7.800000 27.515675 -1.877872 760.638794
3.800000 3.960000 7.840000 20.306520 0.548218 412.655304
3.800000 3.960000 7.880000 16.594730 -1.902484 279.004517
3.800000 3.960000 7.920000 16.489738 -5.287661 299.870819
3.800000 3.960000 7.960000 19.189089 -8.844399 446.444519
3.800000 3.960000 8.000000 26.341187 -11.547890 827.211853
3.800000 3.960000 8.040000 38.525738 -8.288595 1552.933228
3.800000 3.960000 8.080000 49.460075 6.670677 2490.797119
3.800000 3.960000 8.120000 47.449291 30.998692 3212.354248
3.800000 3.960000 8.160000 25.941599 50.954811 3269.359375
3.800000 3.960000 8.200000 -6.743867 50.401711 2585.812256
3.800000 4.000000 7.800000 26.449348 15.806050 949.399292
3.800000 4.000000 7.840000 17.049660 16.922729 577.069702
3.800000 4.000000 7.880000 11.516671 12.357342 285.337585
3.800000 4.000000 7.920000 11.933395 5.536203 173.055481
3.800000 4.000000 7.960000 19.402414 0.541348 376.746735
3.800000 4.000000 8.000000 32.341854 3.307506 1056.935059
3.800000 4.000000 8.040000 43.302124 18.586132 2220.518311
3.800000 4.000000 8.080000 40.829453 43.265709 3538.965820
3.800000 4.000000 8.120000 18.556480 63.826607 4418.178711
3.800000 4.000000 8.160000 -15.972576 64.105820 4364.679199
3.800000 4.000000 8.200000 -43.107300 39.047607 3382.955078
3.800000 4.040000 7.800000 13.666449 30.055449 1090.101807
3.800000 4.040000 7.840000 1.908586 27.241650 745.750183
3.800000 4.040000 7.880000 -2.882354 18.062546 334.563507
3.800000 4.040000 7.920000 2.211173 9.209631 89.706581
3.800000 4.040000 7.960000 14.802191 8.746696 295.609558
3.800000 4.040000 8.000000 26.030392 21.671614 1147.240112
3.800000 4.040000 8.040000 24.124792 44.279373 2542.668457
3.800000 4.040000 8.080000 3.087718 63.135674 3995.647217
3.800000 4.040000 8.120000 -29.824556 62.797054 4832.974121
3.800000 4.040000 8.160000 -56.132668 38.217850 4611.480469
3.800000 4.040000 8.200000 -58.703949 1.163759 3447.507812
3.800000 4.080000 7.800000 -5.623984 33.533920 1156.152954
3.800000 4.080000 7.840000 -16.839287 24.156807 867.112915
3.800000 4.080000 7.880000 -16.382893 11.109091 391.811066
3.800000 4.080000 7.920000 -5.116925 5.187676 53.094906
3.800000 4.080000 7.960000 7.260648 13.488464 234.655685
3.800000 4.080000 8.000000 7.684942 32.743141 1131.171631
3.800000 4.080000 8.040000 -10.294529 49.299713 2536.438965
3.800000 4.080000 8.080000 -39.489281 48.015217 3864.864258
3.800000 4.080000 8.120000 -62.169132 24.442965 4462.459473
3.800000 4.080000 8.160000 -62.641785 -9.908228 4022.166260
3.800000 4.080000 8.200000 -39.684238 -34.932682 2795.130859
3.800000 4.120000 7.800000 -22.666056 25.215233 1149.558105
3.800000 4.120000 7.840000 -28.449808 9.713515 903.743958
3.800000 4.120000 7.880000 -20.058935 -2.577527 409.004517
3.800000 4.120000 7.920000 -6.013821 -0.789950 36.790062
3.800000 4.120000 7.960000 -1.173484 14.440598 209.907913
3.800000 4.120000 8.000000 -14.285545 29.666998 1084.207520
3.800000 4.120000 8.040000 -39.134789 28.778479 2359.732422
3.800000 4.120000 8.080000 -57.958668 6.914678 3407.020020
3.800000 4.120000 8.120000 -55.483273 -24.124613 3660.390625
3.800000 4.120000 8.160000 -31.764139 -44.554157 2994.033447
3.800000 4.120000 8.200000 -2.480392 -42.311565 1796.420898
3.800000 4.160000 7.800000 -31.551874 10.259399 1100.776001
3.800000 4.160000 7.840000 -28.420626 -7.131832 858.595032
3.800000 4.160000 7.880000 -13.919114 -13.213842 368.347382
3.800000 4.160000 7.920000 -3.325370 -3.279672 21.814335
3.800000 4.160000 7.960000 -9.427750 11.599264 223.425385
3.800000 4.160000 8.000000 -29.493797 13.696809 1057.486694
3.800000 4.160000 8.040000 -46.148540 -4.687147 2151.656982
3.800000 4.160000 8.080000 -42.557686 -32.776501 2885.455566
3.800000 4.160000 8.120000 -18.155375 -49.863129 2815.949219
3.800000 4.160000 8.160000 10.099964 -43.476452 1992.211182
3.800000 4.160000 8.200000 22.366905 -20.320765 913.211914
3.800000 4.200000 7.800000 -32.162746 -5.139620 1060.857910
3.800000 4.200000 7.840000 -20.511471 -18.935631 779.278564
3.800000 4.200000 7.880000 -5.066007 -16.490705 297.607788
3.800000 4.200000 7.920000 -2.260040 -2.905320 13.548666
3.800000 4.200000 7.960000 -15.839485 4.211364 268.624878
3.800000 4.200000 8.000000 -31.552839 -7.690965 1054.732544
3.800000 4.200000 8.040000 -30.332748 -32.193539 1956.499512
3.800000 4.200000 8.080000 -7.620365 -48.529839 2413.215332
3.800000 4.200000 8.120000 20.662268 -41.181118 2122.813721
3.800000 4.200000 8.160000 32.200562 -15.339516 1272.177002
3.800000 4.200000 8.200000 19.061558 7.148705 414.446960
3.840000 3.800000 7.800000 -10.639901 -8.420612 184.114212
3.840000 3.800000 7.840000 -9.562266 -6.125762 128.961884
3.840000 3.800000 7.880000 -11.098166 -8.106208 188.879883
3.840000 3.800000 7.920000 -8.823844 -14.328094 283.154510
3.840000 3.800000 7.960000 0.354195 -18.725967 350.787323
3.840000 3.800000 8.000000 12.507210 -15.115049 384.895020
3.840000 3.800000 8.040000 19.919891 -3.330891 407.896881
3.840000 3.800000 8.080000 17.870186 10.449215 428.529633
3.840000 3.800000 8.120000 8.225745 19.071426 431.382202
3.840000 3.800000 8.160000 -3.108372 19.782473 401.008209
3.840000 3.800000 8.200000 -11.352123 14.639986 343.199890
3.840000 3.840000 7.800000 0.230486 -14.925128 222.812576
3.840000 3.840000 7.840000 1.326943 -9.483019 91.688431
3.840000 3.840000 7.880000 0.108799 -7.395373 54.703384
3.840000 3.840000 7.920000 0.165857 -7.634946 58.319904
3.840000 3.840000 7.960000 2.026677 -7.443077 59.506813
3.840000 3.840000 8.000000 3.945553 -5.687328 47.913094
3.840000 3.840000 8.040000 4.770983 -3.304897 33.684624
3.840000 3.840000 8.080000 5.021938 -1.106287 26.443735
3.840000 3.840000 8.120000 5.115149 1.583903 28.673494
3.840000 3.840000 8.160000 3.674466 5.355196 42.179825
3.840000 3.840000 8.200000 -1.117686 8.297163 70.092133
3.840000 3.880000 7.800000 15.219295 -12.355815 384.293091
3.840000 3.880000 7.840000 14.466817 -2.269554 214.439667
3.840000 3.880000 7.880000 8.432432 4.879487 94.915306
3.840000 3.880000 7.920000 -0.687258 6.341260 40.683903
3.840000 3.880000 7.960000 -8.523190 0.482113 72.877190
3.840000 3.880000 8.000000 -9.346842 -10.521585 198.067200
3.840000 3.880000 8.040000 -0.256144 -19.588726 383.783813
3.840000 3.880000 8.080000 14.549996 -18.638161 559.083435
3.840000 3.880000 8.120000 24.835390 -5.609854 648.267090
3.840000 3.880000 8.160000 21.794218 11.913471 616.918762
3.840000 3.880000 8.200000 6.159952 21.369823 494.614349
3.840000 3.920000 7.800000 26.022789 1.799177 680.422607
3.840000 3.920000 7.840000 18.947329 15.696146 605.370239
3.840000 3.920000 7.880000 3.097902 22.436325 512.985657
3.840000 3.920000 7.920000 -14.891501 15.375753 458.170593
3.840000 3.920000 7.960000 -22.801346 -5.018552 545.087219
3.840000 3.920000 8.000000 -11.390754 -27.023008 859.992249
3.840000 3.920000 8.040000 15.545859 -33.687431 1376.516724
3.840000 3.920000 8.080000 40.521496 -16.532576 1915.317627
3.840000 3.920000 8.120000 44.598106 15.167767 2219.052246
3.840000 3.920000 8.160000 23.305300 39.653168 2115.510742
3.840000 3.920000 8.200000 -8.429676 39.685249 1645.978516
3.840000 3.960000 7.800000 23.781096 21.773491 1039.625488
3.840000 3.960000 7.840000 7.100848 33.805859 1193.258057
3.840000 3.960000 7.880000 -16.618124 30.930698 1232.870117
3.840000 3.960000 7.920000 -33.125267 8.930134 1177.030640
3.840000 3.960000 7.960000 -26.962061 -21.812515 1202.738525
3.840000 3.960000 8.000000 3.715290 -39.259689 1555.126587
3.840000 3.960000 8.040000 40.441452 -26.298237 2327.108398
3.840000 3.960000 8.080000 55.920296 12.542887 3284.403564
3.840000 3.960000 8.120000 36.244236 51.252781 3940.492188
3.840000 3.960000 8.160000 -5.918710 61.995499 3878.472900
3.840000 3.960000 8.200000 -40.466843 37.952751 3077.976562
3.840000 4.000000 7.800000 7.166128 35.712681 1326.749023
3.840000 4.000000 7.840000 -16.435642 38.106003 1722.197876
3.840000 4.000000 7.880000 -38.079433 20.843563 1884.497314
3.840000 4.000000 7.920000 -40.415279 -10.826683 1750.611816
3.840000 4.000000 7.960000 -15.156886 -36.352264 1551.218384
3.840000 4.000000 8.000000 24.756634 -33.322250 1723.263184
3.840000 4.000000 8.040000 50.468544 2.129261 2551.607666
3.840000 4.000000 8.080000 39.529728 47.572765 3825.767334
3.840000 4.000000 8.120000 -3.525164 69.704468 4871.139648
3.840000 4.000000 8.160000 -48.513363 51.533890 5009.288086
3.840000 4.000000 8.200000 -63.565613 6.987984 4089.419189
3.840000 4.040000 7.800000 -14.963693 34.647560 1424.365479
3.840000 4.040000 7.840000 -36.790817 23.856544 1922.698975
3.840000 4.040000 7.880000 -45.492180 -2.542963 2076.004883
3.840000 4.040000 7.920000 -30.010490 -29.625475 1778.298340
3.840000 4.040000 7.960000 4.024170 -35.956390 1309.056030
3.840000 4.040000 8.000000 33.201557 -11.466625 1233.826904
3.840000 4.040000 8.040000 32.738503 29.965460 1969.738281
3.840000 4.040000 8.080000 -1.627222 57.863411 3350.822266
3.840000 4.040000 8.120000 -46.925613 49.247597 4627.338867
3.840000 4.040000 8.160000 -70.032021 8.791073 4981.766602
3.840000 4.040000 8.200000 -54.762135 -34.088615 4160.924805
3.840000 4.080000 7.800000 -30.196394 19.945908 1309.661377
3.840000 4.080000 7.840000 -41.370586 0.352023 1711.649292
3.840000 4.080000 7.880000 -34.264290 -23.132181 1709.139282
3.840000 4.080000 7.920000 -10.214401 -33.880177 1252.200317
3.840000 4.080000 7.960000 14.938290 -21.017092 664.870605
3.840000 4.080000 8.000000 20.597380 8.981218 504.914337
3.840000 4.080000 8.040000 -1.361201 33.831051 1146.392944
3.840000 4.080000 8.080000 -37.117668 32.113319 2408.986572
3.840000 4.080000 8.120000 -59.915779 1.886065 3593.457764
3.840000 4.080000 8.160000 -51.627533 -36.019356 3962.796143
3.840000 4.080000 8.200000 -18.097889 -54.459358 3293.355469
3.840000 4.120000 7.800000 -32.574127 1.507476 1063.346191
3.840000 4.120000 7.840000 -30.522301 -17.591007 1241.054443
3.840000 4.120000 7.880000 -14.837528 -28.710495 1044.444824
3.840000 4.120000 7.920000 3.397017 -23.294514 554.174072
3.840000 4.120000 7.960000 9.450532 -5.024670 114.559860
3.840000 4.120000 8.000000 -3.174958 11.097803 133.241592
3.840000 4.120000 8.040000 -25.865070 9.915810 767.325195
3.840000 4.120000 8.080000 -40.357422 -10.866574 1746.803955
3.840000 4.120000 8.120000 -33.350235 -37.435066 2513.622314
3.840000 4.120000 8.160000 -8.006224 -50.407059 2604.971191
3.840000 4.120000 8.200000 18.197990 -40.656342 1984.104980
3.840000 4.160000 7.800000 -26.075340 -11.636133 815.322937
3.840000 4.160000 7.840000 -15.468615 -23.007370 768.617065
3.840000 4.160000 7.880000 -1.810534 -21.513836 466.123169
3.840000 4.160000 7.920000 2.899893 -10.471806 118.068092
3.840000 4.160000 7.960000 -5.391708 -2.000921 33.074203
3.840000 4.160000 8.000000 -18.585699 -6.522878 387.976166
3.840000 4.160000 8.040000 -23.009050 -23.084042 1062.289307
3.840000 4.160000 8.080000 -11.462275 -39.418739 1685.220825
3.840000 4.160000 8.120000 9.994538 -42.212555 1881.790527
3.840000 4.160000 8.160000 26.809000 -28.581053 1535.599121
3.840000 4.160000 8.200000 28.149248 -8.541643 865.339844
3.840000 4.200000 7.800000 -18.343521 -18.581396 681.753052
3.840000 4.200000 7.840000 -5.930977 -21.253538 486.889374
3.840000 4.200000 7.880000 0.330331 -13.898876 193.287872
3.840000 4.200000 7.920000 -4.945055 -7.773355 84.878616
3.840000 4.200000 7.960000 -14.122159 -13.375210 378.331604
3.840000 4.200000 8.000000 -13.514618 -28.988243 1022.963135
3.840000 4.200000 8.040000 2.688348 -40.971020 1685.851685
3.840000 4.200000 8.080000 25.340158 -36.349571 1963.415039
3.840000 4.200000 8.120000 37.694469 -15.740705 1668.642822
3.840000 4.200000 8.160000 30.611141 6.138680 974.725403
3.840000 4.200000 8.200000 11.138105 13.231964 299.142273
3.880000 3.800000 7.800000 -10.977453 -10.180681 224.150757
3.880000 3.800000 7.840000 -8.846661 -8.058023 143.195145
3.880000 3.800000 7.880000 -9.364260 -9.324797 174.641205
3.880000 3.800000 7.920000 -6.727669 -14.483386 255.029999
3.880000 3.800000 7.960000 2.441313 -18.065256 332.313507
3.880000 3.800000 8.000000 14.728041 -13.636961 402.881897
3.880000 3.800000 8.040000 22.053843 -0.369444 486.508453
3.880000 3.800000 8.080000 18.516594 15.262755 575.815979
3.880000 3.800000 8.120000 5.580481 24.341026 623.627319
3.880000 3.800000 8.160000 -9.040748 22.329521 580.342651
3.880000 3.800000 8.200000 -17.338203 11.934090 443.035828
3.880000 3.840000 7.800000 5.311063 -12.997015 197.129776
3.880000 3.840000 7.840000 7.870961 -2.107288 66.392693
3.880000 3.840000 7.880000 1.875402 6.176443 41.665585
3.880000 3.840000 7.920000 -7.448261 6.048042 92.055412
3.880000 3.840000 7.960000 -11.965221 -1.789783 146.369843
3.880000 3.840000 8.000000 -7.330734 -10.168444 157.136917
3.880000 3.840000 8.040000 3.118481 -11.245081 136.176758
3.880000 3.840000 8.080000 10.988384 -3.158360 130.719833
3.880000 3.840000 8.120000 9.856734 8.354689 166.956024
3.880000 3.840000 8.160000 0.584059 14.783064 218.880096
3.880000 3.840000 8.200000 -9.599235 11.843751 232.419739
3.880000 3.880000 7.800000 20.592821 -0.462944 424.278595
3.880000 3.880000 7.840000 14.466934 20.456335 627.753845
3.880000 3.880000 7.880000 -7.955793 31.348639 1046.031738
3.880000 3.880000 7.920000 -33.374611 20.518627 1534.878662
3.880000 3.880000 7.960000 -42.321404 -7.951710 1854.330933
3.880000 3.880000 8.000000 -25.675392 -34.547787 1852.775391
3.880000 3.880000 8.040000 5.935310 -39.349609 1583.619629
3.880000 3.880000 8.080000 29.770054 -18.892502 1243.182739
3.880000 3.880000 8.120000 29.661186 10.739679 995.126648
3.880000 3.880000 8.160000 8.942845 27.752867 850.196106
3.880000 3.880000 8.200000 -13.846140 22.694159 706.740417
3.880000 3.920000 7.800000 21.032570 22.392857 943.809021
3.880000 3.920000 7.840000 -2.506557 44.406769 1978.243896
3.880000 3.920000 7.880000 -41.629128 41.245144 3434.145996
3.880000 3.920000 7.920000 -69.175148 5.105560 4811.268066
3.880000 3.920000 7.960000 -59.703857 -44.309143 5527.850586
3.880000 3.920000 8.000000 -13.924805 -71.760208 5343.427734
3.880000 3.920000 8.040000 37.871216 -55.551670 4520.216797
3.880000 3.920000 8.080000 59.329533 -7.234756 3572.335205
3.880000 3.920000 8.120000 38.163570 37.345993 2851.181152
3.880000 3.920000 8.160000 -4.727352 48.192787 2344.892578
3.880000 3.920000 8.200000 -35.002537 24.781351 1839.292969
3.880000 3.960000 7.800000 2.079816 39.446880 1560.382080
3.880000 3.960000 7.840000 -36.843758 47.426804 3606.764160
3.880000 3.960000 7.880000 -76.811867 18.304283 6235.109863
3.880000 3.960000 7.920000 -83.105873 -39.411728 8459.870117
3.880000 3.960000 7.960000 -40.215912 -87.909164 9345.340820
3.880000 3.960000 8.000000 28.601162 -88.733017 8691.575195
3.880000 3.960000 8.040000 75.867462 -37.259583 7144.147949
3.880000 3.960000 8.080000 68.620262 30.266937 5624.827637
3.880000 3.960000 8.120000 16.314358 65.963547 4617.347656
3.880000 3.960000 8.160000 -38.254337 49.850983 3948.514648
3.880000 3.960000 8.200000 -56.301544 3.660783 3183.265137
3.880000 4.000000 7.800000 -24.975376 36.463352 1953.345459
3.880000 4.000000 7.840000 -64.505890 21.488445 4622.763184
3.880000 4.000000 7.880000 -84.100571 -27.577820 7833.441895
3.880000 4.000000 7.920000 -57.188065 -83.640686 10266.238281
3.880000 4.000000 7.960000 9.195498 -103.811707 10861.427734
3.880000 4.000000 8.000000 72.487976 -66.105881 9624.494141
3.880000 4.000000 8.040000 86.818817 7.213290 7589.538574
3.880000 4.000000 8.080000 42.292664 64.530418 5952.844238
3.880000 4.000000 8.120000 -25.515793 67.152618 5160.529785
3.880000 4.000000 8.160000 -65.823318 20.782675 4764.628906
3.880000 4.000000 8.200000 -54.946934 -32.416412 4069.989258
3.880000 4.040000 7.800000 -41.289276 14.342441 1910.509888
3.880000 4.040000 7.840000 -64.281158 -17.382256 4434.209961
3.880000 4.040000 7.880000 -54.864307 -65.004410 7235.665527
3.880000 4.040000 7.920000 -6.551703 -94.892792 9047.566406
3.880000 4.040000 7.960000 54.237473 -78.034203 9031.040039
3.880000 4.040000 8.000000 84.382790 -18.491890 7462.405273
3.880000 4.040000 8.040000 59.661324 44.361153 5527.385742
3.880000 4.040000 8.080000 -2.362764 66.034027 4366.075195
3.880000 4.040000 8.120000 -55.247704 34.025322 4210.031250
3.880000 4.040000 8.160000 -62.255901 -22.241335 4370.474121
3.880000 4.040000 8.200000 -25.668705 -57.921364 4013.766602
3.880000 4.080000 7.800000 -36.836075 -11.097321 1480.046875
3.880000 4.080000 7.840000 -37.415741 -42.475845 3204.135010
3.880000 4.080000 7.880000 -10.432664 -69.022964 4873.009766
3.880000 4.080000 7.920000 33.011532 -67.435867 5637.357422
3.880000 4.080000 7.960000 64.169449 -31.431717 5105.670898
3.880000 4.080000 8.000000 58.194183 18.116276 3714.762451
3.880000 4.080000 8.040000 16.693007 46.541473 2444.765137
3.880000 4.080000 8.080000 -30.613476 33.427704 2054.596191
3.880000 4.080000 8.120000 -49.157013 -9.492989 2506.528809
3.880000 4.080000 8.160000 -28.011461 -47.881798 3077.308594
3.880000 4.080000 8.200000 12.187933 -53.760056 3038.689209
3.880000 4.120000 7.800000 -18.742531 -23.558758 906.297546
3.880000 4.120000 7.840000 -6.007051 -40.501678 1676.470703
3.880000 4.120000 7.880000 17.630695 -43.458893 2199.516846
3.880000 4.120000 7.920000 37.714638 -27.122955 2158.048584
3.880000 4.120000 7.960000 39.483421 -0.004543 1558.940552
3.880000 4.120000 8.000000 20.004124 19.654051 786.446655
3.880000 4.120000 8.040000 -7.482193 17.378103 357.981689
3.880000 4.120000 8.080000 -22.629181 -5.183399 538.947449
3.880000 4.120000 8.120000 -14.215069 -30.521580 1133.635010
3.880000 4.120000 8.160000 10.473598 -39.159424 1643.156738
3.880000 4.120000 8.200000 31.836159 -25.531567 1665.401855
3.880000 4.160000 7.800000 -3.043165 -20.686249 437.181763
3.880000 4.160000 7.840000 8.575781 -22.227768 567.617676
3.880000 4.160000 7.880000 16.535040 -15.106525 501.614624
3.880000 4.160000 7.920000 15.990917 -5.755154 288.831207
3.880000 4.160000 7.960000 8.965267 -1.556911 82.799988
3.880000 4.160000 8.000000 2.251286 -5.309870 33.263004
3.880000 4.160000 8.040000 2.038599 -13.456228 185.225967
3.880000 4.160000 8.080000 9.309338 -19.072762 450.433990
3.880000 4.160000 8.120000 19.310600 -17.158316 667.307129
3.880000 4.160000 8.160000 25.267498 -8.279039 706.988953
3.880000 4.160000 8.200000 23.431885 2.049229 553.252563
3.880000 4.200000 7.800000 1.618340 -13.950776 197.243179
3.880000 4.200000 7.840000 5.194252 -9.188131 111.402008
3.880000 4.200000 7.880000 1.371103 -6.304142 41.622131
3.880000 4.200000 7.920000 -3.315620 -11.626726 146.174088
3.880000 4.200000 7.960000 0.260805 -21.996002 483.892151
3.880000 4.200000 8.000000 13.928288 -27.119005 929.437622
3.880000 4.200000 8.040000 29.262077 -19.540262 1238.091064
3.880000 4.200000 8.080000 34.820969 -2.349291 1218.019043
3.880000 4.200000 8.120000 26.568718 12.980758 874.396851
3.880000 4.200000 8.160000 11.543237 16.595863 408.668976
3.880000 4.200000 8.200000 1.469018 8.543163 75.143654
3.920000 3.800000 7.800000 -7.846240 -13.360279 240.060547
3.920000 3.800000 7.840000 -5.594957 -9.454010 120.681854
3.920000 3.800000 7.880000 -6.796371 -9.873125 143.669266
3.920000 3.800000 7.920000 -4.164288 -15.058215 244.091141
3.920000 3.800000 7.960000 6.097847 -17.973068 360.214935
3.920000 3.800000 8.000000 19.021160 -11.078621 484.540375
3.920000 3.800000 8.040000 24.504242 5.292297 628.466309
3.920000 3.800000 8.080000 16.705231 21.863518 757.078125
3.920000 3.800000 8.120000 -0.065418 28.024313 785.366394
3.920000 3.800000 8.160000 -14.679974 20.902859 652.431152
3.920000 3.800000 8.200000 -18.462570 7.381098 395.347107
3.920000 3.840000 7.800000 10.169926 -7.188202 155.097641
3.920000 3.840000 7.840000 6.613585 9.963961 143.020020
3.920000 3.840000 7.880000 -10.154091 17.059814 394.142822
3.920000 3.840000 7.920000 -25.957409 6.547272 716.653809
3.920000 3.840000 7.960000 -25.995070 -13.475426 857.330750
3.920000 3.840000 8.000000 -8.805275 -25.697029 737.870117
3.920000 3.840000 8.040000 11.887249 -19.194271 509.726746
3.920000 3.840000 8.080000 19.547743 0.760216 382.692200
3.920000 3.840000 8.120000 9.533632 18.005600 415.091766
3.920000 3.840000 8.160000 -7.811881 20.416767 477.869873
3.920000 3.840000 8.200000 -17.800608 9.907592 415.022003
3.920000 3.880000 7.800000 16.533611 14.678753 488.826080
3.920000 3.880000 7.840000 -6.825455 38.382332 1519.790161
3.920000 3.880000 7.880000 -46.329128 34.177231 3314.471191
3.920000 3.880000 7.920000 -71.200668 -3.507233 5081.835938
3.920000 3.880000 7.960000 -57.451008 -50.512264 5852.107422
3.920000 3.880000 8.000000 -11.312569 -71.490128 5238.812500
3.920000 3.880000 8.040000 34.105522 -50.673126 3730.952148
3.920000 3.880000 8.080000 47.063328 -5.694553 2247.384766
3.920000 3.880000 8.120000 23.819599 28.782755 1395.820312
3.920000 3.880000 8.160000 -11.023073 31.516283 1114.784302
3.920000 3.880000 8.200000 -29.059534 10.349493 951.568542
3.920000 3.920000 7.800000 0.383888 35.792496 1281.250122
3.920000 3.920000 7.840000 -46.183266 46.624767 4306.762695
3.920000 3.920000 7.880000 -93.743332 10.661995 8901.490234
3.920000 3.920000 7.920000 -98.641449 -58.768295 13183.848633
3.920000 3.920000 7.960000 -45.409077 -113.722198 14994.722656
3.920000 3.920000 8.000000 33.999653 -111.065445 13491.509766
3.920000 3.920000 8.040000 84.323708 -51.378433 9750.231445
3.920000 3.920000 8.080000 73.735550 20.474928 5856.153809
3.920000 3.920000 8.120000 19.456493 54.382236 3335.982910
3.920000 3.920000 8.160000 -31.000765 36.600136 2300.617432
3.920000 3.920000 8.200000 -43.156239 -4.276962 1880.753296
3.920000 3.960000 7.800000 -29.652493 35.967445 2172.927490
3.920000 3.960000 7.840000 -83.642700 16.970722 7284.106445
3.920000 3.960000 7.880000 -109.874466 -50.841778 14657.285156
3.920000 3.960000 7.920000 -71.033981 -127.393387 21274.902344
3.920000 3.960000 7.960000 20.321774 -153.152878 23868.779297
3.920000 3.960000 8.000000 104.606590 -101.666702 21278.656250
3.920000 3.960000 8.040000 123.336205 -6.514083 15254.252930
3.920000 3.960000 8.080000 69.060059 65.323212 9036.414062
3.920000 3.960000 8.120000 -10.010849 69.999413 5000.135254
3.920000 3.960000 8.160000 -54.256805 20.580111 3367.342041
3.920000 3.960000 8.200000 -42.786865 -31.559311 2826.706055
3.920000 4.000000 7.800000 -50.288700 10.807894 2645.763916
3.920000 4.000000 7.840000 -86.346771 -35.761261 8734.632812
3.920000 4.000000 7.880000 -71.795090 -109.771866 17204.396484
3.920000 4.000000 7.920000 4.595619 -156.478745 24506.716797
3.920000 4.000000 7.960000 100.367279 -130.220154 27030.878906
3.920000 4.000000 8.000000 148.897858 -38.863529 23680.945312
3.920000 4.000000 8.040000 115.635864 57.101997 16632.291016
3.920000 4.000000 8.080000 28.787971 93.718994 9611.997070
3.920000 4.000000 8.120000 -45.367935 56.448517 5244.684570
3.920000 4.000000 8.160000 -59.394627 -11.987082 3671.411865
3.920000 4.000000 8.200000 -20.624788 -53.741550 3313.536133
3.920000 4.040000 7.800000 -44.118916 -22.099464 2434.864990
3.920000 4.040000 7.840000 -47.940102 -74.129211 7793.393555
3.920000 4.040000 7.880000 -1.436638 -122.281631 14954.861328
3.920000 4.040000 7.920000 78.199677 -121.223145 20810.240234
3.920000 4.040000 7.960000 138.615616 -56.602245 22418.103516
3.920000 4.040000 8.000000 133.623352 35.472725 19113.515625
3.920000 4.040000 8.040000 64.439301 93.889954 12967.746094
3.920000 4.040000 8.080000 -18.898279 82.714699 7198.866211
3.920000 4.040000 8.120000 -59.149883 20.321789 3911.683838
3.920000 4.040000 8.160000 -38.581436 -39.223057 3026.975586
3.920000 4.040000 8.200000 11.566690 -53.950775 3044.474365
3.920000 4.080000 7.800000 -16.104506 -38.232845 1721.105591
3.920000 4.080000 7.840000 3.736988 -71.490860 5124.907715
3.920000 4.080000 7.880000 52.069675 -81.763794 9396.569336
3.920000 4.080000 7.920000 100.871109 -49.168262 12592.498047
3.920000 4.080000 7.960000 113.321411 14.775974 13060.071289
3.920000 4.080000 8.000000 74.994331 70.794189 10635.966797
3.920000 4.080000 8.040000 9.247318 81.789436 6775.024414
3.920000 4.080000 8.080000 -39.630775 43.668541 3477.540039
3.920000 4.080000 8.120000 -42.171246 -11.281481 1905.685791
3.920000 4.080000 8.160000 -6.375280 -42.097885 1812.876099
3.920000 4.080000 8.200000 32.565544 -32.551029 2120.083984
3.920000 4.120000 7.800000 11.019057 -28.512936 934.407104
3.920000 4.120000 7.840000 31.890959 -36.007698 2313.587646
3.920000 4.120000 7.880000 56.713928 -24.249290 3804.497803
3.920000 4.120000 7.920000 68.278595 5.678955 4694.216797
3.920000 4.120000 7.960000 55.055428 38.371738 4503.490234
3.920000 4.120000 8.000000 21.786179 53.462440 3332.870117
3.920000 4.120000 8.040000 -11.782413 41.070011 1825.571167
3.920000 4.120000 8.080000 -24.982956 10.461983 733.601135
3.920000 4.120000 8.120000 -12.144569 -16.485605 419.265747
3.920000 4.120000 8.160000 13.380440 -22.343248 678.256897
3.920000 4.120000 8.200000 30.806019 -7.186422 1000.655457
3.920000 4.160000 7.800000 18.469650 -6.676439 385.702820
3.920000 4.160000 7.840000 24.187027 -1.096924 586.215515
3.920000 4.160000 7.880000 24.423630 6.702393 641.435730
3.920000 4.160000 7.920000 20.272549 12.543530 568.316345
3.920000 4.160000 7.960000 14.425926 15.054195 434.736145
3.920000 4.160000 8.000000 8.663918 14.594471 288.062042
3.920000 4.160000 8.040000 4.050934 11.500084 148.662003
3.920000 4.160000 8.080000 2.114277 6.350258 44.795940
3.920000 4.160000 8.120000 4.248329 1.323157 19.799044
3.920000 4.160000 8.160000 9.562707 -0.207508 91.488426
3.920000 4.160000 8.200000 14.192543 3.475557 213.507782
3.920000 4.200000 7.800000 8.507899 5.714062 105.034851
3.920000 4.200000 7.840000 1.042863 7.647921 59.578251
3.920000 4.200000 7.880000 -5.403545 -0.367252 29.333178
3.920000 4.200000 7.920000 -0.818127 -12.535180 157.800064
3.920000 4.200000 7.960000 14.262169 -16.205076 466.013947
3.920000 4.200000 8.000000 27.694872 -5.121166 793.232239
3.920000 4.200000 8.040000 27.229477 13.164936 914.759949
3.920000 4.200000 8.080000 12.834829 23.884983 735.225281
3.920000 4.200000 8.120000 -2.990919 19.167873 376.352966
3.920000 4.200000 8.160000 -7.246463 5.338976 81.015892
3.920000 4.200000 8.200000 1.404848 -3.810760 16.495487
3.960000 3.800000 7.800000 -1.889366 -12.308811 155.076538
3.960000 3.800000 7.840000 -2.506084 -7.137929 57.230492
3.960000 3.800000 7.880000 -5.207706 -8.980358 107.767044
3.960000 3.800000 7.920000 -1.099743 -15.162952 231.124557
3.960000 3.800000 7.960000 11.254482 -15.795837 376.171844
3.960000 3.800000 8.000000 23.002975 -4.419769 548.671265
3.960000 3.800000 8.040000 23.230057 14.303583 744.228027
3.960000 3.800000 8.080000 9.837790 28.073074 884.879578
3.960000 3.800000 8.120000 -8.042037 28.158817 857.593384
3.960000 3.800000 8.160000 -18.388258 17.078754 629.811890
3.960000 3.800000 8.200000 -16.784950 5.441739 311.347076
3.960000 3.840000 7.800000 9.080219 2.676861 89.615959
3.960000 3.840000 7.840000 -6.065521 17.967041 359.605133
3.960000 3.840000 7.880000 -29.458302 12.897644 1034.140747
3.960000 3.840000 7.920000 -39.229805 -11.600227 1673.542847
3.960000 3.840000 7.960000 -23.909491 -35.661469 1843.404053
3.960000 3.840000 8.000000 5.879345 -38.269871 1499.149658
3.960000 3.840000 8.040000 26.684586 -16.615845 988.153381
3.960000 3.840000 8.080000 23.461597 11.790297 689.457642
3.960000 3.840000 8.120000 2.098228 25.832191 671.704712
3.960000 3.840000 8.160000 -18.092960 19.360395 702.180176
3.960000 3.840000 8.200000 -23.174755 4.105026 553.920532
3.960000 3.880000 7.800000 0.107573 23.697922 561.603088
3.960000 3.880000 7.840000 -39.434807 32.487617 2610.549316
3.960000 3.880000 7.880000 -77.377609 0.393215 5987.449219
3.960000 3.880000 7.920000 -76.556320 -56.961575 9105.491211
3.960000 3.880000 7.960000 -28.624096 -96.961029 10220.780273
3.960000 3.880000 8.000000 34.774899 -87.085655 8793.205078
3.960000 3.880000 8.040000 68.318314 -34.593307 5864.088867
3.960000 3.880000 8.080000 52.260147 20.159054 3137.510498
3.960000 3.880000 8.120000 7.272166 39.998550 1652.768433
3.960000 3.880000 8.160000 -27.809420 21.496128 1235.447388
3.960000 3.880000 8.200000 -31.680828 -8.018521 1067.971558
3.960000 3.920000 7.800000 -27.025417 28.894691 1565.276367
3.960000 3.920000 7.840000 -81.050308 9.285507 6655.373047
3.960000 3.920000 7.880000 -104.740089 -59.702827 14534.914062
3.960000 3.920000 7.920000 -61.914536 -133.995178 21788.117188
3.960000 3.920000 7.960000 30.004311 -153.920227 24591.693359
3.960000 3.920000 8.000000 109.046379 -98.237946 21541.806641
3.960000 3.920000 8.040000 120.917015 -5.634571 14652.672852
3.960000 3.920000 8.080000 65.443436 58.388649 7692.077637
3.960000 3.920000 8.120000 -6.730413 57.806068 3386.840088
3.960000 3.920000 8.160000 -42.044853 12.195270 1916.494263
3.960000 3.920000 8.200000 -28.936520 -29.108727 1684.640137
3.960000 3.960000 7.800000 -50.646194 7.084944 2615.233643
3.960000 3.960000 7.840000 -91.926636 -46.844440 10644.908203
3.960000 3.960000 7.880000 -72.546242 -132.270752 22758.509766
3.960000 3.960000 7.920000 18.198584 -182.988983 33816.156250
3.960000 3.960000 7.960000 127.286621 -148.022400 38112.515625
3.960000 3.960000 8.000000 178.170593 -41.686066 33482.488281
3.960000 3.960000 8.040000 136.819336 64.145523 22834.179688
3.960000 3.960000 8.080000 40.892735 100.773369 11827.487305
3.960000 3.960000 8.120000 -35.637062 59.340092 4791.247070
3.960000 3.960000 8.160000 -47.302551 -8.973249 2318.050537
3.960000 3.960000 8.200000 -9.660725 -45.255356 2141.376709
3.960000 4.000000 7.800000 -47.797127 -28.506416 3097.181152
3.960000 4.000000 7.840000 -53.190704 -97.125778 12262.667969
3.960000 4.000000 7.880000 10.274185 -160.430222 25843.414062
3.960000 4.000000 7.920000 117.249451 -155.962296 38071.671875
3.960000 4.000000 7.960000 195.432190 -67.014374 42684.667969
3.960000 4.000000 8.000000 185.415039 54.616859 37361.738281
3.960000 4.000000 8.040000 93.963814 128.519882 25346.558594
3.960000 4.000000 8.080000 -10.960775 113.103104 12912.451172
3.960000 4.000000 8.120000 -59.285103 37.591209 4927.822266
3.960000 4.000000 8.160000 -35.868015 -29.763550 2172.383301
3.960000 4.000000 8.200000 16.386440 -43.766815 2184.049561
3.960000 4.040000 7.800000 -16.810429 -49.912689 2773.867188
3.960000 4.040000 7.840000 12.172874 -102.047028 10561.774414
3.960000 4.040000 7.880000 88.738770 -118.357727 21883.121094
3.960000 4.040000 7.920000 166.253113 -65.049057 31871.476562
3.960000 4.040000 7.960000 184.370544 37.851280 35425.214844
3.960000 4.040000 8.000000 122.057320 125.979874 30768.917969
3.960000 4.040000 8.040000 19.288454 142.473923 20670.863281
3.960000 4.040000 8.080000 -55.156693 85.311554 10320.322266
3.960000 4.040000 8.120000 -60.718269 6.217047 3725.359863
3.960000 4.040000 8.160000 -14.306378 -36.553242 1540.812012
3.960000 4.040000 8.200000 32.679848 -25.870255 1737.242432
3.960000 4.080000 7.800000 19.311218 -39.788612 1956.056885
3.960000 4.080000 7.840000 57.583008 -58.301750 6714.896484
3.960000 4.080000 7.880000 109.735748 -37.171249 13423.636719
3.960000 4.080000 7.920000 135.994308 25.715336 19155.730469
3.960000 4.080000 7.960000 108.055092 96.556190 20999.000000
3.960000 4.080000 8.000000 36.151611 129.372406 18044.158203
3.960000 4.080000 8.040000 -35.816696 103.451134 11984.972656
3.960000 4.080000 8.080000 -64.837891 40.653187 5856.633789
3.960000 4.080000 8.120000 -42.474148 -13.507938 1986.517578
3.960000 4.080000 8.160000 2.213585 -27.508690 761.627991
3.960000 4.080000 8.200000 31.076443 -5.879793 1000.317261
3.960000 4.120000 7.800000 33.472191 -7.774023 1180.822998
3.960000 4.120000 7.840000 54.603245 -2.067919 2985.790771
3.960000 4.120000 7.880000 69.136131 23.310780 5323.197266
3.960000 4.120000 7.920000 61.584496 58.294384 7190.885254
3.960000 4.120000 7.960000 29.273876 82.642883 7686.806152
3.960000 4.120000 8.000000 -13.188339 79.944885 6565.116699
3.960000 4.120000 8.040000 -42.898323 50.499462 4390.461914
3.960000 4.120000 8.080000 -44.960705 12.019173 2165.925537
3.960000 4.120000 8.120000 -23.093510 -13.188966 707.259033
3.960000 4.120000 8.160000 4.276467 -14.254921 221.490952
3.960000 4.120000 8.200000 18.723803 2.073679 354.880920
3.960000 4.160000 7.800000 19.302673 18.965195 732.271851
3.960000 4.160000 7.840000 17.056963 25.093132 920.605225
3.960000 4.160000 7.880000 11.513344 28.813421 962.770325
3.960000 4.160000 7.920000 5.770935 30.123672 940.739380
3.960000 4.160000 7.960000 -0.225517 30.910110 955.485779
3.960000 4.160000 8.000000 -8.559643 30.171040 983.559082
3.960000 4.160000 8.040000 -18.234106 23.908466 904.097412
3.960000 4.160000 8.080000 -23.238455 10.664320 653.753479
3.960000 4.160000 8.120000 -17.694168 -3.944876 328.645630
3.960000 4.160000 8.160000 -3.172489 -10.265083 115.436623
3.960000 4.160000 8.200000 10.401340 -3.471303 120.237823
3.960000 4.200000 7.800000 -4.456750 21.751291 492.981293
3.960000 4.200000 7.840000 -15.772686 13.513464 431.391327
3.960000 4.200000 7.880000 -15.279293 -3.102773 243.084000
3.960000 4.200000 7.920000 0.232857 -12.577215 158.240570
3.960000 4.200000 7.960000 17.360973 -3.787121 315.745667
3.960000 4.200000 8.000000 18.598694 16.509777 618.484131
3.960000 4.200000 8.040000 0.914997 28.717659 825.541138
3.960000 4.200000 8.080000 -19.675188 19.861010 781.572754
3.960000 4.200000 8.120000 -23.397289 -2.626023 554.329163
3.960000 4.200000 8.160000 -6.604665 -17.690735 356.583679
3.960000 4.200000 8.200000 14.396714 -11.499989 339.515137
4.000000 3.800000 7.800000 0.416401 -5.561295 31.101387
4.000000 3.800000 7.840000 -4.110718 -3.174971 26.978439
4.000000 3.800000 7.880000 -5.830345 -8.757202 110.681519
4.000000 3.800000 7.920000 2.053748 -14.463039 213.397385
4.000000 3.800000 7.960000 15.182556 -10.134701 333.222168
4.000000 3.800000 8.000000 21.849213 5.336090 505.861938
4.000000 3.800000 8.040000 14.811954 22.093243 707.505371
4.000000 3.800000 8.080000 -1.463219 28.713259 826.592224
4.000000 3.800000 8.120000 -15.441328 22.849905 760.552795
4.000000 3.800000 8.160000 -19.606548 12.264713 534.839966
4.000000 3.800000 8.200000 -16.356956 6.155272 305.437408
4.000000 3.840000 7.800000 -1.711941 9.221573 87.968147
4.000000 3.840000 7.840000 -23.478542 11.844183 691.526611
4.000000 3.840000 7.880000 -40.014267 -8.209923 1668.544434
4.000000 3.840000 7.920000 -32.493057 -36.953194 2421.337402
4.000000 3.840000 7.960000 -2.709167 -49.851002 2492.461914
4.000000 3.840000 8.000000 27.375572 -34.550251 1943.141846
4.000000 3.840000 8.040000 35.272522 -2.217705 1249.068970
4.000000 3.840000 8.080000 17.548508 23.161198 844.391235
4.000000 3.840000 8.120000 -9.176946 26.293276 775.552673
4.000000 3.840000 8.160000 -25.150970 11.928997 774.872253
4.000000 3.840000 8.200000 -24.624102 -3.273388 617.061462
4.000000 3.880000 7.800000 -20.740400 15.901642 683.026428
4.000000 3.880000 7.840000 -58.546238 -0.517220 3427.929443
4.000000 3.880000 7.880000 -71.011292 -51.147942 7658.715332
4.000000 3.880000 7.920000 -35.054543 -100.551941 11339.513672
4.000000 3.880000 7.960000 31.401665 -106.947357 12423.801758
4.000000 3.880000 8.000000 81.933701 -60.905762 10422.642578
4.000000 3.880000 8.040000 81.807144 4.848118 6715.913086
4.000000 3.880000 8.080000 37.448753 44.354370 3369.719238
4.000000 3.880000 8.120000 -12.353149 37.822353 1583.130737
4.000000 3.880000 8.160000 -33.049698 4.244070 1110.294556
4.000000 3.880000 8.200000 -22.267790 -21.963160 978.234863
4.000000 3.920000 7.800000 -41.603455 0.318489 1730.948853
4.000000 3.920000 7.840000 -74.891693 -47.440262 7859.343750
4.000000 3.920000 7.880000 -53.747082 -119.948807 17276.464844
4.000000 3.920000 7.920000 27.319977 -158.245636 25788.062500
4.000000 3.920000 7.960000 118.637459 -121.476349 28831.349609
4.000000 3.920000 8.000000 155.153412 -27.671246 24838.279297
4.000000 3.920000 8.040000 113.427307 58.978783 16344.250977
4.000000 3.920000 8.080000 31.098837 83.427177 7927.231445
4.000000 3.920000 8.120000 -29.102364 44.805298 2854.462402
4.000000 3.920000 8.160000 -34.499573 -10.279010 1295.878662
4.000000 3.920000 8.200000 -3.962830 -35.568962 1280.855103
4.000000 3.960000 7.800000 -41.879166 -31.209339 2727.887207
4.000000 3.960000 7.840000 -45.058880 -99.563446 11943.182617
4.000000 3.960000 7.880000 21.483318 -160.116669 26098.880859
4.000000 3.960000 7.920000 128.634949 -150.045227 39060.519531
4.000000 3.960000 7.960000 201.904633 -56.794659 43991.113281
4.000000 3.960000 8.000000 185.124374 63.315308 38279.863281
4.000000 3.960000 8.040000 91.298798 130.651001 25405.154297
4.000000 3.960000 8.080000 -9.030491 110.014099 12184.651367
4.000000 3.960000 8.120000 -50.443245 36.406075 3869.923340
4.000000 3.960000 8.160000 -25.605743 -23.233854 1195.466064
4.000000 3.960000 8.200000 19.653381 -31.590088 1384.189087
4.000000 4.000000 7.800000 -14.193323 -54.049721 3122.822754
4.000000 4.000000 7.840000 20.287165 -113.698135 13338.834961
4.000000 4.000000 7.880000 110.325737 -129.777100 29013.863281
4.000000 4.000000 7.920000 198.367249 -63.637840 43399.339844
4.000000 4.000000 7.960000 213.813400 57.151413 48982.457031
4.000000 4.000000 8.000000 136.823135 155.182037 42802.035156
4.000000 4.000000 8.040000 18.990690 167.860931 28537.939453
4.000000 4.000000 8.080000 -60.560158 99.865578 13640.666016
4.000000 4.000000 8.120000 -62.035969 14.233994 4051.067871
4.000000 4.000000 8.160000 -11.852901 -26.841656 860.965759
4.000000 4.000000 8.200000 31.760454 -12.874995 1174.491943
4.000000 4.040000 7.800000 23.742453 -47.012604 2773.888916
4.000000 4.040000 7.840000 76.626953 -73.443436 11265.628906
4.000000 4.040000 7.880000 149.739807 -42.712959 24246.406250
4.000000 4.040000 7.920000 184.092377 47.161186 36114.179688
4.000000 4.040000 7.960000 140.572449 144.836075 40738.101562
4.000000 4.040000 8.000000 38.450115 185.015656 35709.203125
4.000000 4.040000 8.040000 -57.445099 143.799500 23978.236328
4.000000 4.040000 8.080000 -90.580284 57.993423 11568.025391
4.000000 4.040000 8.120000 -57.419880 -9.157619 3380.904785
4.000000 4.040000 8.160000 -2.707596 -21.958138 489.490875
4.000000 4.040000 8.200000 26.020456 4.648693 698.674500
4.000000 4.080000 7.800000 43.291756 -13.041855 2044.266113
4.000000 4.080000 7.840000 84.135757 -6.841688 7125.634277
4.000000 4.080000 7.880000 114.709534 40.505539 14798.976562
4.000000 4.080000 7.920000 100.208710 108.199234 21748.859375
4.000000 4.080000 7.960000 36.252556 152.182861 24473.871094
4.000000 4.080000 8.000000 -43.091431 140.587311 21621.662109
4.000000 4.080000 8.040000 -91.092514 80.819168 14829.583984
4.000000 4.080000 8.080000 -85.395950 13.241327 7467.800781
4.000000 4.080000 8.120000 -43.103233 -22.468979 2362.743652
4.000000 4.080000 8.160000 -1.939190 -17.108772 296.470551
4.000000 4.080000 8.200000 12.589514 7.634686 216.784271
4.000000 4.120000 7.800000 30.683283 22.280582 1437.888184
4.000000 4.120000 7.840000 43.263603 37.943115 3311.419434
4.000000 4.120000 7.880000 39.913921 66.216965 5977.807617
4.000000 4.120000 7.920000 13.414558 90.323990 8338.374023
4.000000 4.120000 7.960000 -27.518425 92.585251 9329.291992
4.000000 4.120000 8.000000 -62.900093 67.578918 8523.332031
4.000000 4.120000 8.040000 -74.973648 26.678246 6332.776367
4.000000 4.120000 8.080000 -60.137943 -9.648388 3709.663574
4.000000 4.120000 8.120000 -30.357996 -25.638386 1578.934814
4.000000 4.120000 8.160000 -3.764421 -19.488323 393.965607
4.000000 4.120000 8.200000 7.501286 -1.964216 60.127430
4.000000 4.160000 7.800000 -0.804991 33.833157 1145.330444
4.000000 4.160000 7.840000 -7.740051 35.512581 1321.051880
4.000000 4.160000 7.880000 -14.770073 33.144135 1316.688721
4.000000 4.160000 7.920000 -19.554588 29.683046 1263.465210
4.000000 4.160000 7.960000 -24.809160 27.222652 1356.567261
4.000000 4.160000 8.000000 -33.346184 22.238777 1606.531250
4.000000 4.160000 8.040000 -41.396015 9.171013 1797.737549
4.000000 4.160000 8.080000 -39.678040 -10.871695 1692.540527
4.000000 4.160000 8.120000 -23.093992 -27.062592 1265.716309
4.000000 4.160000 8.160000 1.068735 -27.120699 736.674500
4.000000 4.160000 8.200000 16.762611 -9.858562 378.176392
4.000000 4.200000 7.800000 -24.292555 19.175514 957.828613
4.000000 4.200000 7.840000 -30.008432 2.611567 907.326355
4.000000 4.200000 7.880000 -18.981720 -13.933429 554.446167
4.000000 4.200000 7.920000 1.337410 -13.958328 196.623596
4.000000 4.200000 7.960000 11.011900 3.660507 134.661255
4.000000 4.200000 8.000000 -1.307793 20.478233 421.068359
4.000000 4.200000 8.040000 -24.176474 16.338205 851.438843
4.000000 4.200000 8.080000 -33.042427 -8.596174 1165.696167
4.000000 4.200000 8.120000 -15.314306 -31.824078 1247.299927
4.000000 4.200000 8.160000 15.309447 -30.301016 1152.530762
4.000000 4.200000 8.200000 31.272400 -4.187607 995.499084
4.040000 3.800000 7.800000 -5.709204 0.654238 33.023037
4.040000 3.800000 7.840000 -10.253937 -3.544334 117.705528
4.040000 3.800000 7.880000 -6.659268 -11.466927 175.836258
4.040000 3.800000 7.920000 4.886826 -12.825851 188.383530
4.040000 3.800000 7.960000 14.678375 -2.800770 223.299011
4.040000 3.800000 8.000000 13.499237 12.394478 335.852478
4.040000 3.800000 8.040000 1.907986 21.824020 479.928284
4.040000 3.800000 8.080000 -11.053293 20.603588 546.683105
4.040000 3.800000 8.120000 -17.597992 13.450924 490.616699
4.040000 3.800000 8.160000 -18.170229 8.007284 394.273834
4.040000 3.800000 8.200000 -18.637924 6.353315 387.736847
4.040000 3.840000 7.800000 -16.493361 3.382071 283.469360
4.040000 3.840000 7.840000 -31.357260 -8.677525 1058.577148
4.040000 3.840000 7.880000 -30.025169 -32.926178 1985.644043
4.040000 3.840000 7.920000 -7.154953 -49.739735 2525.234619
4.040000 3.840000 7.960000 23.052155 -43.118279 2390.587891
4.040000 3.840000 8.000000 38.899975 -15.723186 1760.426636
4.040000 3.840000 8.040000 30.094919 13.524609 1088.619141
4.040000 3.840000 8.080000 5.377173 26.181471 714.383423
4.040000 3.840000 8.120000 -17.055534 18.790865 643.987915
4.040000 3.840000 8.160000 -25.608574 2.403741 661.577026
4.040000 3.840000 8.200000 -22.407181 -10.031599 602.714722
4.040000 3.880000 7.800000 -29.588028 -8.589113 949.224304
4.040000 3.880000 7.840000 -45.106468 -40.294815 3658.265625
4.040000 3.880000 7.880000 -25.546875 -82.510765 7460.668945
4.040000 3.880000 7.920000 27.458668 -98.767815 10509.059570
4.040000 3.880000 7.960000 80.236824 -68.533829 11134.833984
4.040000 3.880000 8.000000 95.016319 -8.226582 9095.777344
4.040000 3.880000 8.040000 62.965092 41.650291 5699.349609
4.040000 3.880000 8.080000 10.803982 51.125656 2730.558838
4.040000 3.880000 8.120000 -24.273548 24.158850 1172.855225
4.040000 3.880000 8.160000 -26.193169 -9.921496 784.518188
4.040000 3.880000 8.200000 -8.450961 -25.717529 732.810059
4.040000 3.920000 7.800000 -28.144230 -32.803146 1868.144043
4.040000 3.920000 7.840000 -25.203030 -82.329216 7413.292480
4.040000 3.920000 7.880000 28.277956 -121.949631 15671.355469
4.040000 3.920000 7.920000 107.014374 -106.981888 22897.199219
4.040000 3.920000 7.960000 155.236496 -32.964123 25185.001953
4.040000 3.920000 8.000000 135.314301 54.913525 21325.453125
4.040000 3.920000 8.040000 62.118576 99.034454 13666.541016
4.040000 3.920000 8.080000 -10.416229 78.352707 6247.644531
4.040000 3.920000 8.120000 -37.043007 22.641417 1884.818115
4.040000 3.920000 8.160000 -16.934475 -19.349106 661.164307
4.040000 3.920000 8.200000 14.651347 -24.201107 800.355591
4.040000 3.960000 7.800000 -4.423887 -51.016205 2622.223877
4.040000 3.960000 7.840000 28.496080 -98.969048 10606.898438
4.040000 3.960000 7.880000 106.933990 -106.907890 22864.175781
4.040000 3.960000 7.920000 178.983765 -44.145447 33984.007812
4.040000 3.960000 7.960000 185.037109 61.322037 37999.121094
4.040000 3.960000 8.000000 112.891243 141.255463 32697.539062
4.040000 3.960000 8.040000 11.336931 145.227646 21219.593750
4.040000 3.960000 8.080000 -52.066959 83.070267 9611.637695
4.040000 3.960000 8.120000 -48.379646 11.653395 2476.391602
4.040000 3.960000 8.160000 -5.315068 -18.754461 379.979767
4.040000 3.960000 8.200000 27.384041 -5.122418 776.124878
4.040000 4.000000 7.800000 29.143000 -44.635246 2841.619629
4.040000 4.000000 7.840000 82.720154 -67.969917 11462.533203
4.040000 4.000000 7.880000 154.481628 -32.853935 24943.955078
4.040000 4.000000 7.920000 183.788239 60.051155 37384.257812
4.040000 4.000000 7.960000 133.747559 155.789001 42158.625000
4.040000 4.000000 8.000000 28.841591 189.236420 36642.257812
4.040000 4.000000 8.040000 -63.163521 141.699310 24068.326172
4.040000 4.000000 8.080000 -88.969551 55.745132 11023.100586
4.040000 4.000000 8.120000 -52.109367 -5.204937 2742.477539
4.040000 4.000000 8.160000 -1.263362 -11.788095 140.555283
4.040000 4.000000 8.200000 19.658056 14.124490 585.940369
4.040000 4.040000 7.800000 48.213997 -13.315781 2501.899658
4.040000 4.040000 7.840000 97.531319 -5.092184 9538.289062
4.040000 4.040000 7.880000 133.190125 54.133888 20670.087891
4.040000 4.040000 7.920000 111.558151 136.296371 31021.921875
4.040000 4.040000 7.960000 30.419010 185.032227 35162.242188
4.040000 4.040000 8.000000 -63.833416 163.744415 30886.939453
4.040000 4.040000 8.040000 -113.828430 88.022507 20704.873047
4.040000 4.040000 8.080000 -98.704262 11.303440 9870.298828
4.040000 4.040000 8.120000 -47.074768 -21.769218 2689.932617
4.040000 4.040000 8.160000 -5.857271 -9.349489 121.720573
4.040000 4.040000 8.200000 1.896093 16.015772 260.100128
4.040000 4.080000 7.800000 37.766846 22.325222 1924.750122
4.040000 4.080000 7.840000 62.464508 46.746658 6087.064453
4.040000 4.080000 7.880000 59.296288 95.695465 12673.671875
4.040000 4.080000 7.920000 13.744232 136.427979 18801.498047
4.040000 4.080000 7.960000 -54.904095 135.508453 21377.000000
4.040000 4.080000 8.000000 -106.866844 87.894852 19146.027344
4.040000 4.080000 8.040000 -113.831108 21.809080 13433.157227
4.040000 4.080000 8.080000 -80.335037 -24.870251 7072.247559
4.040000 4.080000 8.120000 -36.162655 -34.247948 2480.659424
4.040000 4.080000 8.160000 -9.233810 -17.562483 393.704041
4.040000 4.080000 8.200000 -5.416178 1.183431 30.735491
4.040000 4.120000 7.800000 5.944729 37.900295 1471.772217
4.040000 4.120000 7.840000 6.152960 54.600845 3019.111084
4.040000 4.120000 7.880000 -11.556629 72.060143 5326.219727
4.040000 4.120000 7.920000 -43.194462 74.559967 7424.950195
4.040000 4.120000 7.960000 -73.606316 54.784382 8419.218750
4.040000 4.120000 8.000000 -87.119545 19.169094 7957.269043
4.040000 4.120000 8.040000 -77.743790 -16.911512 6330.095703
4.040000 4.120000 8.080000 -51.696129 -39.227448 4211.282227
4.040000 4.120000 8.120000 -21.995504 -42.250755 2268.928467
4.040000 4.120000 8.160000 -0.524479 -30.055143 903.586731
4.040000 4.120000 8.200000 7.123508 -12.117821 197.585953
4.040000 4.160000 7.800000 -23.368347 26.251816 1235.237549
4.040000 4.160000 7.840000 -30.209755 22.902708 1437.163330
4.040000 4.160000 7.880000 -34.596020 15.595507 1440.104370
4.040000 4.160000 7.920000 -35.490723 8.784977 1336.767212
4.040000 4.160000 7.960000 -36.987522 3.818008 1382.653931
4.040000 4.160000 8.000000 -41.048981 -4.168861 1702.398193
4.040000 4.160000 8.040000 -41.743748 -19.672033 2129.529297
4.040000 4.160000 8.080000 -29.932816 -37.898056 2332.236084
4.040000 4.160000 8.120000 -4.933926 -45.528751 2097.210693
4.040000 4.160000 8.160000 20.223728 -33.065926 1502.354614
4.040000 4.160000 8.200000 28.218781 -6.703513 841.236633
4.040000 4.200000 7.800000 -32.075493 2.038131 1032.991211
4.040000 4.200000 7.840000 -29.002254 -14.874214 1062.373047
4.040000 4.200000 7.880000 -11.892122 -24.086397 721.577148
4.040000 4.200000 7.920000 5.110941 -15.211609 257.514771
4.040000 4.200000 7.960000 4.727669 2.756413 29.948662
4.040000 4.200000 8.000000 -12.865177 8.476679 237.366882
4.040000 4.200000 8.040000 -26.995411 -8.609978 802.883911
4.040000 4.200000 8.080000 -17.045082 -34.181065 1458.880005
4.040000 4.200000 8.120000 14.218855 -41.382431 1914.681396
4.040000 4.200000 8.160000 40.510834 -18.650398 1988.965088
4.040000 4.200000 8.200000 37.461163 16.300133 1669.033081
4.080000 3.800000 7.800000 -16.662447 -1.952312 281.448669
4.080000 3.800000 7.840000 -14.727470 -11.255405 343.582550
4.080000 3.800000 7.880000 -4.378288 -16.010679 275.511261
4.080000 3.800000 7.920000 6.634529 -10.326792 150.659607
4.080000 3.800000 7.960000 9.198456 1.809857 87.887169
4.080000 3.800000 8.000000 2.275730 10.803204 121.888153
4.080000 3.800000 8.040000 -6.886970 11.541210 180.629898
4.080000 3.800000 8.080000 -11.507097 7.673166 191.290771
4.080000 3.800000 8.120000 -12.368395 5.631556 184.691605
4.080000 3.800000 8.160000 -15.125080 6.132171 266.371582
4.080000 3.800000 8.200000 -21.637550 3.583792 481.027161
4.080000 3.840000 7.800000 -22.487793 -15.033861 731.717834
4.080000 3.840000 7.840000 -20.287992 -30.735954 1356.301514
4.080000 3.840000 7.880000 -4.007660 -42.922344 1858.388916
4.080000 3.840000 7.920000 19.054192 -39.945889 1958.736206
4.080000 3.840000 7.960000 34.476788 -20.942863 1627.252441
4.080000 3.840000 8.000000 32.799938 3.102085 1085.458862
4.080000 3.840000 8.040000 16.570206 18.583820 619.930054
4.080000 3.840000 8.080000 -3.274908 19.423222 387.986572
4.080000 3.840000 8.120000 -16.739407 9.309128 366.867584
4.080000 3.840000 8.160000 -20.732979 -3.924768 445.260223
4.080000 3.840000 8.200000 -17.791542 -14.789217 535.259888
4.080000 3.880000 7.800000 -15.393332 -34.379631 1418.913574
4.080000 3.880000 7.840000 -4.908216 -57.626293 3344.880127
4.080000 3.880000 7.880000 27.829290 -69.908066 5661.606934
4.080000 3.880000 7.920000 66.430977 -53.157166 7238.758789
4.080000 3.880000 7.960000 84.314568 -10.663113 7222.648438
4.080000 3.880000 8.000000 67.587868 33.000607 5657.159668
4.080000 3.880000 8.040000 27.438108 51.650772 3420.652100
4.080000 3.880000 8.080000 -9.512600 38.405579 1565.478027
4.080000 3.880000 8.120000 -23.275528 8.903582 621.023926
4.080000 3.880000 8.160000 -14.358044 -14.511209 416.728607
4.080000 3.880000 8.200000 1.721711 -21.359322 459.184906
4.080000 3.920000 7.800000 8.329220 -45.465530 2136.490479
4.080000 3.920000 7.840000 34.410698 -68.039871 5813.520508
4.080000 3.920000 7.880000 82.807449 -63.577286 10899.144531
4.080000 3.920000 7.920000 121.326324 -18.091194 15047.368164
4.080000 3.920000 7.960000 117.025360 47.826183 15982.278320
4.080000 3.920000 8.000000 67.173363 93.002396 13161.706055
4.080000 3.920000 8.040000 3.809105 90.319275 8172.080566
4.080000 3.920000 8.080000 -33.267311 49.141354 3521.586426
4.080000 3.920000 8.120000 -29.282648 4.614312 878.765320
4.080000 3.920000 8.160000 -2.411063 -14.466781 215.100983
4.080000 3.920000 8.200000 18.179012 -7.703574 389.821533
4.080000 3.960000 7.800000 36.997940 -34.917351 2588.068848
4.080000 3.960000 7.840000 75.918228 -43.547661 7659.976074
4.080000 3.960000 7.880000 122.822044 -11.225518 15211.267578
4.080000 3.960000 7.920000 135.865051 58.065533 21830.917969
4.080000 3.960000 7.960000 92.704231 123.626282 23877.531250
4.080000 3.960000 8.000000 14.751049 141.119965 20132.437500
4.080000 3.960000 8.040000 -48.779533 101.631371 12708.378906
4.080000 3.960000 8.080000 -62.741123 38.786316 5440.826660
4.080000 3.960000 8.120000 -33.703789 -2.615664 1142.787109
4.080000 3.960000 8.160000 1.942850 -5.016413 28.939062
4.080000 3.960000 8.200000 14.866046 13.037500 390.975739
4.080000 4.000000 7.800000 50.686893 -4.539886 2589.771729
4.080000 4.000000 7.840000 88.603683 7.620226 7908.680664
4.080000 4.000000 7.880000 112.284882 60.011421 16209.265625
4.080000 4.000000 7.920000 87.163193 127.125931 23758.423828
4.080000 4.000000 7.960000 15.086036 161.838669 26419.341797
4.080000 4.000000 8.000000 -62.311241 136.943207 22636.132812
4.080000 4.000000 8.040000 -98.099167 70.347244 14572.181641
4.080000 4.000000 8.080000 -79.706642 8.914268 6432.613281
4.080000 4.000000 8.120000 -35.818363 -12.915159 1449.756592
4.080000 4.000000 8.160000 -5.842085 0.694544 34.612347
4.080000 4.000000 8.200000 -4.189787 19.288010 389.581635
4.080000 4.040000 7.800000 38.183899 27.347147 2205.876465
4.080000 4.040000 7.840000 60.161606 53.326279 6463.110352
4.080000 4.040000 7.880000 52.934517 102.562378 13321.103516
4.080000 4.040000 7.920000 3.066168 140.251404 19679.859375
4.080000 4.040000 7.960000 -66.550720 132.970917 22110.263672
4.080000 4.040000 8.000000 -113.636223 79.759781 19274.814453
4.080000 4.040000 8.040000 -112.424500 14.087145 12837.715820
4.080000 4.040000 8.080000 -74.100296 -25.361225 6134.045898
4.080000 4.040000 8.120000 -33.149521 -26.402060 1795.959473
4.080000 4.040000 8.160000 -15.008188 -7.831535 286.578644
4.080000 4.040000 8.200000 -17.357006 4.356762 320.247040
4.080000 4.080000 7.800000 7.599801 40.300831 1681.913940
4.080000 4.080000 7.840000 9.699292 63.977997 4187.260254
4.080000 4.080000 7.880000 -14.900404 89.666725 8262.143555
4.080000 4.080000 7.920000 -60.014835 91.895851 12046.627930
4.080000 4.080000 7.960000 -99.801559 60.329746 13600.029297
4.080000 4.080000 8.000000 -110.002708 9.768333 12196.015625
4.080000 4.080000 8.040000 -87.587517 -32.260319 8712.301758
4.080000 4.080000 8.080000 -50.913189 -47.875076 4884.175781
4.080000 4.080000 8.120000 -22.117908 -40.222599 2107.059326
4.080000 4.080000 8.160000 -9.899481 -25.309362 738.563538
4.080000 4.080000 8.200000 -8.013517 -15.286556 297.895264
4.080000 4.120000 7.800000 -20.276264 28.761684 1238.361328
4.080000 4.120000 7.840000 -28.385723 37.617329 2220.812500
4.080000 4.120000 7.880000 -47.227631 38.076084 3680.237305
4.080000 4.120000 7.920000 -66.328255 23.465357 4950.060547
4.080000 4.120000 7.960000 -74.254166 -2.284370 5518.899414
4.080000 4.120000 8.000000 -66.696495 -28.795204 5277.585938
4.080000 4.120000 8.040000 -47.421890 -46.962051 4454.270020
4.080000 4.120000 8.080000 -23.671417 -53.055214 3375.191650
4.080000 4.120000 8.120000 -1.947417 -47.728367 2281.789551
4.080000 4.120000 8.160000 12.831860 -33.874401 1312.131714
4.080000 4.120000 8.200000 17.199936 -16.419573 565.440186
4.080000 4.160000 7.800000 -29.885393 5.420286 922.516235
4.080000 4.160000 7.840000 -33.918129 -0.672211 1150.891357
4.080000 4.160000 7.880000 -33.305931 -9.738104 1204.115723
4.080000 4.160000 7.920000 -28.648872 -16.125744 1080.797485
4.080000 4.160000 7.960000 -25.254486 -19.365459 1012.810059
4.080000 4.160000 8.000000 -24.356037 -25.111286 1223.793213
4.080000 4.160000 8.040000 -19.158901 -36.436470 1694.679810
4.080000 4.160000 8.080000 -2.485305 -46.306610 2150.479004
4.080000 4.160000 8.120000 21.897810 -42.252468 2264.785156
4.080000 4.160000 8.160000 38.593998 -20.368105 1904.356445
4.080000 4.160000 8.200000 34.225464 6.825391 1217.968262
4.080000 4.200000 7.800000 -22.739471 -11.892927 658.525269
4.080000 4.200000 7.840000 -15.198521 -23.380356 777.636108
4.080000 4.200000 7.880000 0.787684 -24.719788 611.688293
4.080000 4.200000 7.920000 10.605989 -12.532909 269.560852
4.080000 4.200000 7.960000 4.290825 -0.144707 18.432119
4.080000 4.200000 8.000000 -9.393745 -3.731674 102.167847
4.080000 4.200000 8.040000 -10.116318 -22.293514 599.340637
4.080000 4.200000 8.080000 11.235033 -35.220711 1366.724365
4.080000 4.200000 8.120000 39.295055 -23.036121 2074.764160
4.080000 4.200000 8.160000 47.441353 9.891064 2348.515137
4.080000 4.200000 8.200000 25.602207 36.543312 1990.886719
4.120000 3.800000 7.800000 -22.545404 -14.774723 726.587708
4.120000 3.800000 7.840000 -11.290414 -22.043718 613.398926
4.120000 3.800000 7.880000 1.454115 -18.618004 348.744507
4.120000 3.800000 7.920000 6.459423 -8.118039 107.626709
4.120000 3.800000 7.960000 2.421194 -0.044033 5.864120
4.120000 3.800000 8.000000 -3.357780 0.553646 11.581207
4.120000 3.800000 8.040000 -4.114198 -2.027048 21.035545
4.120000 3.800000 8.080000 -1.686403 -0.541569 3.137253
4.120000 3.800000 8.120000 -3.729607 5.209050 41.044167
4.120000 3.800000 8.160000 -13.150657 7.079969 223.065735
4.120000 3.800000 8.200000 -22.509789 -1.762194 509.795898
4.120000 3.840000 7.800000 -11.494311 -34.288204 1307.800049
4.120000 3.840000 7.840000 4.230999 -38.274910 1482.870117
4.120000 3.840000 7.880000 19.987999 -31.493523 1391.362061
4.120000 3.840000 7.920000 28.173721 -16.977554 1081.995850
4.120000 3.840000 7.960000 26.448532 -2.011261 703.570007
4.120000 3.840000 8.000000 18.142536 7.896843 391.511749
4.120000 3.840000 8.040000 7.832258 11.764385 199.745026
4.120000 3.840000 8.080000 -2.164820 10.770722 120.694908
4.120000 3.840000 8.120000 -10.757015 5.129972 142.029984
4.120000 3.840000 8.160000 -15.315779 -5.216409 261.783997
4.120000 3.840000 8.200000 -12.183352 -17.363207 449.915039
4.120000 3.880000 7.800000 15.260468 -41.795204 1979.720947
4.120000 3.880000 7.840000 34.091869 -39.904251 2754.604980
4.120000 3.880000 7.880000 51.882725 -25.491968 3341.657715
4.120000 3.880000 7.920000 58.775215 -0.917435 3455.367676
4.120000 3.880000 7.960000 49.333046 23.884922 3004.239014
4.120000 3.880000 8.000000 27.259121 37.602615 2157.016357
4.120000 3.880000 8.040000 3.249928 35.046043 1238.787109
4.120000 3.880000 8.080000 -12.027641 20.005415 544.880737
4.120000 3.880000 8.120000 -14.139456 1.788060 203.121368
4.120000 3.880000 8.160000 -5.994715 -11.115314 159.486832
4.120000 3.880000 8.200000 5.773903 -15.300246 267.435486
4.120000 3.920000 7.800000 43.136562 -26.072372 2540.531738
4.120000 3.920000 7.840000 61.576187 -16.238377 4055.311523
4.120000 3.920000 7.880000 75.103905 8.687011 5716.061035
4.120000 3.920000 7.920000 70.274307 42.428642 6738.667969
4.120000 3.920000 7.960000 43.276733 68.065323 6505.763672
4.120000 3.920000 8.000000 5.924133 70.650803 5026.631348
4.120000 3.920000 8.040000 -22.049404 49.799004 2966.116943
4.120000 3.920000 8.080000 -28.049789 20.248493 1196.792236
4.120000 3.920000 8.120000 -15.417937 -0.260417 237.780594
4.120000 3.920000 8.160000 1.657903 -4.507067 23.062294
4.120000 3.920000 8.200000 11.415153 1.417947 132.316284
4.120000 3.960000 7.800000 52.206635 7.326942 2779.216797
4.120000 3.960000 7.840000 65.111801 24.342583 4832.108398
4.120000 3.960000 7.880000 66.078827 55.789001 7478.823730
4.120000 3.960000 7.920000 42.742096 87.455925 9475.425781
4.120000 3.960000 7.960000 0.280409 98.128441 9629.269531
4.120000 3.960000 8.000000 -39.331635 78.457985 7702.632812
4.120000 3.960000 8.040000 -54.631615 40.639626 4636.192383
4.120000 3.960000 8.080000 -42.434959 8.621055 1875.048462
4.120000 3.960000 8.120000 -18.905191 -2.047963 361.600403
4.120000 3.960000 8.160000 -3.403168 4.680416 33.487846
4.120000 3.960000 8.200000 -1.633621 13.190821 176.666473
4.120000 4.000000 7.800000 34.322510 37.756428 2603.582520
4.120000 4.000000 7.840000 37.823235 57.243454 4707.410156
4.120000 4.000000 7.880000 23.403912 84.612885 7707.083496
4.120000 4.000000 7.920000 -13.035250 100.020317 10173.981445
4.120000 4.000000 7.960000 -55.439827 87.004112 10643.290039
4.120000 4.000000 8.000000 -79.325684 49.273956 8720.486328
4.120000 4.000000 8.040000 -72.974319 9.189789 5409.703613
4.120000 4.000000 8.080000 -47.171753 -11.402992 2355.202637
4.120000 4.000000 8.120000 -23.941006 -9.145484 656.811646
4.120000 4.000000 8.160000 -16.072102 1.445806 260.402802
4.120000 4.000000 8.200000 -18.121464 5.177083 355.189636
4.120000 4.040000 7.800000 1.373869 45.793373 2098.920410
4.120000 4.040000 7.840000 -4.063334 61.168137 3758.051758
4.120000 4.040000 7.880000 -27.122154 74.474564 6282.071777
4.120000 4.040000 7.920000 -61.112389 68.566185 8436.045898
4.120000 4.040000 7.960000 -86.224434 39.127544 8965.617188
4.120000 4.040000 8.000000 -86.763916 0.522980 7528.250488
4.120000 4.040000 8.040000 -65.150429 -26.271179 4934.753418
4.120000 4.040000 8.080000 -38.668442 -31.641537 2496.435303
4.120000 4.040000 8.120000 -22.893053 -23.412910 1072.256226
4.120000 4.040000 8.160000 -18.986629 -16.006924 616.713745
4.120000 4.040000 8.200000 -17.018036 -15.257482 522.404297
4.120000 4.080000 7.800000 -24.384203 29.523718 1466.239258
4.120000 4.080000 7.840000 -33.827549 36.300499 2462.029297
4.120000 4.080000 7.880000 -53.261646 33.999180 3992.747070
4.120000 4.080000 7.920000 -70.881821 15.752129 5272.361816
4.120000 4.080000 7.960000 -73.869400 -12.186974 5605.210938
4.120000 4.080000 8.000000 -59.895359 -35.866913 4873.889648
4.120000 4.080000 8.040000 -38.111458 -45.840843 3553.866211
4.120000 4.080000 8.080000 -19.728165 -43.656158 2295.060791
4.120000 4.080000 8.120000 -8.675291 -37.194157 1458.665894
4.120000 4.080000 8.160000 -1.559557 -31.381227 987.213623
4.120000 4.080000 8.200000 4.936907 -24.817284 640.270630
4.120000 4.120000 7.800000 -29.416697 4.949756 889.842102
4.120000 4.120000 7.840000 -36.577583 3.206801 1348.203125
4.120000 4.120000 7.880000 -43.464279 -6.803738 1935.434448
4.120000 4.120000 7.920000 -42.997910 -21.629047 2316.635986
4.120000 4.120000 7.960000 -34.475670 -34.223335 2359.808594
4.120000 4.120000 8.000000 -22.394299 -41.044708 2186.172607
4.120000 4.120000 8.040000 -10.291832 -43.485687 1996.926758
4.120000 4.120000 8.080000 2.177561 -43.127453 1864.718994
4.120000 4.120000 8.120000 15.611246 -38.058449 1692.156494
4.120000 4.120000 8.160000 26.277582 -25.698353 1350.916748
4.120000 4.120000 8.200000 27.782925 -8.754175 848.526489
4.120000 4.160000 7.800000 -19.028158 -9.855807 459.207733
4.120000 4.160000 7.840000 -19.791283 -16.421980 661.376282
4.120000 4.160000 7.880000 -14.141434 -23.352577 745.322998
4.120000 4.160000 7.920000 -5.783142 -24.655371 641.332031
4.120000 4.160000 7.960000 -1.323147 -22.182695 493.822693
4.120000 4.160000 8.000000 -0.544252 -23.042030 531.231384
4.120000 4.160000 8.040000 4.493672 -29.024620 862.621704
4.120000 4.160000 8.080000 19.057596 -31.646233 1364.676025
4.120000 4.160000 8.120000 36.290096 -20.662022 1743.890137
4.120000 4.160000 8.160000 41.538998 2.463177 1731.555542
4.120000 4.160000 8.200000 27.833395 22.423399 1277.506714
4.120000 4.200000 7.800000 -9.095584 -10.919938 201.974701
4.120000 4.200000 7.840000 -2.591409 -17.834764 324.794220
4.120000 4.200000 7.880000 8.771146 -15.630634 321.249725
4.120000 4.200000 7.920000 12.869282 -5.032256 190.942001
4.120000 4.200000 7.960000 5.898014 1.481175 36.980450
4.120000 4.200000 8.000000 -0.896614 -4.938880 25.196453
4.120000 4.200000 8.040000 6.450363 -16.484241 313.337402
4.120000 4.200000 8.080000 26.404829 -15.144446 926.569214
4.120000 4.200000 8.120000 40.018795 6.498989 1643.740723
4.120000 4.200000 8.160000 30.197908 33.677444 2046.083984
4.120000 4.200000 8.200000 2.059819 42.370293 1799.484497
4.160000 3.800000 7.800000 -16.429768 -29.873621 1162.370483
4.160000 3.800000 7.840000 -0.411565 -28.105719 790.100769
4.160000 3.800000 7.880000 7.513462 -17.307663 356.007324
4.160000 3.800000 7.920000 5.079172 -8.382524 96.064682
4.160000 3.800000 7.960000 0.457560 -7.807566 61.167442
4.160000 3.800000 8.000000 2.256584 -10.874112 123.338486
4.160000 3.800000 8.040000 9.007353 -7.984674 144.887421
4.160000 3.800000 8.080000 10.560852 2.866413 119.747917
4.160000 3.800000 8.120000 0.510965 12.057175 145.636551
4.160000 3.800000 8.160000 -14.499504 8.368157 280.261688
4.160000 3.800000 8.200000 -19.988827 -7.556903 456.659973
4.160000 3.840000 7.800000 11.136465 -40.171108 1737.738770
4.160000 3.840000 7.840000 25.586727 -26.687313 1366.893311
4.160000 3.840000 7.880000 26.681143 -9.867266 809.246277
4.160000 3.840000 7.920000 18.790115 -0.438005 353.260284
4.160000 3.840000 7.960000 12.068668 0.283312 145.733017
4.160000 3.840000 8.000000 11.181802 -0.263938 125.102356
4.160000 3.840000 8.040000 11.141634 3.916681 139.476395
4.160000 3.840000 8.080000 4.864549 9.498740 113.889900
4.160000 3.840000 8.120000 -6.509449 7.680894 101.369064
4.160000 3.840000 8.160000 -12.964423 -4.448481 187.865250
4.160000 3.840000 8.200000 -6.160090 -18.256227 371.236572
4.160000 3.880000 7.800000 41.593414 -24.508436 2330.675537
4.160000 3.880000 7.840000 45.698738 -2.743323 2095.900635
4.160000 3.880000 7.880000 36.246902 14.337919 1519.413818
4.160000 3.880000 7.920000 22.175257 20.197981 899.700439
4.160000 3.880000 7.960000 12.319900 18.063400 478.066345
4.160000 3.880000 8.000000 7.877516 15.240541 294.329346
4.160000 3.880000 8.040000 4.015967 14.488363 226.040665
4.160000 3.880000 8.080000 -2.155844 12.074835 150.449295
4.160000 3.880000 8.120000 -6.906294 4.137708 64.817520
4.160000 3.880000 8.160000 -4.022961 -6.560055 59.218533
4.160000 3.880000 8.200000 7.070982 -11.819349 189.695801
4.160000 3.920000 7.800000 51.633648 11.794689 2805.148438
4.160000 3.920000 7.840000 41.779976 32.396751 2795.115967
4.160000 3.920000 7.880000 23.318632 42.211548 2325.573486
4.160000 3.920000 7.920000 5.986144 40.050049 1639.840332
4.160000 3.920000 7.960000 -4.202880 31.649450 1019.351868
4.160000 3.920000 8.000000 -7.920441 23.403160 610.441284
4.160000 3.920000 8.040000 -9.038928 17.326607 381.913513
4.160000 3.920000 8.080000 -9.438512 11.731103 226.704285
4.160000 3.920000 8.120000 -7.673843 5.552318 89.716095
4.160000 3.920000 8.160000 -2.157091 0.874846 5.418396
4.160000 3.920000 8.200000 5.514836 0.973341 31.360807
4.160000 3.960000 7.800000 30.981609 45.079178 2991.992432
4.160000 3.960000 7.840000 11.870784 55.290955 3198.005127
4.160000 3.960000 7.880000 -8.760593 53.318832 2919.645996
4.160000 3.960000 7.920000 -23.175478 41.831444 2286.972412
4.160000 3.960000 7.960000 -28.160709 27.492191 1548.846191
4.160000 3.960000 8.000000 -25.861965 16.271505 933.603149
4.160000 3.960000 8.040000 -20.985199 10.233417 545.101379
4.160000 3.960000 8.080000 -17.044319 7.696281 349.741577
4.160000 3.960000 8.120000 -14.504004 5.929513 245.525238
4.160000 3.960000 8.160000 -11.691102 3.830572 151.355148
4.160000 3.960000 8.200000 -7.214633 2.697013 59.324818
4.160000 4.000000 7.800000 -6.803299 52.205154 2771.663086
4.160000 4.000000 7.840000 -25.460905 49.503654 3098.869629
4.160000 4.000000 7.880000 -40.162487 37.461952 3016.423340
4.160000 4.000000 7.920000 -45.858269 20.495029 2523.026855
4.160000 4.000000 7.960000 -41.956875 5.477840 1790.386108
4.160000 4.000000 8.000000 -32.925163 -2.473647 1090.185303
4.160000 4.000000 8.040000 -25.194969 -3.357914 646.062073
4.160000 4.000000 8.080000 -22.329027 -1.874210 502.098114
4.160000 4.000000 8.120000 -22.433514 -3.051603 512.574829
4.160000 4.000000 8.160000 -20.405602 -7.503447 472.690308
4.160000 4.000000 8.200000 -13.337204 -10.693056 292.222473
4.160000 4.040000 7.800000 -34.958897 30.715824 2165.586426
4.160000 4.040000 7.840000 -45.682762 20.303776 2499.158203
4.160000 4.040000 7.880000 -50.270554 4.804242 2550.209473
4.160000 4.040000 7.920000 -45.895035 -10.599575 2218.705322
4.160000 4.040000 7.960000 -34.937645 -19.618778 1605.535522
4.160000 4.040000 8.000000 -24.188301 -20.087547 988.583496
4.160000 4.040000 8.040000 -19.392708 -16.282095 641.183716
4.160000 4.040000 8.080000 -19.995272 -15.184823 630.389771
4.160000 4.040000 8.120000 -19.675123 -19.623215 772.181030
4.160000 4.040000 8.160000 -12.872327 -25.080622 794.734375
4.160000 4.040000 8.200000 -1.116992 -23.939270 574.336304
4.160000 4.080000 7.800000 -36.817623 0.559583 1355.850464
4.160000 4.080000 7.840000 -39.082962 -9.977260 1627.023560
4.160000 4.080000 7.880000 -35.167080 -22.274160 1732.861694
4.160000 4.080000 7.920000 -24.627483 -30.440216 1533.119629
4.160000 4.080000 7.960000 -12.950138 -30.485947 1097.098999
4.160000 4.080000 8.000000 -6.822213 -25.198647 681.514404
4.160000 4.080000 8.040000 -7.138880 -21.938086 532.243225
4.160000 4.080000 8.080000 -7.658017 -24.932274 680.263489
4.160000 4.080000 8.120000 -1.586822 -30.231651 916.470764
4.160000 4.080000 8.160000 10.517505 -29.384130 974.045044
4.160000 4.080000 8.200000 20.243868 -18.501379 752.115234
4.160000 4.120000 7.800000 -19.521114 -14.982551 605.550720
4.160000 4.120000 7.840000 -17.775469 -22.103985 804.553467
4.160000 4.120000 7.880000 -9.985432 -28.483864 911.039368
4.160000 4.120000 7.920000 0.658953 -28.273405 799.819641
4.160000 4.120000 7.960000 6.952102 -22.031107 533.701355
4.160000 4.120000 8.000000 6.273516 -16.935276 326.160583
4.160000 4.120000 8.040000 4.417463 -18.546087 363.471344
4.160000 4.120000 8.080000 9.291773 -23.512104 639.156067
4.160000 4.120000 8.120000 21.114241 -22.417721 948.365356
4.160000 4.120000 8.160000 30.648245 -10.426112 1048.018799
4.160000 4.120000 8.200000 28.455462 6.106402 847.001465
4.160000 4.160000 7.800000 -4.742018 -10.599152 134.828751
4.160000 4.160000 7.840000 -2.234568 -16.078199 263.501770
4.160000 4.160000 7.880000 6.039162 -17.477108 341.920776
4.160000 4.160000 7.920000 12.543457 -11.646527 292.979919
4.160000 4.160000 7.960000 11.621654 -4.813047 158.228256
4.160000 4.160000 8.000000 7.436255 -4.798921 78.327530
4.160000 4.160000 8.040000 9.533139 -10.289787 196.760468
4.160000 4.160000 8.080000 20.494438 -10.828094 537.269592
4.160000 4.160000 8.120000 30.708355 1.072526 944.153381
4.160000 4.160000 8.160000 27.892679 19.468239 1157.013916
4.160000 4.160000 8.200000 11.545339 29.435619 999.750549
4.160000 4.200000 7.800000 -6.045362 -1.465568 38.694294
4.160000 4.200000 7.840000 -1.258000 -7.663302 60.308769
4.160000 4.200000 7.880000 6.756907 -5.316434 73.920258
4.160000 4.200000 7.920000 8.081139 2.528620 71.698723
4.160000 4.200000 7.960000 2.478790 5.574844 37.223289
4.160000 4.200000 8.000000 0.107328 0.325029 0.117163
4.160000 4.200000 8.040000 8.173479 -3.894851 81.975624
4.160000 4.200000 8.080000 19.764973 4.360302 409.666382
4.160000 4.200000 8.120000 19.757645 23.147358 926.164673
4.160000 4.200000 8.160000 2.683743 36.220650 1319.137939
4.160000 4.200000 8.200000 -18.290279 30.052456 1237.684448
4.200000 3.800000 7.800000 -1.021327 -37.074402 1375.554321
4.200000 3.800000 7.840000 11.175035 -25.956366 798.614319
4.200000 3.800000 7.880000 10.824869 -14.448685 325.942291
4.200000 3.800000 7.920000 5.800593 -12.074520 179.440918
4.200000 3.800000 7.960000 7.314400 -15.673432 299.156921
4.200000 3.800000 8.000000 16.498497 -13.738345 460.942535
4.200000 3.800000 8.040000 22.452408 -0.651260 504.534760
4.200000 3.800000 8.080000 14.598166 15.147940 442.566528
4.200000 3.800000 8.120000 -4.034669 19.001381 377.331055
4.200000 3.800000 8.160000 -17.917076 6.094280 358.161865
4.200000 3.800000 8.200000 -14.386473 -11.861837 347.673767
4.200000 3.840000 7.800000 30.525696 -29.125380 1780.105835
4.200000 3.840000 7.840000 31.129055 -7.024889 1018.367126
4.200000 3.840000 7.880000 17.514732 3.878644 321.809723
4.200000 3.840000 7.920000 6.408509 -0.874680 41.834049
4.200000 3.840000 7.960000 8.722436 -9.215631 161.008759
4.200000 3.840000 8.000000 18.442596 -6.865511 387.264587
4.200000 3.840000 8.040000 20.340086 6.430789 455.074127
4.200000 3.840000 8.080000 7.878467 16.591776 337.357269
4.200000 3.840000 8.120000 -8.565002 11.220558 199.260193
4.200000 3.840000 8.160000 -12.496153 -5.809011 189.898438
4.200000 3.840000 8.200000 0.559478 -17.426756 304.004852
4.200000 3.880000 7.800000 46.504761 3.909858 2177.979980
4.200000 3.880000 7.840000 28.284153 24.575241 1403.935791
4.200000 3.880000 7.880000 4.345985 22.831673 540.172852
4.200000 3.880000 7.920000 -4.939075 5.670547 56.549576
4.200000 3.880000 7.960000 4.343357 -6.879667 66.194565
4.200000 3.880000 8.000000 17.422506 -2.621532 310.416168
4.200000 3.880000 8.040000 17.758516 11.290062 442.830383
4.200000 3.880000 8.080000 4.601333 17.668192 333.337280
4.200000 3.880000 8.120000 -7.288518 8.680120 128.466980
4.200000 3.880000 8.160000 -4.595888 -5.894961 55.872757
4.200000 3.880000 8.200000 9.851130 -9.802334 193.130524
4.200000 3.920000 7.800000 30.732033 40.196926 2560.250732
4.200000 3.920000 7.840000 -0.677812 44.559101 1985.973022
4.200000 3.920000 7.880000 -22.215588 24.197309 1079.042114
4.200000 3.920000 7.920000 -18.940186 -1.804886 361.988220
4.200000 3.920000 7.960000 1.313339 -11.484076 133.608841
4.200000 3.920000 8.000000 17.045412 -0.320683 290.648926
4.200000 3.920000 8.040000 14.532598 16.583878 486.221436
4.200000 3.920000 8.080000 -0.245523 21.412745 458.565887
4.200000 3.920000 8.120000 -10.201698 11.286045 231.449463
4.200000 3.920000 8.160000 -5.677608 -0.923147 33.087433
4.200000 3.920000 8.200000 6.678052 -1.674705 47.401016
4.200000 3.960000 7.800000 -7.956078 52.390854 2808.100586
4.200000 3.960000 7.840000 -36.634659 35.107262 2574.618164
4.200000 3.960000 7.880000 -42.058403 2.642505 1775.892090
4.200000 3.960000 7.920000 -21.742924 -20.299156 884.810486
4.200000 3.960000 7.960000 5.608974 -18.053822 357.401062
4.200000 3.960000 8.000000 17.565617 2.868148 316.777161
4.200000 3.960000 8.040000 7.719920 21.533092 523.271240
4.200000 3.960000 8.080000 -10.812570 22.635891 629.295227
4.200000 3.960000 8.120000 -19.909405 9.063151 478.525116
4.200000 3.960000 8.160000 -13.434223 -3.756944 194.592972
4.200000 3.960000 8.200000 -0.622263 -4.043901 16.740349
4.200000 4.000000 7.800000 -41.409981 31.713669 2720.543213
4.200000 4.000000 7.840000 -53.100861 1.785448 2822.889160
4.200000 4.000000 7.880000 -38.583885 -27.706181 2256.348633
4.200000 4.000000 7.920000 -7.904089 -35.892525 1350.747925
4.200000 4.000000 7.960000 15.919709 -18.721611 603.935852
4.200000 4.000000 8.000000 16.523155 7.710510 332.466614
4.200000 4.000000 8.040000 -2.496297 21.671154 475.870422
4.200000 4.000000 8.080000 -22.353279 14.367057 706.081421
4.200000 4.000000 8.120000 -26.542877 -4.307722 723.080811
4.200000 4.000000 8.160000 -14.314446 -16.680952 483.157532
4.200000 4.000000 8.200000 1.221374 -13.383335 180.605423
4.200000 4.040000 7.800000 -46.505875 -3.699664 2176.483887
4.200000 4.040000 7.840000 -39.471115 -30.332722 2478.042969
4.200000 4.040000 7.880000 -13.951689 -44.756451 2197.789551
4.200000 4.040000 7.920000 13.904518 -35.828049 1476.984619
4.200000 4.040000 7.960000 24.712175 -10.247602 715.704956
4.200000 4.040000 8.000000 12.338680 12.090269 298.417633
4.200000 4.040000 8.040000 -10.778651 14.725429 333.017578
4.200000 4.040000 8.080000 -24.615963 -1.691535 608.806885
4.200000 4.040000 8.120000 -18.786623 -21.063190 796.595215
4.200000 4.040000 8.160000 -0.365477 -26.700291 713.039062
4.200000 4.040000 8.200000 13.987426 -15.392836 432.587463
4.200000 4.080000 7.800000 -25.534286 -25.434725 1298.925049
4.200000 4.080000 7.840000 -10.261335 -38.965027 1623.568359
4.200000 4.080000 7.880000 12.621854 -37.854065 1592.241333
4.200000 4.080000 7.920000 28.149590 -19.893446 1188.148682
4.200000 4.080000 7.960000 24.867470 2.983898 627.294678
4.200000 4.080000 8.000000 6.066551 13.628373 222.535599
4.200000 4.080000 8.040000 -11.884838 4.741901 163.735001
4.200000 4.080000 8.080000 -13.702918 -14.232553 390.335541
4.200000 4.080000 8.120000 1.239374 -25.626585 658.257935
4.200000 4.080000 8.160000 18.935961 -19.530952 740.028687
4.200000 4.080000 8.200000 24.161936 -2.044175 587.977783
4.200000 4.120000 7.800000 -2.546385 -21.033386 448.887421
4.200000 4.120000 7.840000 9.172430 -24.204239 669.978638
4.200000 4.120000 7.880000 22.266254 -16.628754 772.301514
4.200000 4.120000 7.920000 25.839634 -0.408175 667.853333
4.200000 4.120000 7.960000 15.543503 12.641562 401.409546
4.200000 4.120000 8.000000 -0.138111 11.718187 137.334991
4.200000 4.120000 8.040000 -6.788266 -1.533396 48.431862
4.200000 4.120000 8.080000 1.882601 -13.537102 186.797318
4.200000 4.120000 8.120000 17.378254 -11.786533 440.926086
4.200000 4.120000 8.160000 24.708181 2.795412 618.308533
4.200000 4.120000 8.200000 17.264662 17.109825 590.814697
4.200000 4.160000 7.800000 0.959335 -4.202129 18.578215
4.200000 4.160000 7.840000 6.576945 -6.425242 84.539948
4.200000 4.160000 7.880000 12.924290 -0.937567 167.916290
4.200000 4.160000 7.920000 11.627681 8.747983 211.730164
4.200000 4.160000 7.960000 2.572468 12.842034 171.535431
4.200000 4.160000 8.000000 -4.710835 6.862860 69.290817
4.200000 4.160000 8.040000 -1.550483 -2.036666 6.552006
4.200000 4.160000 8.080000 9.246703 -2.289415 90.742935
4.200000 4.160000 8.120000 15.510969 8.854239 318.987701
4.200000 4.160000 8.160000 9.021812 21.399839 539.346191
4.200000 4.160000 8.200000 -4.861059 23.257202 564.527344
4.200000 4.200000 7.800000 -13.195940 0.978086 175.089478
4.200000 4.200000 7.840000 -7.096902 -4.960590 74.973473
4.200000 4.200000 7.880000 -0.709758 -2.118870 4.993365
4.200000 4.200000 7.920000 -1.297270 3.624972 14.823334
4.200000 4.200000 7.960000 -5.939451 4.074283 51.876862
4.200000 4.200000 8.000000 -6.153986 -0.369760 38.008266
4.200000 4.200000 8.040000 0.185201 -1.084209 1.209808
4.200000 4.200000 8.080000 4.822661 7.193542 75.005119
4.200000 4.200000 8.120000 -1.127045 17.994495 325.072083
4.200000 4.200000 8.160000 -15.019275 19.350786 600.031555
4.200000 4.200000 8.200000 -23.700624 8.386993 632.061279
