#kx 	ky 	kz 	real 	imag 	intensity
6.800000 0.800000 6.800000 -29.499561 3.917905 885.574097
6.800000 0.800000 6.840000 -27.887915 -6.924699 825.687256
6.800000 0.800000 6.880000 -20.368813 -16.838383 698.419678
6.800000 0.800000 6.920000 -7.503790 -21.473293 517.409180
6.800000 0.800000 6.960000 6.175217 -17.526230 345.302032
6.800000 0.800000 7.000000 14.405371 -6.317026 247.419525
6.800000 0.800000 7.040000 13.994292 6.290660 235.412613
6.800000 0.800000 7.080000 7.415379 14.416778 262.831299
6.800000 0.800000 7.120000 0.113865 16.837620 283.518402
6.800000 0.800000 7.160000 -4.945179 16.886078 309.594421
6.800000 0.800000 7.200000 -9.624485 17.520454 399.597015
6.800000 0.840000 6.800000 -23.479101 -18.561560 895.799683
6.800000 0.840000 6.840000 -16.355406 -21.770458 741.452148
6.800000 0.840000 6.880000 -7.823955 -22.946535 587.757751
6.800000 0.840000 6.920000 1.400732 -19.164425 369.237213
6.800000 0.840000 6.960000 6.319487 -9.739073 134.785461
6.800000 0.840000 7.000000 2.789834 -0.049619 7.785636
6.800000 0.840000 7.040000 -6.218751 2.343817 44.166340
6.800000 0.840000 7.080000 -11.722370 -3.953744 153.046051
6.800000 0.840000 7.120000 -7.678837 -11.178174 183.916107
6.800000 0.840000 7.160000 1.598383 -9.667679 96.018837
6.800000 0.840000 7.200000 4.669769 1.310440 23.523998
6.800000 0.880000 6.800000 -2.275954 -30.877871 958.622864
6.800000 0.880000 6.840000 3.518227 -24.762136 625.541321
6.800000 0.880000 6.880000 6.545354 -18.656496 390.906494
6.800000 0.880000 6.920000 6.385363 -11.429001 171.394913
6.800000 0.880000 6.960000 0.264619 -5.759699 33.244152
6.800000 0.880000 7.000000 -9.621868 -8.238036 160.445587
6.800000 0.880000 7.040000 -13.589272 -20.906815 621.763245
6.800000 0.880000 7.080000 -2.917328 -34.537682 1201.362183
6.800000 0.880000 7.120000 18.570667 -34.278851 1519.909180
6.800000 0.880000 7.160000 33.996811 -14.551819 1367.538574
6.800000 0.880000 7.200000 27.764538 12.249054 920.908875
6.800000 0.920000 6.800000 21.700741 -24.163179 1054.781372
6.800000 0.920000 6.840000 19.995304 -12.325714 551.735413
6.800000 0.920000 6.880000 13.722033 -5.108386 214.389786
6.800000 0.920000 6.920000 4.323157 -3.001776 27.700348
6.800000 0.920000 6.960000 -5.881667 -9.328580 121.616402
6.800000 0.920000 7.000000 -8.703504 -25.522003 727.123596
6.800000 0.920000 7.040000 5.186321 -43.050327 1880.228638
6.800000 0.920000 7.080000 33.953259 -45.137184 3190.188965
6.800000 0.920000 7.120000 59.474545 -21.456558 3997.605225
6.800000 0.920000 7.160000 59.506439 17.928106 3862.433350
6.800000 0.920000 7.200000 28.499691 46.261665 2952.374023
6.800000 0.960000 6.800000 33.106804 -2.550099 1102.563477
6.800000 0.960000 6.840000 21.962807 8.096841 547.923706
6.800000 0.960000 6.880000 8.412557 8.977696 151.370148
6.800000 0.960000 6.920000 -2.852463 0.184601 8.170622
6.800000 0.960000 6.960000 -5.321258 -17.303358 327.721985
6.800000 0.960000 7.000000 8.691516 -35.955956 1368.373169
6.800000 0.960000 7.040000 38.860504 -40.244408 3129.750977
6.800000 0.960000 7.080000 69.249176 -17.483633 5101.125488
6.800000 0.960000 7.120000 75.552055 26.719154 6422.026367
6.800000 0.960000 7.160000 45.522858 66.113892 6443.377441
6.800000 0.960000 7.200000 -6.137008 72.118759 5238.778320
6.800000 1.000000 6.800000 25.474808 19.407398 1025.612915
6.800000 1.000000 6.840000 8.260265 22.549896 576.729797
6.800000 1.000000 6.880000 -5.376964 13.415310 208.882278
6.800000 1.000000 6.920000 -8.804216 -3.985775 93.400635
6.800000 1.000000 6.960000 3.240225 -21.892597 489.784851
6.800000 1.000000 7.000000 30.248648 -27.414383 1666.529053
6.800000 1.000000 7.040000 59.635666 -8.687592 3631.886963
6.800000 1.000000 7.080000 69.564636 32.462196 5893.033203
6.800000 1.000000 7.120000 44.742775 74.569313 7562.498535
6.800000 1.000000 7.160000 -6.948131 88.432495 7868.582520
6.800000 1.000000 7.200000 -55.115501 60.602036 6710.325195
6.800000 1.040000 6.800000 5.894269 28.082329 823.359619
6.800000 1.040000 6.840000 -10.711114 21.513844 577.573425
6.800000 1.040000 6.880000 -16.730658 5.317093 308.186401
6.800000 1.040000 6.920000 -7.921654 -11.312778 190.731567
6.800000 1.040000 6.960000 13.834354 -17.239464 488.588501
6.800000 1.040000 7.000000 38.187912 -3.301225 1469.214722
6.800000 1.040000 7.040000 47.949860 29.882030 3192.124756
6.800000 1.040000 7.080000 29.293461 66.609314 5294.907715
6.800000 1.040000 7.120000 -14.815237 82.463837 7019.775391
6.800000 1.040000 7.160000 -61.264816 61.967655 7593.368164
6.800000 1.040000 7.200000 -80.976219 13.533053 6740.291504
6.800000 1.080000 6.800000 -11.663787 20.906158 573.111389
6.800000 1.080000 6.840000 -21.552883 7.499457 520.768616
6.800000 1.080000 6.880000 -17.053364 -8.106325 356.529724
6.800000 1.080000 6.920000 -0.656621 -14.587894 213.237823
6.800000 1.080000 6.960000 17.745672 -4.844279 338.375916
6.800000 1.080000 7.000000 24.712681 19.520565 991.769043
6.800000 1.080000 7.040000 10.430702 46.475883 2268.807373
6.800000 1.080000 7.080000 -23.116375 58.268410 3929.574219
6.800000 1.080000 7.120000 -59.710613 42.775475 5395.098633
6.800000 1.080000 7.160000 -77.402344 4.275137 6009.399902
6.800000 1.080000 7.200000 -64.092369 -36.578793 5445.839844
6.800000 1.120000 6.800000 -18.002354 6.374407 364.717804
6.800000 1.120000 6.840000 -18.896542 -8.071936 422.235413
6.800000 1.120000 6.880000 -7.498974 -16.164318 317.519806
6.800000 1.120000 6.920000 6.489237 -10.341005 149.046585
6.800000 1.120000 6.960000 10.799239 6.995544 165.561203
6.800000 1.120000 7.000000 -1.258653 24.696815 611.516907
6.800000 1.120000 7.040000 -25.857334 29.580217 1543.591064
6.800000 1.120000 7.080000 -50.044746 14.988662 2729.136475
6.800000 1.120000 7.120000 -59.281578 -13.976183 3709.639160
6.800000 1.120000 7.160000 -47.045158 -42.622002 4029.881836
6.800000 1.120000 7.200000 -19.858698 -55.843910 3512.910156
6.800000 1.160000 6.800000 -14.539497 -5.194013 238.374756
6.800000 1.160000 6.840000 -8.458172 -15.641483 316.196686
6.800000 1.160000 6.880000 2.981538 -14.557679 220.815598
6.800000 1.160000 6.920000 7.171479 -2.487578 57.618160
6.800000 1.160000 6.960000 -2.739669 9.609480 99.847885
6.800000 1.160000 7.000000 -21.715137 9.427171 560.418762
6.800000 1.160000 7.040000 -36.574547 -6.533238 1380.380737
6.800000 1.160000 7.080000 -36.259300 -30.001110 2214.803467
6.800000 1.160000 7.120000 -20.177711 -47.263992 2641.025146
6.800000 1.160000 7.160000 1.778460 -49.355072 2439.085938
6.800000 1.160000 7.200000 17.036936 -38.061653 1738.946655
6.800000 1.200000 6.800000 -8.721051 -10.595041 188.311630
6.800000 1.200000 6.840000 0.429055 -15.232860 232.224091
6.800000 1.200000 6.880000 7.136120 -8.443909 122.223801
6.800000 1.200000 6.920000 1.742260 1.399541 4.994184
6.800000 1.200000 6.960000 -13.138564 1.036889 173.697006
6.800000 1.200000 7.000000 -23.981970 -14.472507 784.588318
6.800000 1.200000 7.040000 -18.646202 -35.892967 1635.985840
6.800000 1.200000 7.080000 1.950521 -47.351189 2245.939453
6.800000 1.200000 7.120000 23.940350 -40.368500 2202.756104
6.800000 1.200000 7.160000 32.397671 -21.429338 1508.825562
6.800000 1.200000 7.200000 24.088890 -6.228498 619.068787
6.840000 0.800000 6.800000 -36.796547 -2.593178 1360.710449
6.840000 0.800000 6.840000 -31.556259 -15.036366 1221.889771
6.840000 0.800000 6.880000 -19.497326 -23.723125 942.932373
6.840000 0.800000 6.920000 -4.033822 -24.146591 599.329590
6.840000 0.800000 6.960000 8.478325 -15.547756 313.614716
6.840000 0.800000 7.000000 12.899271 -2.244848 171.430527
6.840000 0.800000 7.040000 8.988334 9.266125 166.651215
6.840000 0.800000 7.080000 0.986198 15.009316 226.252167
6.840000 0.800000 7.120000 -6.447426 15.685691 287.610199
6.840000 0.800000 7.160000 -11.968971 14.343503 348.992371
6.840000 0.800000 7.200000 -17.236450 12.236622 446.830139
6.840000 0.840000 6.800000 -20.080215 -25.809786 1069.360107
6.840000 0.840000 6.840000 -8.559664 -26.712364 786.818237
6.840000 0.840000 6.880000 2.091902 -21.231291 455.143738
6.840000 0.840000 6.920000 6.961510 -10.415645 156.948273
6.840000 0.840000 6.960000 3.013210 -0.088856 9.087332
6.840000 0.840000 7.000000 -6.453383 2.754314 49.232403
6.840000 0.840000 7.040000 -13.001060 -3.351112 180.257523
6.840000 0.840000 7.080000 -10.383831 -11.730364 245.425385
6.840000 0.840000 7.120000 -1.127533 -13.083813 172.457489
6.840000 0.840000 7.160000 4.964764 -4.712513 46.856659
6.840000 0.840000 7.200000 0.141579 5.870197 34.479263
6.840000 0.880000 6.800000 10.001608 -28.478832 911.076050
6.840000 0.880000 6.840000 17.284660 -14.751030 516.352356
6.840000 0.880000 6.880000 14.212503 1.117805 203.244751
6.840000 0.880000 6.920000 -0.064167 10.763365 115.854141
6.840000 0.880000 6.960000 -18.255529 5.768980 366.545471
6.840000 0.880000 7.000000 -26.645908 -13.657625 896.535156
6.840000 0.880000 7.040000 -15.504822 -34.738998 1447.197510
6.840000 0.880000 7.080000 10.305118 -40.045357 1709.826050
6.840000 0.880000 7.120000 32.313560 -22.508936 1550.818359
6.840000 0.880000 7.160000 32.826496 6.396433 1118.493164
6.840000 0.880000 7.200000 10.739201 24.750900 727.937500
6.840000 0.920000 6.800000 31.776936 -6.704285 1054.721069
6.840000 0.920000 6.840000 24.012466 15.052923 803.189087
6.840000 0.920000 6.880000 1.558037 27.197529 742.133057
6.840000 0.920000 6.920000 -26.049473 18.855999 1034.123779
6.840000 0.920000 6.960000 -40.504814 -10.690254 1754.921509
6.840000 0.920000 7.000000 -26.684774 -45.345852 2768.323486
6.840000 0.920000 7.040000 12.189794 -59.784386 3722.763916
6.840000 0.920000 7.080000 51.833122 -39.155125 4219.796387
6.840000 0.920000 7.120000 63.423096 5.802477 4056.157715
6.840000 0.920000 7.160000 37.379524 44.271084 3357.157715
6.840000 0.920000 7.200000 -7.212360 49.411880 2493.552002
6.840000 0.960000 6.800000 28.753094 23.678999 1387.435425
6.840000 0.960000 6.840000 3.475292 39.661060 1585.077393
6.840000 0.960000 6.880000 -30.037174 33.246277 2007.546753
6.840000 0.960000 6.920000 -51.992416 0.752449 2703.777588
6.840000 0.960000 6.960000 -42.499420 -43.054844 3659.920410
6.840000 0.960000 7.000000 0.695753 -68.976654 4758.262695
6.840000 0.960000 7.040000 53.702339 -53.695095 5767.104492
6.840000 0.960000 7.080000 79.952988 -1.393054 6394.420898
6.840000 0.960000 7.120000 58.522396 54.616669 6407.851562
6.840000 0.960000 7.160000 3.100294 75.870911 5766.006836
6.840000 0.960000 7.200000 -47.206154 49.450108 4673.734375
6.840000 1.000000 6.800000 4.107433 39.949924 1612.867432
6.840000 1.000000 6.840000 -29.356421 38.559998 2348.672852
6.840000 1.000000 6.880000 -56.010384 10.568397 3248.854004
6.840000 1.000000 6.920000 -54.702652 -33.936897 4144.093262
6.840000 1.000000 6.960000 -17.194210 -67.981049 4917.063477
6.840000 1.000000 7.000000 39.081230 -63.717155 5587.218750
6.840000 1.000000 7.040000 77.419952 -15.991266 6249.569824
6.840000 1.000000 7.080000 67.984131 47.736763 6900.640625
6.840000 1.000000 7.120000 13.555755 84.485733 7321.597168
6.840000 1.000000 7.160000 -49.379063 68.871201 7181.534180
6.840000 1.000000 7.200000 -78.187073 13.944403 6307.664551
6.840000 1.040000 6.800000 -22.423710 31.794317 1513.701416
6.840000 1.040000 6.840000 -48.942894 12.534245 2552.514404
6.840000 1.040000 6.880000 -54.892559 -24.665663 3621.587891
6.840000 1.040000 6.920000 -29.215313 -59.279430 4367.585449
6.840000 1.040000 6.960000 19.043877 -65.379868 4637.196289
6.840000 1.040000 7.000000 60.580433 -31.198248 4643.319336
6.840000 1.040000 7.040000 64.174896 26.738401 4833.359375
6.840000 1.040000 7.080000 22.006227 70.776215 5493.546387
6.840000 1.040000 7.120000 -40.223717 69.309608 6421.769043
6.840000 1.040000 7.160000 -80.545952 22.598171 6998.327637
6.840000 1.040000 7.200000 -73.057381 -36.244549 6651.048340
6.840000 1.080000 6.800000 -32.333302 8.803297 1122.940430
6.840000 1.080000 6.840000 -42.032082 -17.409679 2069.792969
6.840000 1.080000 6.880000 -28.372353 -45.728535 2896.089355
6.840000 1.080000 6.920000 5.236644 -56.583889 3229.158936
6.840000 1.080000 6.960000 39.687977 -37.625858 2990.840820
6.840000 1.080000 7.000000 50.219460 4.228579 2539.875000
6.840000 1.080000 7.040000 24.752331 43.167671 2476.125732
6.840000 1.080000 7.080000 -23.699368 51.151520 3178.138184
6.840000 1.080000 7.120000 -63.488491 19.905945 4427.035156
6.840000 1.080000 7.160000 -67.383080 -30.627623 5478.530762
6.840000 1.080000 7.200000 -33.883911 -66.611046 5585.150391
6.840000 1.120000 6.800000 -23.441254 -10.356191 656.743042
6.840000 1.120000 6.840000 -18.287510 -30.071175 1238.708496
6.840000 1.120000 6.880000 1.050020 -40.056046 1605.589355
6.840000 1.120000 6.920000 22.964037 -31.748520 1535.315430
6.840000 1.120000 6.960000 32.067078 -8.044971 1093.019043
6.840000 1.120000 7.000000 19.440462 16.492365 649.929688
6.840000 1.120000 7.040000 -9.494198 24.133303 672.556091
6.840000 1.120000 7.080000 -36.529751 6.813283 1380.843506
6.840000 1.120000 7.120000 -42.735626 -26.358631 2521.111084
6.840000 1.120000 7.160000 -22.757631 -54.356987 3472.591797
6.840000 1.120000 7.200000 10.491022 -59.564724 3658.017822
6.840000 1.160000 6.800000 -8.378326 -15.457130 309.119232
6.840000 1.160000 6.840000 1.374381 -22.779016 520.772522
6.840000 1.160000 6.880000 12.428070 -19.379112 530.006897
6.840000 1.160000 6.920000 15.825650 -8.561390 323.748596
6.840000 1.160000 6.960000 8.534584 0.752428 73.405273
6.840000 1.160000 7.000000 -4.536087 0.513586 20.839857
6.840000 1.160000 7.040000 -13.986694 -10.807330 312.426025
6.840000 1.160000 7.080000 -12.363345 -27.085278 886.464539
6.840000 1.160000 7.120000 0.719779 -38.599113 1490.409668
6.840000 1.160000 7.160000 18.284729 -38.604008 1824.600708
6.840000 1.160000 7.200000 30.866196 -27.888630 1730.497803
6.840000 1.200000 6.800000 0.268341 -11.510327 132.559647
6.840000 1.200000 6.840000 5.933389 -10.393758 143.235306
6.840000 1.200000 6.880000 5.671872 -5.481262 62.214363
6.840000 1.200000 6.920000 -0.827024 -4.762981 23.369961
6.840000 1.200000 6.960000 -6.429996 -12.576498 199.513153
6.840000 1.200000 7.000000 -3.288319 -24.826559 627.171082
6.840000 1.200000 7.040000 9.508993 -32.236191 1129.592896
6.840000 1.200000 7.080000 24.606899 -28.577295 1422.161377
6.840000 1.200000 7.120000 32.582081 -16.240902 1325.358887
6.840000 1.200000 7.160000 29.931488 -4.136485 913.004517
6.840000 1.200000 7.200000 21.710472 -0.048672 471.346985
6.880000 0.800000 6.800000 -38.204956 -17.327148 1759.848755
6.880000 0.800000 6.840000 -28.214903 -28.298950 1596.911377
6.880000 0.800000 6.880000 -12.869821 -32.695854 1234.651245
6.880000 0.800000 6.920000 2.506519 -27.848942 781.846191
6.880000 0.800000 6.960000 11.869154 -15.729903 388.306671
6.880000 0.800000 7.000000 12.325800 -2.048613 156.122147
6.880000 0.800000 7.040000 5.833420 7.447580 89.495239
6.880000 0.800000 7.080000 -2.704268 10.519342 117.969627
6.880000 0.800000 7.120000 -9.246468 8.949256 165.586334
6.880000 0.800000 7.160000 -12.998855 5.876284 203.500916
6.880000 0.800000 7.200000 -15.444613 2.626137 245.432678
6.880000 0.840000 6.800000 -9.892069 -32.733669 1169.346191
6.880000 0.840000 6.840000 3.011988 -26.548248 713.881592
6.880000 0.840000 6.880000 8.723614 -13.739053 264.863007
6.880000 0.840000 6.920000 3.958191 -1.782515 18.844633
6.880000 0.840000 6.960000 -7.023041 1.376839 51.218784
6.880000 0.840000 7.000000 -14.761373 -5.711628 250.520813
6.880000 0.840000 7.040000 -12.323139 -15.984553 407.365723
6.880000 0.840000 7.080000 -1.616829 -19.526037 383.880280
6.880000 0.840000 7.120000 7.944264 -12.328058 215.092346
6.880000 0.840000 7.160000 7.696564 -0.096287 59.246365
6.880000 0.840000 7.200000 -2.398039 6.670419 50.245079
6.880000 0.880000 6.800000 21.111538 -18.751949 797.332642
6.880000 0.880000 6.840000 20.585482 4.354823 442.726532
6.880000 0.880000 6.880000 1.436039 21.589378 468.163452
6.880000 0.880000 6.920000 -26.688717 18.112663 1040.356201
6.880000 0.880000 6.960000 -43.553825 -7.838409 1958.376343
6.880000 0.880000 7.000000 -33.926601 -39.778900 2733.375000
6.880000 0.880000 7.040000 -1.886223 -54.033775 2923.206787
6.880000 0.880000 7.080000 30.379704 -39.061310 2448.712402
6.880000 0.880000 7.120000 39.958061 -5.805735 1630.353149
6.880000 0.880000 7.160000 21.988544 21.035868 926.003784
6.880000 0.880000 7.200000 -7.036270 23.477951 600.723267
6.880000 0.920000 6.800000 28.618771 15.462408 1058.120117
6.880000 0.920000 6.840000 2.850178 40.203907 1624.477661
6.880000 0.920000 6.880000 -39.613411 38.267014 3033.586670
6.880000 0.920000 6.920000 -71.216232 0.890396 5072.544922
6.880000 0.920000 6.960000 -64.442726 -53.189594 6981.998047
6.880000 0.920000 7.000000 -16.819374 -87.174782 7882.333984
6.880000 0.920000 7.040000 42.228153 -74.728767 7367.605469
6.880000 0.920000 7.080000 72.394623 -23.224953 5780.379883
6.880000 0.920000 7.120000 54.832165 30.594608 3942.596436
6.880000 0.920000 7.160000 7.081244 50.264854 2576.699707
6.880000 0.920000 7.200000 -32.952518 28.418056 1893.454468
6.880000 0.960000 6.800000 5.329537 42.121353 1802.612305
6.880000 0.960000 6.840000 -40.630623 47.469513 3904.202148
6.880000 0.960000 6.880000 -84.188332 11.678547 7224.063965
6.880000 0.960000 6.920000 -89.152328 -53.818462 10844.564453
6.880000 0.960000 6.960000 -40.143402 -108.208038 13320.472656
6.880000 0.960000 7.000000 37.896679 -110.188133 13577.583008
6.880000 0.960000 7.040000 93.785820 -53.442818 11651.915039
6.880000 0.960000 7.080000 89.768402 24.287594 8648.253906
6.880000 0.960000 7.120000 32.656105 69.825195 5941.979492
6.880000 0.960000 7.160000 -32.237350 57.037537 4292.527344
6.880000 0.960000 7.200000 -59.323589 5.526958 3549.835693
6.880000 1.000000 6.800000 -29.662729 39.462662 2437.179199
6.880000 1.000000 6.840000 -74.994392 15.528238 5865.284668
6.880000 1.000000 6.880000 -92.673355 -44.927975 10606.873047
6.880000 1.000000 6.920000 -56.447254 -108.993713 15065.921875
6.880000 1.000000 6.960000 22.785381 -129.708542 17343.480469
6.880000 1.000000 7.000000 96.878250 -84.308121 16493.253906
6.880000 1.000000 7.040000 114.908333 1.930674 13207.652344
6.880000 1.000000 7.080000 64.930038 71.429459 9318.077148
6.880000 1.000000 7.120000 -14.741138 79.295029 6505.002930
6.880000 1.000000 7.160000 -66.637268 28.636570 5260.578613
6.880000 1.000000 7.200000 -60.450043 -35.180290 4891.860352
6.880000 1.040000 6.800000 -48.219223 11.108704 2448.496826
6.880000 1.040000 6.840000 -71.843956 -31.931807 6181.194336
6.880000 1.040000 6.880000 -54.177845 -89.619568 10966.906250
6.880000 1.040000 6.920000 8.296031 -122.115311 14980.973633
6.880000 1.040000 6.960000 82.592323 -97.883591 16402.689453
6.880000 1.040000 7.000000 118.833939 -23.616131 14679.226562
6.880000 1.040000 7.040000 89.447502 54.561100 10977.769531
6.880000 1.040000 7.080000 14.206575 84.658600 7368.905273
6.880000 1.040000 7.120000 -53.438599 50.174713 5373.185547
6.880000 1.040000 7.160000 -68.877472 -17.307365 5043.650879
6.880000 1.040000 7.200000 -30.540810 -65.850266 5268.998535
6.880000 1.080000 6.800000 -38.386002 -18.729044 1824.262207
6.880000 1.080000 6.840000 -35.354080 -58.792953 4706.522461
6.880000 1.080000 6.880000 2.197403 -90.243286 8148.679199
6.880000 1.080000 6.920000 58.826019 -85.016319 10688.275391
6.880000 1.080000 6.960000 98.772598 -36.488762 11087.456055
6.880000 1.080000 7.000000 91.513687 29.385654 9238.271484
6.880000 1.080000 7.040000 38.149475 69.789253 6325.922363
6.880000 1.080000 7.080000 -25.878317 57.848564 4016.143555
6.880000 1.080000 7.120000 -57.086636 4.848589 3282.392822
6.880000 1.080000 7.160000 -38.026966 -48.683037 3816.088379
6.880000 1.080000 7.200000 10.625933 -65.983002 4466.666992
6.880000 1.120000 6.800000 -12.897031 -28.649986 987.155151
6.880000 1.120000 6.840000 3.473854 -49.784653 2490.579346
6.880000 1.120000 6.880000 35.115067 -53.472206 4092.344727
6.880000 1.120000 6.920000 63.754471 -30.939793 5021.903320
6.880000 1.120000 6.960000 68.538498 8.655636 4772.445801
6.880000 1.120000 7.000000 42.379116 41.319695 3503.306641
6.880000 1.120000 7.040000 0.198952 44.774406 2004.786987
6.880000 1.120000 7.080000 -30.115627 16.332693 1173.707886
6.880000 1.120000 7.120000 -28.607288 -23.630592 1376.781860
6.880000 1.120000 7.160000 1.204304 -47.038399 2214.061279
6.880000 1.120000 7.200000 35.854332 -39.913807 2878.645020
6.880000 1.160000 6.800000 6.014097 -18.274006 370.108673
6.880000 1.160000 6.840000 17.719898 -21.722633 785.867554
6.880000 1.160000 6.880000 29.428574 -15.234863 1098.141968
6.880000 1.160000 6.920000 33.616337 -1.494308 1132.291016
6.880000 1.160000 6.960000 26.728432 11.831749 854.399353
6.880000 1.160000 7.000000 12.080078 16.341293 412.966156
6.880000 1.160000 7.040000 -1.336407 8.562113 75.095757
6.880000 1.160000 7.080000 -4.454965 -6.865101 66.976318
6.880000 1.160000 7.120000 5.260303 -19.694242 415.533997
6.880000 1.160000 7.160000 21.564697 -21.222172 915.416748
6.880000 1.160000 7.200000 33.928566 -10.707794 1265.804443
6.880000 1.200000 6.800000 8.532064 -4.180118 90.269508
6.880000 1.200000 6.840000 8.400155 -2.880054 78.857323
6.880000 1.200000 6.880000 6.248750 -3.722452 52.903526
6.880000 1.200000 6.920000 5.853493 -7.843256 95.780045
6.880000 1.200000 6.960000 10.070911 -12.044805 246.500580
6.880000 1.200000 7.000000 17.353012 -11.922096 443.263397
6.880000 1.200000 7.040000 22.883068 -6.448021 565.211792
6.880000 1.200000 7.080000 23.101200 0.795296 534.297974
6.880000 1.200000 7.120000 19.098494 4.894075 388.704437
6.880000 1.200000 7.160000 15.531134 4.164249 258.557068
6.880000 1.200000 7.200000 16.226238 1.605747 265.869232
6.920000 0.800000 6.800000 -26.526573 -31.271740 1681.580811
6.920000 0.800000 6.840000 -14.230509 -37.150146 1582.640869
6.920000 0.800000 6.880000 0.311089 -36.175018 1308.728760
6.920000 0.800000 6.920000 12.517941 -27.765867 927.642212
6.920000 0.800000 6.960000 18.151859 -14.614857 543.084045
6.920000 0.800000 7.000000 15.722702 -1.834175 250.567551
6.920000 0.800000 7.040000 7.731192 5.737082 92.685425
6.920000 0.800000 7.080000 -0.740486 6.554397 43.508434
6.920000 0.800000 7.120000 -5.491611 3.231478 40.600235
6.920000 0.800000 7.160000 -6.127893 0.083315 37.558022
6.920000 0.800000 7.200000 -5.534817 -0.712384 31.141689
6.920000 0.840000 6.800000 5.501360 -30.683195 971.723389
6.920000 0.840000 6.840000 12.342716 -17.504549 458.751892
6.920000 0.840000 6.880000 7.593948 -4.258255 75.800789
6.920000 0.840000 6.920000 -4.554585 -0.394859 20.900154
6.920000 0.840000 6.960000 -13.578573 -8.120911 250.326843
6.920000 0.840000 7.000000 -11.423615 -20.060402 532.918701
6.920000 0.840000 7.040000 0.625801 -25.387276 644.905396
6.920000 0.840000 7.080000 13.180368 -18.886585 530.425171
6.920000 0.840000 7.120000 16.755611 -4.948317 305.236359
6.920000 0.840000 7.160000 9.324560 6.585921 130.321777
6.920000 0.840000 7.200000 -2.794994 8.593066 81.652786
6.920000 0.880000 6.800000 23.823242 -2.070093 571.832153
6.920000 0.880000 6.840000 7.140892 21.227619 501.604156
6.920000 0.880000 6.880000 -26.070864 23.770557 1244.729370
6.920000 0.880000 6.920000 -52.265022 -3.079529 2741.115967
6.920000 0.880000 6.960000 -48.498734 -43.924301 4281.471680
6.920000 0.880000 7.000000 -13.409489 -69.363640 4991.128906
6.920000 0.880000 7.040000 29.549320 -60.088383 4483.776367
6.920000 0.880000 7.080000 50.799614 -23.276676 3122.404541
6.920000 0.880000 7.120000 38.706043 13.849628 1689.970093
6.920000 0.880000 7.160000 7.401684 27.143120 791.533875
6.920000 0.880000 7.200000 -17.523199 14.057723 504.682068
6.920000 0.920000 6.800000 9.577707 30.706768 1034.638062
6.920000 0.920000 6.840000 -34.864349 40.566944 2861.199707
6.920000 0.920000 6.880000 -80.265518 7.708942 6501.980957
6.920000 0.920000 6.920000 -87.520569 -57.045540 10914.043945
6.920000 0.920000 6.960000 -40.572723 -111.424110 14061.477539
6.920000 0.920000 7.000000 34.562096 -114.387375 14279.009766
6.920000 0.920000 7.040000 87.632545 -61.797203 11498.357422
6.920000 0.920000 7.080000 84.920341 8.598850 7285.404785
6.920000 0.920000 7.120000 36.162094 48.577374 3667.458252
6.920000 0.920000 7.160000 -16.598904 38.613213 1766.503784
6.920000 0.920000 7.200000 -36.453552 -0.419794 1329.037720
6.920000 0.960000 6.800000 -26.903358 37.862137 2157.332031
6.920000 0.960000 6.840000 -80.981934 14.385887 6765.027344
6.920000 0.960000 6.880000 -105.124939 -55.630417 14145.996094
6.920000 0.960000 6.920000 -64.832436 -132.630371 21794.058594
6.920000 0.960000 6.960000 27.251827 -159.287720 26115.240234
6.920000 0.960000 7.000000 113.600525 -109.311203 24854.019531
6.920000 0.960000 7.040000 136.282013 -13.791555 18762.994141
6.920000 0.960000 7.080000 85.039093 62.023903 11078.612305
6.920000 0.960000 7.120000 4.669073 72.116905 5222.648438
6.920000 0.960000 7.160000 -44.894684 24.878258 2634.460449
6.920000 0.960000 7.200000 -38.125572 -30.595459 2389.641357
6.920000 1.000000 6.800000 -54.537899 11.838867 3114.541016
6.920000 1.000000 6.840000 -89.592529 -42.800606 9858.712891
6.920000 1.000000 6.880000 -69.203384 -122.534996 19803.933594
6.920000 1.000000 6.920000 15.089471 -170.454437 29282.406250
6.920000 1.000000 6.960000 117.870293 -140.897049 33745.382812
6.920000 1.000000 7.000000 170.285477 -43.111992 30855.789062
6.920000 1.000000 7.040000 136.496460 60.113487 22244.914062
6.920000 1.000000 7.080000 44.914200 101.851303 12390.972656
6.920000 1.000000 7.120000 -35.765450 65.079544 5514.514648
6.920000 1.000000 7.160000 -54.214798 -7.515820 2995.731934
6.920000 1.000000 7.200000 -14.968789 -54.956352 3244.265381
6.920000 1.040000 6.800000 -50.275017 -25.568802 3181.341064
6.920000 1.040000 6.840000 -50.081184 -87.118256 10097.714844
6.920000 1.040000 6.880000 7.173014 -140.690033 19845.136719
6.920000 1.040000 6.920000 99.717148 -136.673920 28623.269531
6.920000 1.040000 6.960000 168.538635 -61.093090 32137.636719
6.920000 1.040000 7.000000 162.902710 44.662884 28532.066406
6.920000 1.040000 7.040000 84.723885 112.387756 19809.144531
6.920000 1.040000 7.080000 -10.303154 101.797699 10468.926758
6.920000 1.040000 7.120000 -58.066002 32.483932 4426.866211
6.920000 1.040000 7.160000 -37.359306 -35.813293 2678.309814
6.920000 1.040000 7.200000 18.666759 -55.271610 3403.398926
6.920000 1.080000 6.800000 -19.697945 -44.205940 2342.174316
6.920000 1.080000 6.840000 6.833902 -85.961639 7436.105469
6.920000 1.080000 6.880000 68.899437 -98.144524 14379.480469
6.920000 1.080000 6.920000 131.055206 -56.245079 20338.976562
6.920000 1.080000 6.960000 147.373718 24.998344 22343.931641
6.920000 1.080000 7.000000 99.931580 96.618622 19321.478516
6.920000 1.080000 7.040000 17.511421 112.378067 12935.479492
6.920000 1.080000 7.080000 -45.139576 66.568909 6469.000977
6.920000 1.080000 7.120000 -50.990681 -1.705635 2602.958740
6.920000 1.080000 7.160000 -8.569160 -42.058510 1842.348755
6.920000 1.080000 7.200000 40.027775 -33.414593 2718.757812
6.920000 1.120000 6.800000 10.482992 -33.219398 1213.421631
6.920000 1.120000 6.840000 38.911991 -47.037033 3726.625488
6.920000 1.120000 6.880000 77.055260 -33.056431 7030.240723
6.920000 1.120000 6.920000 97.977013 10.630013 9712.492188
6.920000 1.120000 6.960000 81.203583 61.757778 10408.044922
6.920000 1.120000 7.000000 31.679535 87.887344 8727.778320
6.920000 1.120000 7.040000 -20.779037 71.764145 5581.860840
6.920000 1.120000 7.080000 -43.570889 26.137440 2581.588135
6.920000 1.120000 7.120000 -26.674768 -16.004524 967.688110
6.920000 1.120000 7.160000 10.873031 -27.806339 891.415283
6.920000 1.120000 7.200000 38.581139 -8.292738 1557.273804
6.920000 1.160000 6.800000 19.023853 -8.104062 427.582794
6.920000 1.160000 6.840000 31.355345 -7.232124 1035.461304
6.920000 1.160000 6.880000 42.067036 4.958046 1794.217773
6.920000 1.160000 6.920000 41.904430 24.762878 2369.181396
6.920000 1.160000 6.960000 27.004230 41.577351 2457.904541
6.920000 1.160000 7.000000 3.349873 44.459320 1987.852783
6.920000 1.160000 7.040000 -15.969517 30.550228 1188.341919
6.920000 1.160000 7.080000 -19.808439 8.257420 460.559235
6.920000 1.160000 7.120000 -7.334934 -8.343082 123.408287
6.920000 1.160000 7.160000 11.423979 -9.748413 225.538849
6.920000 1.160000 7.200000 23.442446 2.520100 555.899170
6.920000 1.200000 6.800000 8.260193 7.977094 131.864822
6.920000 1.200000 6.840000 5.791843 5.204050 60.627586
6.920000 1.200000 6.880000 6.924583 0.949987 48.852333
6.920000 1.200000 6.920000 12.247063 -0.436777 150.181320
6.920000 1.200000 6.960000 17.507759 4.312275 325.117340
6.920000 1.200000 7.000000 16.843012 13.013996 453.051147
6.920000 1.200000 7.040000 8.728511 18.759537 428.107117
6.920000 1.200000 7.080000 -1.425329 15.948376 256.382263
6.920000 1.200000 7.120000 -5.320480 6.035360 64.733086
6.920000 1.200000 7.160000 0.769019 -2.824631 8.569929
6.920000 1.200000 7.200000 12.080555 -2.516381 152.271973
6.960000 0.800000 6.800000 -6.862922 -31.772390 1056.584473
6.960000 0.800000 6.840000 2.358665 -32.560684 1065.761475
6.960000 0.800000 6.880000 12.402027 -29.500692 1024.101074
6.960000 0.800000 6.920000 21.131884 -21.374508 903.426147
6.960000 0.800000 6.960000 24.756260 -8.996304 693.805847
6.960000 0.800000 7.000000 20.724707 3.166939 439.542969
6.960000 0.800000 7.040000 11.224075 9.468501 215.632385
6.960000 0.800000 7.080000 2.579094 8.156371 73.178116
6.960000 0.800000 7.120000 -0.143721 3.577333 12.817970
6.960000 0.800000 7.160000 1.944107 2.166782 8.474498
6.960000 0.800000 7.200000 2.781719 5.844417 41.895172
6.960000 0.840000 6.800000 15.279524 -16.408333 502.697266
6.960000 0.840000 6.840000 11.085419 -3.964424 138.603165
6.960000 0.840000 6.880000 -1.010223 -0.241684 1.078962
6.960000 0.840000 6.920000 -10.301892 -8.346634 175.795288
6.960000 0.840000 6.960000 -8.110565 -21.015450 507.430359
6.960000 0.840000 7.000000 4.602970 -27.060516 753.458862
6.960000 0.840000 7.040000 18.511917 -20.837694 776.900574
6.960000 0.840000 7.080000 24.037605 -6.140656 615.514099
6.960000 0.840000 7.120000 18.433018 7.998528 403.752594
6.960000 0.840000 7.160000 6.277304 14.572404 251.759491
6.960000 0.840000 7.200000 -5.362252 12.557108 186.434708
6.960000 0.880000 6.800000 12.589018 12.696201 319.676880
6.960000 0.880000 6.840000 -16.743729 21.514223 743.214233
6.960000 0.880000 6.880000 -47.230728 0.550919 2231.045166
6.960000 0.880000 6.920000 -51.371552 -41.734283 4380.786621
6.960000 0.880000 6.960000 -19.559933 -75.684486 6110.732422
6.960000 0.880000 7.000000 28.974487 -74.902596 6449.919922
6.960000 0.880000 7.040000 61.148483 -39.114067 5269.047363
6.960000 0.880000 7.080000 57.333069 5.902882 3321.924805
6.960000 0.880000 7.120000 25.951065 30.663921 1613.733887
6.960000 0.880000 7.160000 -6.756983 25.370840 689.336304
6.960000 0.880000 7.200000 -20.275913 3.759153 425.243896
6.960000 0.920000 6.800000 -16.271635 26.778040 981.829529
6.960000 0.920000 6.840000 -62.333702 8.849522 3963.804443
6.960000 0.920000 6.880000 -83.251015 -50.073479 9438.084961
6.960000 0.920000 6.920000 -48.637665 -114.795380 15543.601562
6.960000 0.920000 6.960000 29.254807 -135.684418 19266.105469
6.960000 0.920000 7.000000 100.291840 -92.170380 18553.832031
6.960000 0.920000 7.040000 117.038361 -12.872578 13863.680664
6.960000 0.920000 7.080000 74.239304 47.802879 7796.589355
6.960000 0.920000 7.120000 10.673197 55.123451 3152.512207
6.960000 0.920000 7.160000 -26.877264 19.435217 1100.114990
6.960000 0.920000 7.200000 -22.307728 -19.741390 887.357178
6.960000 0.960000 6.800000 -46.376068 9.065557 2232.924072
6.960000 0.960000 6.840000 -82.447525 -43.630486 8701.213867
6.960000 0.960000 6.880000 -62.741852 -123.490112 19186.347656
6.960000 0.960000 6.920000 22.059063 -171.322647 29838.050781
6.960000 0.960000 6.960000 124.675545 -140.734039 35350.062500
6.960000 0.960000 7.000000 175.512390 -43.060638 32658.818359
6.960000 0.960000 7.040000 141.293503 57.459492 23265.447266
6.960000 0.960000 7.080000 53.445663 96.510002 12170.619141
6.960000 0.960000 7.120000 -20.722929 62.045780 4279.118652
6.960000 0.960000 7.160000 -36.121983 -1.716967 1307.745605
6.960000 0.960000 7.200000 -2.716612 -39.137508 1539.124512
6.960000 1.000000 6.800000 -49.589306 -27.764399 3229.961182
6.960000 1.000000 6.840000 -51.319462 -97.722778 12183.428711
6.960000 1.000000 6.880000 14.589432 -160.574066 25996.882812
6.960000 1.000000 6.920000 122.852737 -155.846069 39380.792969
6.960000 1.000000 6.960000 202.729965 -67.191223 45614.097656
6.960000 1.000000 7.000000 195.366196 55.038635 41197.199219
6.960000 1.000000 7.040000 106.075027 131.418457 28522.722656
6.960000 1.000000 7.080000 1.139338 119.214508 14213.396484
6.960000 1.000000 7.120000 -48.991241 45.451344 4465.966797
6.960000 1.000000 7.160000 -26.946634 -22.253731 1221.349609
6.960000 1.000000 7.200000 25.893257 -36.884274 2030.910400
6.960000 1.040000 6.800000 -21.558119 -52.924480 3265.753174
6.960000 1.040000 6.840000 12.202723 -109.611900 12163.674805
6.960000 1.040000 6.880000 97.014038 -127.156433 25580.482422
6.960000 1.040000 6.920000 182.908600 -69.205811 38245.000000
6.960000 1.040000 6.960000 204.739746 43.063549 43772.832031
6.960000 1.040000 7.000000 139.147995 140.346329 39059.257812
6.960000 1.040000 7.040000 28.678198 160.621704 26621.771484
6.960000 1.040000 7.080000 -52.135040 100.804916 12879.693359
6.960000 1.040000 7.120000 -58.603729 16.604471 3710.105469
6.960000 1.040000 7.160000 -8.603048 -28.314817 875.741333
6.960000 1.040000 7.200000 41.663406 -14.873354 1957.056152
6.960000 1.080000 6.800000 14.508016 -46.510498 2373.708740
6.960000 1.080000 6.840000 61.097950 -71.020264 8776.837891
6.960000 1.080000 6.880000 126.895676 -47.473221 18356.218750
6.960000 1.080000 6.920000 162.646942 28.864824 27287.205078
6.960000 1.080000 6.960000 131.784973 117.137077 31088.375000
6.960000 1.080000 7.000000 45.661469 159.897552 27652.195312
6.960000 1.080000 7.040000 -41.603088 130.634995 18796.318359
6.960000 1.080000 7.080000 -76.595673 56.230366 9028.750977
6.960000 1.080000 7.120000 -49.318901 -6.948006 2480.628906
6.960000 1.080000 7.160000 3.505285 -20.735390 442.243408
6.960000 1.080000 7.200000 35.000595 7.521349 1281.612305
6.960000 1.120000 6.800000 30.630732 -16.965904 1226.083618
6.960000 1.120000 6.840000 63.766411 -15.501396 4306.448242
6.960000 1.120000 6.880000 92.731247 19.013977 8960.615234
6.960000 1.120000 6.920000 88.445465 74.151642 13321.066406
6.960000 1.120000 6.960000 42.496727 115.927879 15245.245117
6.960000 1.120000 7.000000 -21.875881 115.019562 13708.053711
6.960000 1.120000 7.040000 -66.140442 71.678436 9512.356445
6.960000 1.120000 7.080000 -66.925934 16.186996 4741.099609
6.960000 1.120000 7.120000 -33.439728 -16.043127 1375.597412
6.960000 1.120000 7.160000 3.146781 -12.007079 154.072189
6.960000 1.120000 7.200000 17.031876 12.817942 454.384399
6.960000 1.160000 6.800000 19.651997 9.603710 478.432190
6.960000 1.160000 6.840000 30.559023 15.355631 1169.649292
6.960000 1.160000 6.880000 34.967819 33.138939 2320.937744
6.960000 1.160000 6.920000 23.507507 54.217735 3492.165527
6.960000 1.160000 6.960000 -2.876038 64.375137 4152.429688
6.960000 1.160000 7.000000 -31.769451 54.545181 3984.474854
6.960000 1.160000 7.040000 -47.551632 28.434608 3069.684570
6.960000 1.160000 7.080000 -42.742157 0.393467 1827.046753
6.960000 1.160000 7.120000 -23.055473 -14.890202 753.272949
6.960000 1.160000 7.160000 -2.436068 -12.316385 157.627777
6.960000 1.160000 7.200000 7.187195 1.670931 54.447781
6.960000 1.200000 6.800000 -1.687539 15.636182 247.337982
6.960000 1.200000 6.840000 -1.922119 10.013723 103.969200
6.960000 1.200000 6.880000 2.382057 7.195356 57.447350
6.960000 1.200000 6.920000 7.100018 10.898272 169.182571
6.960000 1.200000 6.960000 5.542168 19.483269 410.313354
6.960000 1.200000 7.000000 -5.222012 25.254616 665.065002
6.960000 1.200000 7.040000 -19.826994 20.235394 802.580811
6.960000 1.200000 7.080000 -27.322069 4.098181 763.290588
6.960000 1.200000 7.120000 -20.221645 -13.543936 592.353149
6.960000 1.200000 7.160000 -2.097296 -19.919504 401.185303
6.960000 1.200000 7.200000 13.863899 -9.991604 292.039856
7.000000 0.800000 6.800000 5.443207 -16.327925 296.229645
7.000000 0.800000 6.840000 8.123974 -17.352875 367.121216
7.000000 0.800000 6.880000 14.686819 -17.720444 529.716797
7.000000 0.800000 6.920000 23.394369 -12.127087 694.362732
7.000000 0.800000 6.960000 27.252729 0.356144 742.838074
7.000000 0.800000 7.000000 21.328419 13.069687 625.718140
7.000000 0.800000 7.040000 9.243248 17.649508 396.942749
7.000000 0.800000 7.080000 0.435640 13.075302 171.153320
7.000000 0.800000 7.120000 0.272492 7.232214 52.379173
7.000000 0.800000 7.160000 4.036078 8.364037 86.247040
7.000000 0.800000 7.200000 2.145955 15.559970 246.717789
7.000000 0.840000 6.800000 9.416309 0.839002 89.370811
7.000000 0.840000 6.840000 -1.671299 2.634853 9.735693
7.000000 0.840000 6.880000 -9.782167 -6.672302 140.210419
7.000000 0.840000 6.920000 -6.190784 -19.800190 430.373322
7.000000 0.840000 6.960000 7.660973 -25.345116 701.065369
7.000000 0.840000 7.000000 21.798538 -18.182163 805.767334
7.000000 0.840000 7.040000 26.889080 -3.022850 732.160278
7.000000 0.840000 7.080000 21.214252 11.079815 572.806763
7.000000 0.840000 7.120000 9.618525 18.346909 429.125061
7.000000 0.840000 7.160000 -2.341369 18.593582 351.203278
7.000000 0.840000 7.200000 -12.009585 14.069305 342.175507
7.000000 0.880000 6.800000 -7.463408 13.268877 231.765549
7.000000 0.880000 6.840000 -33.519196 1.128582 1124.810181
7.000000 0.880000 6.880000 -42.417027 -33.946548 2951.572266
7.000000 0.880000 6.920000 -18.497849 -68.751152 5068.891113
7.000000 0.880000 6.960000 27.259102 -75.223900 6401.693848
7.000000 0.880000 7.000000 64.542282 -45.524170 6238.156250
7.000000 0.880000 7.040000 68.945221 0.681389 4753.907715
7.000000 0.880000 7.080000 41.444710 33.220737 2821.281250
7.000000 0.880000 7.120000 4.875528 36.007988 1320.345947
7.000000 0.880000 7.160000 -17.245319 16.790920 579.336060
7.000000 0.880000 7.200000 -18.631054 -4.420680 366.658600
7.000000 0.920000 6.800000 -30.751854 2.986916 954.598206
7.000000 0.920000 6.840000 -55.548801 -35.780334 4365.901855
7.000000 0.920000 6.880000 -38.468662 -93.388184 10201.190430
7.000000 0.920000 6.920000 25.575123 -125.046280 16290.659180
7.000000 0.920000 6.960000 99.447113 -98.206909 19534.324219
7.000000 0.920000 7.000000 132.348297 -24.542194 18118.390625
7.000000 0.920000 7.040000 103.240051 47.335064 12899.116211
7.000000 0.920000 7.080000 38.171356 72.638474 6733.400391
7.000000 0.920000 7.120000 -14.336827 46.346630 2353.554688
7.000000 0.920000 7.160000 -25.138214 1.765082 635.045349
7.000000 0.920000 7.200000 -4.167898 -23.678089 578.023315
7.000000 0.960000 6.800000 -36.175545 -26.204069 1995.323242
7.000000 0.960000 6.840000 -36.795101 -85.105011 8596.742188
7.000000 0.960000 6.880000 21.289219 -137.614761 19391.052734
7.000000 0.960000 6.920000 115.006271 -130.426147 30237.421875
7.000000 0.960000 6.960000 181.571381 -50.871246 35556.050781
7.000000 0.960000 7.000000 171.106430 54.830612 32283.806641
7.000000 0.960000 7.040000 91.612091 117.694489 22244.767578
7.000000 0.960000 7.080000 2.485994 104.042000 10830.916992
7.000000 0.960000 7.120000 -37.549507 40.946655 3086.593994
7.000000 0.960000 7.160000 -18.211712 -13.383030 510.771912
7.000000 0.960000 7.200000 22.448038 -23.045519 1035.010376
7.000000 1.000000 6.800000 -13.985039 -50.320591 2727.743164
7.000000 1.000000 6.840000 19.138927 -105.210281 11435.501953
7.000000 1.000000 6.880000 103.937088 -121.126114 25474.453125
7.000000 1.000000 6.920000 188.911255 -60.614487 39361.578125
7.000000 1.000000 6.960000 207.539978 53.319603 45915.824219
7.000000 1.000000 7.000000 138.294617 148.963593 41315.554688
7.000000 1.000000 7.040000 27.387251 165.232513 28051.843750
7.000000 1.000000 7.080000 -49.783340 103.463814 13183.141602
7.000000 1.000000 7.120000 -52.641281 22.577396 3280.843262
7.000000 1.000000 7.160000 -4.542403 -16.177530 282.345917
7.000000 1.000000 7.200000 37.604332 -0.487896 1414.323853
7.000000 1.040000 6.800000 20.158653 -47.709522 2682.569824
7.000000 1.040000 6.840000 73.506638 -75.517075 11106.054688
7.000000 1.040000 6.880000 150.140228 -46.493954 24703.775391
7.000000 1.040000 6.920000 189.952682 45.075035 38113.781250
7.000000 1.040000 6.960000 149.666672 148.410751 44425.867188
7.000000 1.040000 7.000000 46.028603 194.575150 39978.121094
7.000000 1.040000 7.040000 -53.989380 155.657761 27144.191406
7.000000 1.040000 7.080000 -89.345772 68.646362 12694.990234
7.000000 1.040000 7.120000 -54.818729 0.967171 3006.028320
7.000000 1.040000 7.160000 1.535166 -8.408745 73.063728
7.000000 1.040000 7.200000 27.495911 23.720827 1318.702637
7.000000 1.080000 6.800000 39.452045 -19.853262 1950.615845
7.000000 1.080000 6.840000 87.257141 -17.139063 7907.556152
7.000000 1.080000 6.880000 128.271561 34.972797 17676.689453
7.000000 1.080000 6.920000 118.058746 116.055763 27406.808594
7.000000 1.080000 6.960000 46.722832 173.140533 32160.667969
7.000000 1.080000 7.000000 -46.563335 164.604080 29262.648438
7.000000 1.080000 7.040000 -103.901146 97.252136 20253.425781
7.000000 1.080000 7.080000 -96.908066 20.684483 9819.020508
7.000000 1.080000 7.120000 -47.698814 -15.967388 2530.134521
7.000000 1.080000 7.160000 -4.376474 -3.547274 31.736679
7.000000 1.080000 7.200000 3.021293 27.177752 747.758423
7.000000 1.120000 6.800000 30.933887 10.605525 1069.382568
7.000000 1.120000 6.840000 56.316006 26.966650 3898.692627
7.000000 1.120000 6.880000 62.268566 69.781097 8746.775391
7.000000 1.120000 6.920000 29.607956 113.389244 13733.751953
7.000000 1.120000 6.960000 -31.188000 124.353462 16436.474609
7.000000 1.120000 7.000000 -85.292259 90.408142 15448.402344
7.000000 1.120000 7.040000 -101.433640 32.064865 11316.938477
7.000000 1.120000 7.080000 -76.960617 -14.443787 6131.559570
7.000000 1.120000 7.120000 -37.282360 -26.765772 2106.380859
7.000000 1.120000 7.160000 -11.923710 -11.309624 270.082428
7.000000 1.120000 7.200000 -10.987364 8.113409 186.549561
7.000000 1.160000 6.800000 5.893249 21.983418 518.001038
7.000000 1.160000 6.840000 12.035976 31.556562 1140.681396
7.000000 1.160000 6.880000 5.880432 48.776070 2413.684570
7.000000 1.160000 6.920000 -16.165993 60.202118 3885.634277
7.000000 1.160000 6.960000 -45.128536 53.927940 4944.807617
7.000000 1.160000 7.000000 -65.531166 29.278046 5151.537598
7.000000 1.160000 7.040000 -66.722733 -2.450912 4457.929688
7.000000 1.160000 7.080000 -49.946259 -26.342758 3188.569580
7.000000 1.160000 7.120000 -26.108019 -33.815674 1825.128418
7.000000 1.160000 7.160000 -7.516343 -26.554493 761.636536
7.000000 1.160000 7.200000 -0.736244 -13.150450 173.476379
7.000000 1.200000 6.800000 -13.695038 12.664974 347.955627
7.000000 1.200000 6.840000 -11.533010 8.268761 201.382736
7.000000 1.200000 6.880000 -8.224918 7.902948 130.105881
7.000000 1.200000 6.920000 -8.041548 11.814743 204.254639
7.000000 1.200000 6.960000 -14.812456 15.666595 464.851074
7.000000 1.200000 7.000000 -27.029572 12.113029 877.323181
7.000000 1.200000 7.040000 -36.203163 -2.836918 1318.717163
7.000000 1.200000 7.080000 -32.317688 -23.888000 1615.069580
7.000000 1.200000 7.120000 -13.248552 -38.000343 1619.550293
7.000000 1.200000 7.160000 10.721077 -34.393349 1297.843994
7.000000 1.200000 7.200000 23.417671 -15.016798 773.891541
7.040000 0.800000 6.800000 -0.950238 2.260777 6.014063
7.040000 0.800000 6.840000 -1.845977 -5.710201 36.014030
7.040000 0.800000 6.880000 7.199144 -11.682228 188.302139
7.040000 0.800000 6.920000 19.831980 -6.294815 432.932129
7.040000 0.800000 6.960000 23.709671 9.018539 643.482544
7.040000 0.800000 7.000000 13.955948 22.070736 681.885864
7.040000 0.800000 7.040000 -0.890377 22.580824 510.686401
7.040000 0.800000 7.080000 -7.896325 13.338341 240.263275
7.040000 0.800000 7.120000 -4.010941 6.865091 63.217125
7.040000 0.800000 7.160000 0.762694 10.926942 119.979759
7.040000 0.800000 7.200000 -4.779447 19.319527 396.087219
7.040000 0.840000 6.800000 -9.241562 5.714945 118.067062
7.040000 0.840000 6.840000 -15.513482 -5.755489 273.793762
7.040000 0.840000 6.880000 -9.372776 -20.126141 492.910461
7.040000 0.840000 6.920000 7.163063 -25.104361 681.538391
7.040000 0.840000 6.960000 22.385010 -15.757742 749.395081
7.040000 0.840000 7.000000 26.075714 1.153160 681.272644
7.040000 0.840000 7.040000 18.095852 14.535091 538.728760
7.040000 0.840000 7.080000 6.048557 19.132008 402.618774
7.040000 0.840000 7.120000 -3.751760 17.645561 325.441559
7.040000 0.840000 7.160000 -11.128601 14.347325 329.691528
7.040000 0.840000 7.200000 -18.353832 9.207413 421.639618
7.040000 0.880000 6.800000 -21.077259 -3.766081 458.434204
7.040000 0.880000 6.840000 -28.104458 -27.051394 1521.638428
7.040000 0.880000 6.880000 -11.670979 -54.229389 3077.038330
7.040000 0.880000 6.920000 24.763611 -62.274929 4491.403320
7.040000 0.880000 6.960000 58.666073 -40.154160 5054.064453
7.040000 0.880000 7.000000 67.068695 0.035316 4498.211426
7.040000 0.880000 7.040000 45.822594 32.915722 3183.154785
7.040000 0.880000 7.080000 11.606514 40.751305 1795.380005
7.040000 0.880000 7.120000 -13.718257 25.725637 849.998962
7.040000 0.880000 7.160000 -20.373379 3.905596 430.328247
7.040000 0.880000 7.200000 -14.244469 -10.731968 318.080017
7.040000 0.920000 6.800000 -20.719385 -24.790657 1043.869629
7.040000 0.920000 6.840000 -15.951784 -60.531673 3918.542969
7.040000 0.920000 6.880000 24.546604 -88.583466 8449.566406
7.040000 0.920000 6.920000 83.102898 -76.990677 12833.656250
7.040000 0.920000 6.960000 119.602028 -21.939037 14785.966797
7.040000 0.920000 7.000000 105.969666 44.377720 13198.952148
7.040000 0.920000 7.040000 51.662613 79.524460 8993.165039
7.040000 0.920000 7.080000 -4.501497 66.313339 4417.722656
7.040000 0.920000 7.120000 -28.074450 24.641922 1395.399048
7.040000 0.920000 7.160000 -15.837124 -9.833922 347.520538
7.040000 0.920000 7.200000 8.048147 -17.732666 379.220123
7.040000 0.960000 6.800000 -0.791981 -41.034607 1684.466187
7.040000 0.960000 6.840000 25.356602 -77.263062 6612.538086
7.040000 0.960000 6.880000 87.617958 -84.082039 14746.695312
7.040000 0.960000 6.920000 147.109161 -34.975662 22864.402344
7.040000 0.960000 6.960000 155.196381 50.784264 26664.957031
7.040000 0.960000 7.000000 98.656822 118.893623 23868.863281
7.040000 0.960000 7.040000 14.685905 125.726273 16022.771484
7.040000 0.960000 7.080000 -40.437859 75.804184 7381.495117
7.040000 0.960000 7.120000 -39.364990 15.054016 1776.225830
7.040000 0.960000 7.160000 -2.671794 -12.300266 158.435043
7.040000 0.960000 7.200000 26.967295 -0.548931 727.536316
7.040000 1.000000 6.800000 27.594143 -36.049263 2060.986084
7.040000 1.000000 6.840000 71.067909 -55.901302 8175.603516
7.040000 1.000000 6.880000 133.519073 -28.370041 18632.203125
7.040000 1.000000 6.920000 163.300903 51.283371 29297.169922
7.040000 1.000000 6.960000 123.933884 138.303955 34487.593750
7.040000 1.000000 7.000000 32.168839 173.225082 31041.763672
7.040000 1.000000 7.040000 -52.333977 134.468521 20820.628906
7.040000 1.000000 7.080000 -78.031433 57.524540 9397.977539
7.040000 1.000000 7.120000 -44.504036 1.761393 1983.711792
7.040000 1.000000 7.160000 3.326133 -2.277060 16.248159
7.040000 1.000000 7.200000 21.293489 25.981770 1128.465088
7.040000 1.040000 6.800000 43.202732 -10.186996 1970.250977
7.040000 1.040000 6.840000 87.428131 -5.855030 7677.959473
7.040000 1.040000 6.880000 124.924515 46.730850 17789.906250
7.040000 1.040000 6.920000 110.634048 126.815247 28322.000000
7.040000 1.040000 6.960000 35.793831 180.038544 33695.074219
7.040000 1.040000 7.000000 -57.468933 165.419220 30666.195312
7.040000 1.040000 7.040000 -109.909363 93.680367 20856.078125
7.040000 1.040000 7.080000 -96.318794 18.374786 9614.943359
7.040000 1.040000 7.120000 -44.650635 -12.027725 2138.345459
7.040000 1.040000 7.160000 -5.802490 5.678193 65.910767
7.040000 1.040000 7.200000 -5.885966 34.681049 1237.419800
7.040000 1.080000 6.800000 34.151070 18.240780 1499.021606
7.040000 1.080000 6.840000 62.800159 38.884743 5455.883301
7.040000 1.080000 6.880000 66.844299 91.185730 12782.997070
7.040000 1.080000 6.920000 22.943787 141.760208 20622.375000
7.040000 1.080000 6.960000 -52.827251 148.713409 24906.396484
7.040000 1.080000 7.000000 -114.367371 100.388077 23157.660156
7.040000 1.080000 7.040000 -124.702362 27.919607 16330.183594
7.040000 1.080000 7.080000 -87.483780 -21.748299 8126.399902
7.040000 1.080000 7.120000 -40.606697 -26.262030 2338.598145
7.040000 1.080000 7.160000 -19.667692 -2.798399 394.649139
7.040000 1.080000 7.200000 -28.232409 14.456282 1006.052979
7.040000 1.120000 6.800000 8.815394 29.440430 944.450073
7.040000 1.120000 6.840000 18.061804 49.985981 2824.827148
7.040000 1.120000 6.880000 2.242226 80.962425 6559.941406
7.040000 1.120000 6.920000 -40.902348 95.138191 10724.277344
7.040000 1.120000 6.960000 -88.507706 73.782143 13277.417969
7.040000 1.120000 7.000000 -110.817665 24.783791 12894.791016
7.040000 1.120000 7.040000 -96.501915 -23.341133 9857.427734
7.040000 1.120000 7.080000 -60.899170 -45.750320 5801.800781
7.040000 1.120000 7.120000 -30.364239 -40.389198 2553.274414
7.040000 1.120000 7.160000 -19.364510 -24.839417 991.980835
7.040000 1.120000 7.200000 -22.242142 -16.883469 779.764404
7.040000 1.160000 6.800000 -12.921873 19.667280 553.776733
7.040000 1.160000 6.840000 -13.912247 28.640629 1013.836243
7.040000 1.160000 6.880000 -27.633078 36.334820 2083.806152
7.040000 1.160000 6.920000 -48.869843 31.540043 3383.035645
7.040000 1.160000 6.960000 -65.280319 11.601635 4396.118164
7.040000 1.160000 7.000000 -67.190292 -15.737057 4762.189941
7.040000 1.160000 7.040000 -54.038639 -38.910477 4434.199707
7.040000 1.160000 7.080000 -32.872684 -50.489956 3629.849121
7.040000 1.160000 7.120000 -12.216801 -49.970047 2646.255859
7.040000 1.160000 7.160000 2.337111 -41.283867 1709.819702
7.040000 1.160000 7.200000 8.657104 -29.580673 949.961670
7.040000 1.200000 6.800000 -18.678127 2.234882 353.867126
7.040000 1.200000 6.840000 -17.979761 -0.104643 323.282776
7.040000 1.200000 6.880000 -17.503031 -2.125685 310.874603
7.040000 1.200000 6.920000 -18.125126 -3.322536 339.559448
7.040000 1.200000 6.960000 -21.685970 -5.639812 502.088806
7.040000 1.200000 7.000000 -26.683167 -13.544666 895.449341
7.040000 1.200000 7.040000 -26.229351 -28.656288 1509.161743
7.040000 1.200000 7.080000 -13.291368 -44.424675 2150.212158
7.040000 1.200000 7.120000 10.437563 -48.832050 2493.511719
7.040000 1.200000 7.160000 32.130730 -35.250263 2274.964844
7.040000 1.200000 7.200000 37.279594 -11.220387 1515.665283
7.080000 0.800000 6.800000 -21.144670 6.443494 488.615692
7.080000 0.800000 6.840000 -17.480650 -9.922840 404.035889
7.080000 0.800000 6.880000 -0.321440 -17.066322 291.362701
7.080000 0.800000 6.920000 16.037033 -6.612931 300.917297
7.080000 0.800000 6.960000 16.645903 12.675292 437.749084
7.080000 0.800000 7.000000 1.847849 23.285065 545.608765
7.080000 0.800000 7.040000 -13.096148 17.295521 470.644165
7.080000 0.800000 7.080000 -14.677155 4.253613 233.512085
7.080000 0.800000 7.120000 -5.558263 -0.241899 30.952801
7.080000 0.800000 7.160000 -0.579195 7.617834 58.366859
7.080000 0.800000 7.200000 -9.094117 15.772650 331.479431
7.080000 0.840000 6.800000 -24.968552 -8.283310 692.041809
7.080000 0.840000 6.840000 -16.839935 -24.483774 883.038635
7.080000 0.840000 6.880000 2.996178 -30.223312 922.425659
7.080000 0.840000 6.920000 21.292507 -19.069134 817.002686
7.080000 0.840000 6.960000 25.205494 1.107563 636.543579
7.080000 0.840000 7.000000 14.365304 15.761063 454.773071
7.080000 0.840000 7.040000 -0.231739 17.544231 307.853760
7.080000 0.840000 7.080000 -8.443790 11.393167 201.101837
7.080000 0.840000 7.120000 -10.249840 6.356623 145.465866
7.080000 0.840000 7.160000 -12.440565 4.689486 176.758926
7.080000 0.840000 7.200000 -18.005705 0.750706 324.768982
7.080000 0.880000 6.800000 -15.461981 -26.699635 951.943359
7.080000 0.880000 6.840000 -2.175777 -42.097557 1776.938354
7.080000 0.880000 6.880000 23.780567 -45.237671 2611.962402
7.080000 0.880000 6.920000 47.996471 -27.676481 3069.648926
7.080000 0.880000 6.960000 53.944832 3.164032 2920.055908
7.080000 0.880000 7.000000 37.506523 29.129440 2255.263672
7.080000 0.880000 7.040000 10.197350 36.212162 1415.306641
7.080000 0.880000 7.080000 -11.285431 24.784355 741.625244
7.080000 0.880000 7.120000 -18.277956 6.465109 375.881317
7.080000 0.880000 7.160000 -14.037724 -7.482271 253.042084
7.080000 0.880000 7.200000 -6.764251 -14.222235 248.027039
7.080000 0.920000 6.800000 8.429399 -34.805248 1282.460083
7.080000 0.920000 6.840000 28.054966 -46.764725 2974.020508
7.080000 0.920000 6.880000 60.781574 -40.534454 5337.441406
7.080000 0.920000 6.920000 85.413048 -7.364193 7349.620117
7.080000 0.920000 6.960000 80.201416 38.454990 7911.053223
7.080000 0.920000 7.000000 43.848106 68.805580 6656.864258
7.080000 0.920000 7.040000 -1.210201 65.253510 4259.484863
7.080000 0.920000 7.080000 -27.202368 34.545078 1933.331299
7.080000 0.920000 7.120000 -23.670469 1.433284 562.345459
7.080000 0.920000 7.160000 -3.263258 -13.502025 192.953522
7.080000 0.920000 7.200000 13.232845 -9.496759 265.296631
7.080000 0.960000 6.800000 33.821732 -22.113241 1632.905029
7.080000 0.960000 6.840000 58.252930 -26.098381 4074.529297
7.080000 0.960000 6.880000 90.317093 -3.920141 8172.544922
7.080000 0.960000 6.920000 100.807693 45.617619 12243.158203
7.080000 0.960000 6.960000 70.373077 95.183487 14012.266602
7.080000 0.960000 7.000000 11.553082 110.285339 12296.330078
7.080000 0.960000 7.040000 -38.647758 80.614990 7992.426270
7.080000 0.960000 7.080000 -50.262230 30.238956 3440.686279
7.080000 0.960000 7.120000 -25.609316 -4.084028 672.516296
7.080000 0.960000 7.160000 6.042974 -5.183296 63.384087
7.080000 0.960000 7.200000 17.879812 12.980419 488.178955
7.080000 1.000000 6.800000 42.698399 6.575748 1866.393677
7.080000 1.000000 6.840000 66.257446 13.363822 4568.641113
7.080000 1.000000 6.880000 85.327499 49.496536 9730.689453
7.080000 1.000000 6.920000 70.103981 101.926178 15303.513672
7.080000 1.000000 6.960000 15.061646 133.887848 18152.808594
7.080000 1.000000 7.000000 -49.777306 117.858765 16368.468750
7.080000 1.000000 7.040000 -82.795235 63.206482 10850.110352
7.080000 1.000000 7.080000 -67.835785 9.491789 4691.788086
7.080000 1.000000 7.120000 -27.554634 -9.027279 840.749634
7.080000 1.000000 7.160000 0.025501 7.336053 53.818321
7.080000 1.000000 7.200000 -2.500557 29.131128 854.875427
7.080000 1.040000 6.800000 27.786413 32.727287 1843.160156
7.080000 1.040000 6.840000 43.574150 47.841812 4187.545410
7.080000 1.040000 6.880000 42.238396 85.834930 9151.716797
7.080000 1.040000 6.920000 4.727920 121.605530 14810.258789
7.080000 1.040000 6.960000 -56.210789 121.829720 18002.132812
7.080000 1.040000 7.000000 -102.714401 77.984650 16631.853516
7.080000 1.040000 7.040000 -105.193375 17.555138 11373.829102
7.080000 1.040000 7.080000 -69.533524 -19.711260 5223.444824
7.080000 1.040000 7.120000 -30.382607 -17.400871 1225.893066
7.080000 1.040000 7.160000 -17.549660 5.617657 339.548645
7.080000 1.040000 7.200000 -29.815502 17.725765 1203.166992
7.080000 1.080000 6.800000 -0.053490 39.194973 1536.248657
7.080000 1.080000 6.840000 4.742856 55.655769 3120.059326
7.080000 1.080000 6.880000 -12.578066 81.322411 6771.541992
7.080000 1.080000 6.920000 -54.566036 90.101852 11095.795898
7.080000 1.080000 6.960000 -98.065331 64.188644 13736.990234
7.080000 1.080000 7.000000 -113.458374 13.655230 13059.267578
7.080000 1.080000 7.040000 -92.106720 -30.650982 9423.129883
7.080000 1.080000 7.080000 -54.103203 -44.739017 4928.736328
7.080000 1.080000 7.120000 -28.507206 -31.872404 1828.510986
7.080000 1.080000 7.160000 -26.570587 -15.806043 955.827087
7.080000 1.080000 7.200000 -34.896637 -15.269284 1450.926270
7.080000 1.120000 6.800000 -21.088230 24.874104 1063.434448
7.080000 1.120000 6.840000 -24.662678 35.693008 1882.238525
7.080000 1.120000 6.880000 -44.727150 43.117683 3859.652588
7.080000 1.120000 6.920000 -72.366470 31.639853 6237.986328
7.080000 1.120000 6.960000 -88.349060 0.288498 7805.639648
7.080000 1.120000 7.000000 -80.626205 -35.100288 7732.615234
7.080000 1.120000 7.040000 -55.089882 -55.897530 6159.428711
7.080000 1.120000 7.080000 -29.039667 -56.624989 4049.691650
7.080000 1.120000 7.120000 -14.905813 -47.153599 2445.645264
7.080000 1.120000 7.160000 -11.074654 -40.484177 1761.616455
7.080000 1.120000 7.200000 -7.806540 -40.094349 1668.498779
7.080000 1.160000 6.800000 -24.114162 4.368965 600.580688
7.080000 1.160000 6.840000 -29.951874 6.666029 941.550659
7.080000 1.160000 6.880000 -40.685619 1.335543 1657.103271
7.080000 1.160000 6.920000 -47.669506 -13.292484 2449.072021
7.080000 1.160000 6.960000 -44.958073 -31.275536 2999.387451
7.080000 1.160000 7.000000 -33.713154 -45.269688 3185.921387
7.080000 1.160000 7.040000 -19.070667 -52.479843 3117.824463
7.080000 1.160000 7.080000 -4.461095 -54.347359 2973.536865
7.080000 1.160000 7.120000 9.706135 -52.031368 2801.472168
7.080000 1.160000 7.160000 22.520786 -44.574173 2494.042725
7.080000 1.160000 7.200000 30.323833 -32.118065 1951.104980
7.080000 1.200000 6.800000 -14.853859 -6.911901 268.411499
7.080000 1.200000 6.840000 -17.449717 -11.514923 437.086060
7.080000 1.200000 6.880000 -15.493935 -18.747925 591.546692
7.080000 1.200000 6.920000 -9.741926 -23.030590 625.313232
7.080000 1.200000 6.960000 -5.564507 -23.785904 596.732971
7.080000 1.200000 7.000000 -4.621586 -26.541210 725.794922
7.080000 1.200000 7.040000 -0.797688 -34.864769 1216.188477
7.080000 1.200000 7.080000 13.015629 -42.958813 2014.866211
7.080000 1.200000 7.120000 34.246010 -39.517365 2734.411133
7.080000 1.200000 7.160000 49.549995 -20.496346 2875.302246
7.080000 1.200000 7.200000 47.120075 3.490303 2232.483643
7.120000 0.800000 6.800000 -37.214725 -9.481131 1474.827637
7.120000 0.800000 6.840000 -22.598627 -27.887657 1288.419434
7.120000 0.800000 6.880000 2.041217 -28.349022 807.833618
7.120000 0.800000 6.920000 16.938208 -9.868190 384.284027
7.120000 0.800000 6.960000 10.977724 10.660748 234.161957
7.120000 0.800000 7.000000 -6.854625 15.360470 282.929901
7.120000 0.800000 7.040000 -17.267662 3.478285 310.270630
7.120000 0.800000 7.080000 -11.134647 -9.053562 205.947357
7.120000 0.800000 7.120000 1.758524 -7.794161 63.841351
7.120000 0.800000 7.160000 4.851549 4.594748 44.649235
7.120000 0.800000 7.200000 -6.226783 12.256460 188.993637
7.120000 0.840000 6.800000 -23.042965 -31.151871 1501.417236
7.120000 0.840000 6.840000 -1.847282 -39.014229 1525.522583
7.120000 0.840000 6.880000 20.092257 -28.514845 1216.795166
7.120000 0.840000 6.920000 27.139317 -5.720996 769.272278
7.120000 0.840000 6.960000 15.799802 12.626226 409.055359
7.120000 0.840000 7.000000 -2.105757 14.915239 226.898590
7.120000 0.840000 7.040000 -11.679050 4.838483 159.811142
7.120000 0.840000 7.080000 -9.273486 -4.432887 105.648033
7.120000 0.840000 7.120000 -3.760532 -4.994226 39.083897
7.120000 0.840000 7.160000 -4.524095 -1.437292 22.533239
7.120000 0.840000 7.200000 -10.405969 -3.421816 119.993011
7.120000 0.880000 6.800000 6.801371 -37.375053 1443.153320
7.120000 0.880000 6.840000 25.838043 -33.065449 1760.928345
7.120000 0.880000 6.880000 39.698708 -15.625668 1820.148926
7.120000 0.880000 6.920000 38.832680 7.594137 1565.647949
7.120000 0.880000 6.960000 23.242979 23.739166 1103.784180
7.120000 0.880000 7.000000 3.047688 24.899422 629.269592
7.120000 0.880000 7.040000 -10.069433 13.991551 297.156982
7.120000 0.880000 7.080000 -11.921567 0.733169 142.661301
7.120000 0.880000 7.120000 -6.937794 -7.465140 103.861298
7.120000 0.880000 7.160000 -1.575358 -10.391620 110.467506
7.120000 0.880000 7.200000 2.123087 -11.951649 147.349396
7.120000 0.920000 6.800000 34.811966 -18.415194 1550.992310
7.120000 0.920000 6.840000 44.729874 -6.979441 2049.474121
7.120000 0.920000 6.880000 49.016823 11.758106 2540.902100
7.120000 0.920000 6.920000 40.889206 32.866905 2752.160645
7.120000 0.920000 6.960000 19.910542 45.726334 2487.327393
7.120000 0.920000 7.000000 -4.758814 42.135925 1798.082520
7.120000 0.920000 7.040000 -20.014061 24.023182 977.675903
7.120000 0.920000 7.080000 -18.913046 2.880260 365.999207
7.120000 0.920000 7.120000 -5.885077 -9.194123 119.166039
7.120000 0.920000 7.160000 7.872945 -8.711649 137.876099
7.120000 0.920000 7.200000 14.294701 -1.858556 207.792694
7.120000 0.960000 6.800000 40.606594 16.816149 1931.678345
7.120000 0.960000 6.840000 40.409935 27.535646 2391.174805
7.120000 0.960000 6.880000 36.784748 42.981464 3200.523926
7.120000 0.960000 6.920000 22.000648 59.256607 3995.374023
7.120000 0.960000 6.960000 -4.237690 64.584312 4189.091309
7.120000 0.960000 7.000000 -29.930412 50.624992 3458.719482
7.120000 0.960000 7.040000 -39.348202 23.072584 2080.625000
7.120000 0.960000 7.080000 -27.562246 -0.874111 760.441528
7.120000 0.960000 7.120000 -5.861069 -7.075789 84.418930
7.120000 0.960000 7.160000 8.396591 3.127755 80.285599
7.120000 0.960000 7.200000 7.694925 15.450651 297.934509
7.120000 1.000000 6.800000 18.547157 45.290550 2395.230957
7.120000 1.000000 6.840000 12.661872 50.076302 2667.958984
7.120000 1.000000 6.880000 4.181227 59.663441 3577.208740
7.120000 1.000000 6.920000 -15.059015 67.574738 4793.119141
7.120000 1.000000 6.960000 -41.539791 61.003719 5447.007812
7.120000 1.000000 7.000000 -59.541252 36.034992 4843.681152
7.120000 1.000000 7.040000 -55.682209 5.447658 3130.185303
7.120000 1.000000 7.080000 -33.511528 -11.240549 1249.372437
7.120000 1.000000 7.120000 -11.599412 -6.191084 172.875885
7.120000 1.000000 7.160000 -5.969670 9.309971 122.312523
7.120000 1.000000 7.200000 -14.943165 16.818775 506.169373
7.120000 1.040000 6.800000 -16.048595 48.137318 2574.758789
7.120000 1.040000 6.840000 -22.138702 46.950882 2694.507324
7.120000 1.040000 6.880000 -32.253372 49.773220 3517.653564
7.120000 1.040000 6.920000 -50.796059 47.053131 4794.236328
7.120000 1.040000 6.960000 -69.016922 29.474625 5632.088867
7.120000 1.040000 7.000000 -72.280396 1.047563 5225.552734
7.120000 1.040000 7.040000 -55.995193 -21.823708 3611.735840
7.120000 1.040000 7.080000 -32.285702 -25.816200 1708.842773
7.120000 1.040000 7.120000 -18.955763 -14.270521 562.968750
7.120000 1.040000 7.160000 -21.855034 -3.696452 491.306274
7.120000 1.040000 7.200000 -29.725328 -6.348612 923.900024
7.120000 1.080000 6.800000 -39.180176 26.399179 2232.002930
7.120000 1.080000 6.840000 -43.137871 22.359520 2360.823975
7.120000 1.080000 6.880000 -51.805901 18.649122 3031.641113
7.120000 1.080000 6.920000 -63.099480 7.152480 4032.702393
7.120000 1.080000 6.960000 -67.160141 -13.605600 4695.596680
7.120000 1.080000 7.000000 -57.081284 -34.393890 4441.212891
7.120000 1.080000 7.040000 -37.652489 -43.586323 3317.477539
7.120000 1.080000 7.080000 -21.589701 -39.160370 1999.649658
7.120000 1.080000 7.120000 -16.836624 -30.827108 1233.782471
7.120000 1.080000 7.160000 -18.778414 -29.507633 1223.329224
7.120000 1.080000 7.200000 -16.136171 -35.583519 1526.562744
7.120000 1.120000 6.800000 -38.347363 -0.734245 1471.059326
7.120000 1.120000 6.840000 -41.314026 -5.611186 1738.334106
7.120000 1.120000 6.880000 -45.597755 -14.487120 2289.031982
7.120000 1.120000 6.920000 -45.596985 -28.381252 2884.580566
7.120000 1.120000 6.960000 -37.321857 -42.112560 3166.388672
7.120000 1.120000 7.000000 -23.400028 -49.138519 2962.155273
7.120000 1.120000 7.040000 -10.781651 -48.331520 2452.179688
7.120000 1.120000 7.080000 -3.542137 -44.846645 2023.768311
7.120000 1.120000 7.120000 1.003429 -43.947323 1932.374023
7.120000 1.120000 7.160000 8.345692 -44.891003 2084.852783
7.120000 1.120000 7.200000 19.551052 -41.956917 2142.626465
7.120000 1.160000 6.800000 -21.771061 -13.798635 664.381470
7.120000 1.160000 6.840000 -24.953045 -20.688311 1050.660645
7.120000 1.160000 6.880000 -22.483980 -31.880766 1521.912598
7.120000 1.160000 6.920000 -12.597251 -40.443542 1794.370850
7.120000 1.160000 6.960000 -0.704876 -41.623970 1733.051758
7.120000 1.160000 7.000000 6.796335 -38.164543 1502.722534
7.120000 1.160000 7.040000 10.007840 -36.715912 1448.215088
7.120000 1.160000 7.080000 15.271682 -39.331734 1780.209473
7.120000 1.160000 7.120000 26.973942 -40.218216 2345.098389
7.120000 1.160000 7.160000 40.990952 -32.153690 2714.117920
7.120000 1.160000 7.200000 47.944115 -15.536198 2540.011719
7.120000 1.200000 6.800000 -8.220654 -9.862954 164.857025
7.120000 1.200000 6.840000 -9.564738 -20.875004 527.250000
7.120000 1.200000 6.880000 0.333803 -30.095684 905.861633
7.120000 1.200000 6.920000 13.841032 -28.682606 1014.266052
7.120000 1.200000 6.960000 19.942726 -19.942257 795.405884
7.120000 1.200000 7.000000 17.516663 -15.189269 537.547363
7.120000 1.200000 7.040000 16.929564 -19.626806 671.821655
7.120000 1.200000 7.080000 27.374233 -24.956091 1372.155029
7.120000 1.200000 7.120000 44.461067 -18.266121 2310.437744
7.120000 1.200000 7.160000 53.307060 2.297973 2846.923340
7.120000 1.200000 7.200000 44.710472 23.490120 2550.812012
7.160000 0.800000 6.800000 -34.525894 -33.695839 2327.446777
7.160000 0.800000 6.840000 -10.421628 -44.865116 2121.489014
7.160000 0.800000 6.880000 14.591038 -34.449486 1399.665527
7.160000 0.800000 6.920000 22.281229 -10.741520 611.833374
7.160000 0.800000 6.960000 10.192363 6.222432 142.602921
7.160000 0.800000 7.000000 -6.044008 4.412302 55.998444
7.160000 0.800000 7.040000 -9.039408 -8.780523 158.808472
7.160000 0.800000 7.080000 2.757046 -15.454866 246.454193
7.160000 0.800000 7.120000 14.767469 -6.571290 261.260010
7.160000 0.800000 7.160000 12.948950 9.143963 251.287369
7.160000 0.800000 7.200000 -1.176535 15.695169 247.722580
7.160000 0.840000 6.800000 -3.767231 -45.028717 2041.777344
7.160000 0.840000 6.840000 19.377033 -38.188633 1833.841064
7.160000 0.840000 6.880000 30.965034 -16.337076 1225.733398
7.160000 0.840000 6.920000 23.174345 5.408324 566.300293
7.160000 0.840000 6.960000 4.421267 12.011154 163.815430
7.160000 0.840000 7.000000 -8.545036 2.454355 79.041504
7.160000 0.840000 7.040000 -6.660094 -10.308611 150.624313
7.160000 0.840000 7.080000 3.889474 -13.098987 186.711456
7.160000 0.840000 7.120000 9.863381 -5.274884 125.110695
7.160000 0.840000 7.160000 5.410782 2.567394 35.868073
7.160000 0.840000 7.200000 -2.810259 1.369058 9.771873
7.160000 0.880000 6.800000 28.916142 -27.774460 1607.563843
7.160000 0.880000 6.840000 36.784512 -8.884564 1432.035889
7.160000 0.880000 6.880000 29.936956 10.687746 1010.449280
7.160000 0.880000 6.920000 12.541251 19.471439 536.419922
7.160000 0.880000 6.960000 -3.621753 13.747948 202.123169
7.160000 0.880000 7.000000 -8.862458 0.462255 78.756844
7.160000 0.880000 7.040000 -3.163392 -9.395738 98.286934
7.160000 0.880000 7.080000 5.456184 -10.371737 137.342865
7.160000 0.880000 7.120000 9.465409 -5.822455 123.494949
7.160000 0.880000 7.160000 8.335703 -2.568653 76.081917
7.160000 0.880000 7.200000 7.063434 -3.347158 61.095562
7.160000 0.920000 6.800000 38.549660 10.990550 1606.868530
7.160000 0.920000 6.840000 26.615608 26.366587 1403.587524
7.160000 0.920000 6.880000 8.770049 30.763302 1023.294495
7.160000 0.920000 6.920000 -6.135755 23.786184 603.430054
7.160000 0.920000 6.960000 -12.187081 11.056258 270.765808
7.160000 0.920000 7.000000 -9.298473 -0.241317 86.519844
7.160000 0.920000 7.040000 -1.694559 -5.809916 36.626648
7.160000 0.920000 7.080000 5.797501 -5.580869 64.757111
7.160000 0.920000 7.120000 10.494463 -2.060650 114.380028
7.160000 0.920000 7.160000 12.192249 2.087279 153.007675
7.160000 0.920000 7.200000 12.035482 5.341010 173.379227
7.160000 0.960000 6.800000 15.125072 45.257511 2277.010254
7.160000 0.960000 6.840000 -7.282463 43.807487 1972.130249
7.160000 0.960000 6.880000 -21.817959 30.494518 1405.938965
7.160000 0.960000 6.920000 -24.635965 14.624708 820.812866
7.160000 0.960000 6.960000 -19.392471 3.354975 387.323792
7.160000 0.960000 7.000000 -11.633881 -1.852898 138.780411
7.160000 0.960000 7.040000 -4.335559 -2.729998 26.249962
7.160000 0.960000 7.080000 1.748261 -0.525413 3.332474
7.160000 0.960000 7.120000 5.543123 4.313224 49.330116
7.160000 0.960000 7.160000 5.489623 10.047264 131.083481
7.160000 0.960000 7.200000 2.047476 13.391429 183.522522
7.160000 1.000000 6.800000 -25.973896 50.501461 3225.040771
7.160000 1.000000 6.840000 -43.301830 31.298595 2854.650391
7.160000 1.000000 6.880000 -44.197845 8.997176 2034.398804
7.160000 1.000000 6.920000 -33.866043 -5.206205 1174.013550
7.160000 1.000000 6.960000 -21.928368 -9.155685 564.679871
7.160000 1.000000 7.000000 -13.776742 -7.429358 244.993973
7.160000 1.000000 7.040000 -9.078127 -4.266021 100.611328
7.160000 1.000000 7.080000 -6.375612 -0.419271 40.824219
7.160000 1.000000 7.120000 -6.316696 4.058648 56.373276
7.160000 1.000000 7.160000 -9.539700 6.795937 137.190628
7.160000 1.000000 7.200000 -13.251380 5.069921 201.303162
7.160000 1.040000 6.800000 -55.709473 24.438309 3700.776367
7.160000 1.040000 6.840000 -58.648506 -1.771392 3442.785156
7.160000 1.040000 6.880000 -46.151878 -21.226954 2580.579346
7.160000 1.040000 6.920000 -28.724977 -27.275116 1569.056274
7.160000 1.040000 6.960000 -16.032606 -23.211689 795.827026
7.160000 1.040000 7.000000 -10.791477 -16.256395 380.726379
7.160000 1.040000 7.040000 -10.534877 -10.990930 231.784164
7.160000 1.040000 7.080000 -12.486811 -8.386765 226.258270
7.160000 1.040000 7.120000 -15.177758 -8.626287 304.777161
7.160000 1.040000 7.160000 -16.608320 -12.115789 422.628662
7.160000 1.040000 7.200000 -13.710659 -17.209246 484.140320
7.160000 1.080000 6.800000 -55.611664 -11.336388 3221.170898
7.160000 1.080000 6.840000 -47.035782 -32.624367 3276.714111
7.160000 1.080000 6.880000 -28.909634 -43.564560 2733.637695
7.160000 1.080000 6.920000 -11.073400 -41.760483 1866.558105
7.160000 1.080000 6.960000 -1.010412 -32.187458 1037.053345
7.160000 1.080000 7.000000 -0.129552 -22.448135 503.935577
7.160000 1.080000 7.040000 -4.772182 -18.023678 347.626678
7.160000 1.080000 7.080000 -9.368868 -20.263035 498.366272
7.160000 1.080000 7.120000 -9.262699 -26.712986 799.381226
7.160000 1.080000 7.160000 -2.614999 -32.472775 1061.319336
7.160000 1.080000 7.200000 8.424872 -32.408287 1121.275635
7.160000 1.120000 6.800000 -32.367393 -30.732866 1992.157227
7.160000 1.120000 6.840000 -21.772858 -43.978237 2408.142578
7.160000 1.120000 6.880000 -4.627090 -48.882313 2410.890381
7.160000 1.120000 6.920000 11.187748 -42.650726 1944.250122
7.160000 1.120000 6.960000 17.916025 -29.760468 1206.669434
7.160000 1.120000 7.000000 14.040040 -19.428497 574.589233
7.160000 1.120000 7.040000 6.044923 -18.695683 386.069641
7.160000 1.120000 7.080000 3.582497 -26.564922 718.529358
7.160000 1.120000 7.120000 11.568125 -34.567680 1328.746094
7.160000 1.120000 7.160000 25.979193 -33.719513 1811.923950
7.160000 1.120000 7.200000 37.258385 -21.980740 1871.340210
7.160000 1.160000 6.800000 -9.434290 -25.506628 739.593872
7.160000 1.160000 6.840000 -2.216671 -36.503685 1337.432617
7.160000 1.160000 6.880000 13.796186 -40.007275 1790.916748
7.160000 1.160000 6.920000 28.423512 -30.781063 1755.369873
7.160000 1.160000 6.960000 31.262362 -15.396250 1214.379761
7.160000 1.160000 7.000000 22.738052 -6.736306 562.396851
7.160000 1.160000 7.040000 14.585171 -11.045768 334.736206
7.160000 1.160000 7.080000 18.274872 -21.037971 776.567200
7.160000 1.160000 7.120000 33.115864 -22.892338 1620.719482
7.160000 1.160000 7.160000 46.692978 -10.231522 2284.918213
7.160000 1.160000 7.200000 47.294422 9.580063 2328.540039
7.160000 1.200000 6.800000 -4.409073 -9.756580 114.630783
7.160000 1.200000 6.840000 2.982447 -24.333744 601.026062
7.160000 1.200000 6.880000 21.348440 -26.518799 1159.002563
7.160000 1.200000 6.920000 34.409771 -12.967947 1352.199951
7.160000 1.200000 6.960000 31.675659 3.467146 1015.368530
7.160000 1.200000 7.000000 19.812817 7.800250 453.391602
7.160000 1.200000 7.040000 15.061249 -0.504917 227.096161
7.160000 1.200000 7.080000 24.857124 -7.024367 667.218384
7.160000 1.200000 7.120000 39.330605 1.318612 1548.635254
7.160000 1.200000 7.160000 42.202503 21.468208 2241.935303
7.160000 1.200000 7.200000 28.804008 37.575306 2241.574463
7.200000 0.800000 6.800000 -14.849336 -48.144283 2538.374756
7.200000 0.800000 6.840000 10.513317 -47.870811 2402.144287
7.200000 0.800000 6.880000 28.499767 -29.864683 1704.135986
7.200000 0.800000 6.920000 28.025885 -7.174388 836.922058
7.200000 0.800000 6.960000 14.115675 3.843571 214.025314
7.200000 0.800000 7.000000 2.881955 -0.897269 9.110757
7.200000 0.800000 7.040000 5.377739 -9.940401 127.731651
7.200000 0.800000 7.080000 16.955961 -8.744374 363.968689
7.200000 0.800000 7.120000 23.026373 5.244106 557.714539
7.200000 0.800000 7.160000 14.662186 20.542915 636.991089
7.200000 0.800000 7.200000 -2.460751 24.063551 585.109802
7.200000 0.840000 6.800000 18.259214 -40.878567 2004.456177
7.200000 0.840000 6.840000 32.653160 -24.459667 1664.504150
7.200000 0.840000 6.880000 31.213234 -3.214148 984.596741
7.200000 0.840000 6.920000 16.428005 8.391910 340.303528
7.200000 0.840000 6.960000 1.765773 4.367522 22.193205
7.200000 0.840000 7.000000 -0.725759 -7.413328 55.484161
7.200000 0.840000 7.040000 8.612994 -13.153308 247.193176
7.200000 0.840000 7.080000 18.377251 -6.451156 379.340729
7.200000 0.840000 7.120000 17.958122 6.395245 363.393311
7.200000 0.840000 7.160000 7.590491 13.830088 248.886887
7.200000 0.840000 7.200000 -3.280865 10.800219 127.408798
7.200000 0.880000 6.800000 35.470562 -7.575774 1315.553101
7.200000 0.880000 6.840000 27.912853 10.440704 888.135681
7.200000 0.880000 6.880000 10.242673 16.825445 388.007965
7.200000 0.880000 6.920000 -4.526917 8.141241 86.772781
7.200000 0.880000 6.960000 -6.072207 -7.108517 87.402725
7.200000 0.880000 7.000000 4.683773 -16.035873 279.086975
7.200000 0.880000 7.040000 17.282654 -12.429466 453.181763
7.200000 0.880000 7.080000 21.639835 -1.035779 469.355316
7.200000 0.880000 7.120000 16.348444 8.295527 336.087372
7.200000 0.880000 7.160000 8.009079 9.962986 163.406433
7.200000 0.880000 7.200000 3.523190 6.358258 52.840321
7.200000 0.920000 6.800000 19.920879 29.620092 1274.191284
7.200000 0.920000 6.840000 -4.317562 30.343903 939.393799
7.200000 0.920000 6.880000 -20.809891 12.835665 597.805847
7.200000 0.920000 6.920000 -18.487034 -9.996243 441.695282
7.200000 0.920000 6.960000 -1.046565 -22.130268 490.844086
7.200000 0.920000 7.000000 17.455868 -17.475170 610.088867
7.200000 0.920000 7.040000 25.157848 -2.983920 641.821167
7.200000 0.920000 7.080000 20.987816 9.537326 531.448975
7.200000 0.920000 7.120000 12.467085 13.843762 347.077942
7.200000 0.920000 7.160000 6.907652 12.254620 197.891357
7.200000 0.920000 7.200000 5.508784 10.330231 137.060379
7.200000 0.960000 6.800000 -20.105331 42.436436 2205.075439
7.200000 0.960000 6.840000 -42.235710 18.189161 2114.700684
7.200000 0.960000 6.880000 -39.213055 -14.845274 1758.045898
7.200000 0.960000 6.920000 -13.915163 -34.138351 1359.058716
7.200000 0.960000 6.960000 14.675454 -29.152424 1065.232788
7.200000 0.960000 7.000000 28.431253 -8.180399 875.255127
7.200000 0.960000 7.040000 23.856129 11.600018 703.675293
7.200000 0.960000 7.080000 10.998208 19.447685 499.173035
7.200000 0.960000 7.120000 1.434486 17.182053 297.280670
7.200000 0.960000 7.160000 -1.371584 12.883444 167.864365
7.200000 0.960000 7.200000 -1.203220 11.371037 130.748230
7.200000 1.000000 6.800000 -56.143234 20.485355 3571.712402
7.200000 1.000000 6.840000 -58.697769 -18.745363 3796.816895
7.200000 1.000000 6.880000 -31.419973 -48.044189 3295.458984
7.200000 1.000000 6.920000 6.928142 -48.433098 2393.764160
7.200000 1.000000 6.960000 31.057228 -23.559948 1519.622559
7.200000 1.000000 7.000000 29.808258 5.915190 923.521729
7.200000 1.000000 7.040000 12.001848 21.287695 597.210327
7.200000 1.000000 7.080000 -5.260764 19.361994 402.562439
7.200000 1.000000 7.120000 -12.051707 9.879076 242.839798
7.200000 1.000000 7.160000 -10.331087 3.147209 116.636292
7.200000 1.000000 7.200000 -6.923619 1.788207 51.134182
7.200000 1.040000 6.800000 -63.012978 -19.374592 4346.010254
7.200000 1.040000 6.840000 -43.371250 -54.793755 4883.420898
7.200000 1.040000 6.880000 -3.213722 -65.709808 4328.106934
7.200000 1.040000 6.920000 31.256168 -45.387062 3036.933350
7.200000 1.040000 6.960000 39.623024 -10.183416 1673.686035
7.200000 1.040000 7.000000 22.582962 15.572655 752.497742
7.200000 1.040000 7.040000 -2.115072 19.273710 375.949463
7.200000 1.040000 7.080000 -16.650730 6.655538 321.543030
7.200000 1.040000 7.120000 -16.121342 -7.662721 318.614929
7.200000 1.040000 7.160000 -7.540603 -13.793697 247.126770
7.200000 1.040000 7.200000 0.116831 -11.626366 135.186035
7.200000 1.080000 6.800000 -39.748337 -47.696480 3854.884277
7.200000 1.080000 6.840000 -9.981207 -67.412178 4644.026367
7.200000 1.080000 6.880000 26.737705 -60.008499 4315.924805
7.200000 1.080000 6.920000 46.895828 -29.513620 3070.272461
7.200000 1.080000 6.960000 39.602009 3.138697 1578.170532
7.200000 1.080000 7.000000 14.411980 17.515783 514.507812
7.200000 1.080000 7.040000 -8.279657 9.128563 151.883392
7.200000 1.080000 7.080000 -14.171078 -9.911726 299.061768
7.200000 1.080000 7.120000 -4.158677 -23.306900 560.506226
7.200000 1.080000 7.160000 10.316687 -23.354315 651.858032
7.200000 1.080000 7.200000 18.578671 -13.672132 532.094177
7.200000 1.120000 6.800000 -8.723793 -47.770607 2358.135498
7.200000 1.120000 6.840000 17.198849 -54.549576 3271.456543
7.200000 1.120000 6.880000 42.717293 -39.704628 3401.224609
7.200000 1.120000 6.920000 50.216980 -10.802026 2638.428955
7.200000 1.120000 6.960000 35.234287 12.917820 1408.325073
7.200000 1.120000 7.000000 10.591166 16.424320 381.931091
7.200000 1.120000 7.040000 -4.513179 1.095106 21.568041
7.200000 1.120000 7.080000 -0.411364 -17.536350 307.692810
7.200000 1.120000 7.120000 16.416206 -23.771263 834.564758
7.200000 1.120000 7.160000 30.927498 -14.137013 1156.365234
7.200000 1.120000 7.200000 32.923500 2.227400 1088.918213
7.200000 1.160000 6.800000 5.703871 -28.229368 829.431335
7.200000 1.160000 6.840000 24.195364 -32.853794 1664.787476
7.200000 1.160000 6.880000 42.462852 -19.843155 2196.844727
7.200000 1.160000 6.920000 44.958427 3.772626 2035.492920
7.200000 1.160000 6.960000 29.122871 20.286428 1259.680908
7.200000 1.160000 7.000000 8.822712 17.697592 391.044983
7.200000 1.160000 7.040000 1.672517 1.259069 4.382570
7.200000 1.160000 7.080000 12.566270 -11.633072 293.239502
7.200000 1.160000 7.120000 29.759846 -8.050888 950.465210
7.200000 1.160000 7.160000 36.987602 8.994141 1448.977295
7.200000 1.160000 7.200000 28.739408 25.202732 1461.131348
7.200000 1.200000 6.800000 -1.669575 -12.023424 147.350204
7.200000 1.200000 6.840000 16.294067 -20.372820 680.548462
7.200000 1.200000 6.880000 34.501022 -9.079876 1272.764648
7.200000 1.200000 6.920000 35.989037 12.660574 1455.500854
7.200000 1.200000 6.960000 20.334631 25.602407 1068.980469
7.200000 1.200000 7.000000 3.869454 20.136314 420.443848
7.200000 1.200000 7.040000 2.443212 5.750093 39.032848
7.200000 1.200000 7.080000 15.204787 0.311601 231.282654
7.200000 1.200000 7.120000 26.547039 11.173936 829.602173
7.200000 1.200000 7.160000 23.298584 28.425213 1350.816772
7.200000 1.200000 7.200000 7.960620 36.793316 1417.119507
