#kx 	ky 	kz 	real 	imag 	intensity
4.800000 -7.200000 4.800000 -41.343552 -8.921814 1788.888062
4.800000 -7.200000 4.840000 -30.847504 -19.798553 1343.551270
4.800000 -7.200000 4.880000 -20.464718 -21.632690 886.777954
4.800000 -7.200000 4.920000 -15.426521 -20.087589 641.488770
4.800000 -7.200000 4.960000 -13.252426 -21.317415 630.058960
4.800000 -7.200000 5.000000 -7.792573 -25.124062 691.942627
4.800000 -7.200000 5.040000 2.990963 -25.366138 652.386841
4.800000 -7.200000 5.080000 13.865536 -16.947269 479.463013
4.800000 -7.200000 5.120000 16.915319 -1.884329 289.678711
4.800000 -7.200000 5.160000 9.033870 11.653494 217.414734
4.800000 -7.200000 5.200000 -5.058833 16.152615 286.498749
4.800000 -7.160000 4.800000 -30.178238 -25.511246 1561.549683
4.800000 -7.160000 4.840000 -16.860144 -26.020275 961.319092
4.800000 -7.160000 4.880000 -10.143184 -21.452435 563.091125
4.800000 -7.160000 4.920000 -8.685667 -18.571774 420.351562
4.800000 -7.160000 4.960000 -7.322359 -18.957239 412.993866
4.800000 -7.160000 5.000000 -3.314691 -19.267773 382.234253
4.800000 -7.160000 5.040000 1.336546 -16.250689 265.871216
4.800000 -7.160000 5.080000 2.973676 -10.526958 119.659607
4.800000 -7.160000 5.120000 0.470682 -5.566692 31.209606
4.800000 -7.160000 5.160000 -3.953188 -3.974111 31.421249
4.800000 -7.160000 5.200000 -7.337375 -5.418233 83.194321
4.800000 -7.120000 4.800000 -13.468044 -29.130857 1029.995117
4.800000 -7.120000 4.840000 -5.082990 -21.875423 504.370941
4.800000 -7.120000 4.880000 -4.131073 -15.417004 254.749771
4.800000 -7.120000 4.920000 -6.007465 -12.745123 198.527802
4.800000 -7.120000 4.960000 -7.700687 -12.517113 215.978699
4.800000 -7.120000 5.000000 -9.221850 -13.452524 266.012939
4.800000 -7.120000 5.040000 -10.527813 -16.282127 375.942505
4.800000 -7.120000 5.080000 -9.413681 -21.279686 541.442444
4.800000 -7.120000 5.120000 -3.770340 -25.592346 669.183655
4.800000 -7.120000 5.160000 4.713360 -24.944830 644.460327
4.800000 -7.120000 5.200000 10.763052 -18.292637 450.463867
4.800000 -7.080000 4.800000 -3.517777 -21.773869 486.476105
4.800000 -7.080000 4.840000 -2.153697 -13.829475 195.892807
4.800000 -7.080000 4.880000 -5.098619 -9.323668 112.926712
4.800000 -7.080000 4.920000 -9.662696 -8.045588 158.099167
4.800000 -7.080000 4.960000 -15.401764 -10.320370 343.724365
4.800000 -7.080000 5.000000 -20.198299 -18.261082 741.438416
4.800000 -7.080000 5.040000 -18.436750 -31.391869 1325.363159
4.800000 -7.080000 5.080000 -5.781870 -42.911312 1874.810791
4.800000 -7.080000 5.120000 14.188914 -43.323524 2078.252930
4.800000 -7.080000 5.160000 30.199169 -29.399723 1776.333496
4.800000 -7.080000 5.200000 32.197430 -8.876513 1115.466919
4.800000 -7.040000 4.800000 -4.752852 -14.902468 244.673157
4.800000 -7.040000 4.840000 -6.045767 -10.946731 156.382202
4.800000 -7.040000 4.880000 -9.465532 -8.876423 168.387177
4.800000 -7.040000 4.920000 -15.665379 -9.786486 341.179382
4.800000 -7.040000 4.960000 -22.795620 -17.727533 833.905762
4.800000 -7.040000 5.000000 -23.270819 -34.111526 1705.127197
4.800000 -7.040000 5.040000 -9.200784 -51.421082 2728.782227
4.800000 -7.040000 5.080000 17.673841 -55.939728 3441.617920
4.800000 -7.040000 5.120000 43.201122 -39.661964 3439.408203
4.800000 -7.040000 5.160000 50.913177 -9.798234 2688.156982
4.800000 -7.040000 5.200000 36.552841 15.332733 1571.202881
4.800000 -7.000000 4.800000 -9.227177 -17.457432 389.902710
4.800000 -7.000000 4.840000 -7.886168 -15.746386 310.140289
4.800000 -7.000000 4.880000 -10.265198 -13.800283 295.822113
4.800000 -7.000000 4.920000 -16.852690 -17.033428 574.150818
4.800000 -7.000000 4.960000 -20.707851 -30.258877 1344.414795
4.800000 -7.000000 5.000000 -11.057858 -48.981701 2521.483154
4.800000 -7.000000 5.040000 15.108579 -58.614449 3663.922607
4.800000 -7.000000 5.080000 45.666977 -46.072533 4208.151367
4.800000 -7.000000 5.120000 60.521332 -13.685764 3850.131592
4.800000 -7.000000 5.160000 48.828369 19.644274 2770.107178
4.800000 -7.000000 5.200000 19.609707 33.437759 1502.624390
4.800000 -6.960000 4.800000 -5.552140 -25.982708 705.927368
4.800000 -6.960000 4.840000 -1.434383 -21.277685 454.797363
4.800000 -6.960000 4.880000 -4.392363 -17.590321 328.712219
4.800000 -6.960000 4.920000 -10.431045 -22.610191 620.027466
4.800000 -6.960000 4.960000 -8.479122 -36.994934 1440.520630
4.800000 -6.960000 5.000000 9.454079 -49.558853 2545.459473
4.800000 -6.960000 5.040000 37.498203 -44.908901 3422.924805
4.800000 -6.960000 5.080000 57.236862 -18.508102 3618.608154
4.800000 -6.960000 5.120000 52.769943 15.989716 3040.337891
4.800000 -6.960000 5.160000 25.995203 36.468620 2005.710938
4.800000 -6.960000 5.200000 -3.706456 31.431614 1001.684143
4.800000 -6.920000 4.800000 7.809614 -28.251751 859.151489
4.800000 -6.920000 4.840000 9.549748 -18.497313 433.348267
4.800000 -6.920000 4.880000 3.505562 -14.219764 214.490631
4.800000 -6.920000 4.920000 -1.648178 -20.370684 417.681244
4.800000 -6.920000 4.960000 4.337327 -31.638670 1019.817810
4.800000 -6.920000 5.000000 22.688278 -34.813652 1726.748291
4.800000 -6.920000 5.040000 41.613564 -20.486492 2151.385010
4.800000 -6.920000 5.080000 45.102798 6.318869 2074.190430
4.800000 -6.920000 5.120000 27.815687 28.278051 1573.360596
4.800000 -6.920000 5.160000 1.477924 30.510717 933.088135
4.800000 -6.920000 5.200000 -14.827885 14.331011 425.244019
4.800000 -6.880000 4.800000 19.720724 -17.184343 684.208618
4.800000 -6.880000 4.840000 14.562296 -6.705024 257.017822
4.800000 -6.880000 4.880000 5.434691 -5.225039 56.836891
4.800000 -6.880000 4.920000 1.300026 -12.156421 149.468628
4.800000 -6.880000 4.960000 7.325854 -19.428711 431.142975
4.800000 -6.880000 5.000000 19.537231 -17.570076 690.411011
4.800000 -6.880000 5.040000 27.122787 -4.485155 755.762268
4.800000 -6.880000 5.080000 21.891256 11.434770 609.981079
4.800000 -6.880000 5.120000 6.532368 18.175785 373.031006
4.800000 -6.880000 5.160000 -7.049305 11.411275 179.909897
4.800000 -6.880000 5.200000 -8.811909 -0.919361 78.494957
4.800000 -6.840000 4.800000 17.876585 0.030642 319.573242
4.800000 -6.840000 4.840000 7.595764 4.414033 77.179321
4.800000 -6.840000 4.880000 -1.117311 0.999055 2.246496
4.800000 -6.840000 4.920000 -3.771913 -6.346814 54.509380
4.800000 -6.840000 4.960000 -0.058814 -11.943154 142.642395
4.800000 -6.840000 5.000000 6.080171 -11.951914 179.816727
4.800000 -6.840000 5.040000 9.372688 -7.135271 138.759369
4.800000 -6.840000 5.080000 7.602390 -2.092688 62.175678
4.800000 -6.840000 5.120000 3.533100 -0.843908 13.194978
4.800000 -6.840000 5.160000 1.832396 -2.636024 10.306298
4.800000 -6.840000 5.200000 3.539561 -2.706539 19.853848
4.800000 -6.800000 4.800000 2.579131 8.201618 73.918457
4.800000 -6.800000 4.840000 -5.484303 4.156075 47.350529
4.800000 -6.800000 4.880000 -9.486531 -2.221331 94.928589
4.800000 -6.800000 4.920000 -10.197203 -8.831347 181.975647
4.800000 -6.800000 4.960000 -8.135746 -15.012442 291.563751
4.800000 -6.800000 5.000000 -3.173645 -19.786058 401.560120
4.800000 -6.800000 5.040000 4.082127 -21.353815 472.649170
4.800000 -6.800000 5.080000 11.441032 -18.347954 467.544617
4.800000 -6.800000 5.120000 15.955685 -11.147461 378.849762
4.800000 -6.800000 5.160000 15.304474 -1.951725 238.036148
4.800000 -6.800000 5.200000 8.632322 5.848705 108.724342
4.840000 -7.200000 4.800000 -45.548523 -16.381887 2343.034180
4.840000 -7.200000 4.840000 -33.677528 -26.993488 1862.824341
4.840000 -7.200000 4.880000 -22.012768 -30.282448 1401.588623
4.840000 -7.200000 4.920000 -13.002455 -30.355858 1090.541870
4.840000 -7.200000 4.960000 -4.666743 -29.489880 891.431519
4.840000 -7.200000 5.000000 4.519558 -25.731997 682.562012
4.840000 -7.200000 5.040000 11.745641 -16.508350 410.485718
4.840000 -7.200000 5.080000 11.860945 -3.774197 154.926575
4.840000 -7.200000 5.120000 3.325343 5.723997 43.822048
4.840000 -7.200000 5.160000 -8.630098 6.104755 111.746628
4.840000 -7.200000 5.200000 -15.716113 -1.763868 250.107452
4.840000 -7.160000 4.800000 -27.003721 -38.023457 2174.984131
4.840000 -7.160000 4.840000 -12.030068 -36.295082 1462.055542
4.840000 -7.160000 4.880000 -2.825630 -30.406839 932.560059
4.840000 -7.160000 4.920000 1.987799 -24.214817 590.308716
4.840000 -7.160000 4.960000 4.337898 -18.356983 355.796173
4.840000 -7.160000 5.000000 4.223486 -12.591158 176.375092
4.840000 -7.160000 5.040000 1.050028 -8.333054 70.542336
4.840000 -7.160000 5.080000 -3.683814 -7.922407 76.335022
4.840000 -7.160000 5.120000 -6.307619 -11.570634 173.665619
4.840000 -7.160000 5.160000 -4.150350 -15.944403 271.449402
4.840000 -7.160000 5.200000 1.467142 -16.573225 276.824280
4.840000 -7.120000 4.800000 -0.858770 -40.762764 1662.340332
4.840000 -7.120000 4.840000 9.804178 -28.537796 910.527710
4.840000 -7.120000 4.880000 11.830801 -15.336319 375.170532
4.840000 -7.120000 4.920000 6.606749 -5.071209 69.366287
4.840000 -7.120000 4.960000 -3.411213 -1.160297 12.982663
4.840000 -7.120000 5.000000 -13.395213 -5.968246 215.051697
4.840000 -7.120000 5.040000 -16.730640 -17.881613 599.666382
4.840000 -7.120000 5.080000 -9.303286 -29.873671 978.987366
4.840000 -7.120000 5.120000 5.961437 -33.222603 1139.280029
4.840000 -7.120000 5.160000 19.804901 -24.363165 985.797852
4.840000 -7.120000 5.200000 23.346968 -8.436613 616.257324
4.840000 -7.080000 4.800000 16.279287 -27.261091 1008.182312
4.840000 -7.080000 4.840000 19.033499 -9.451174 451.598755
4.840000 -7.080000 4.880000 10.205372 6.494236 146.324707
4.840000 -7.080000 4.920000 -8.332147 12.679333 230.190140
4.840000 -7.080000 4.960000 -27.804098 2.657160 780.128357
4.840000 -7.080000 5.000000 -34.790413 -21.306013 1664.318970
4.840000 -7.080000 5.040000 -20.832525 -45.623287 2515.478516
4.840000 -7.080000 5.080000 8.509407 -53.269619 2910.062256
4.840000 -7.080000 5.120000 35.307709 -37.363945 2642.698730
4.840000 -7.080000 5.160000 42.520084 -7.938054 1870.970215
4.840000 -7.080000 5.200000 27.578550 15.574051 1003.127441
4.840000 -7.040000 4.800000 18.012779 -11.698313 461.310730
4.840000 -7.040000 4.840000 12.687029 7.338541 214.814896
4.840000 -7.040000 4.880000 -7.515740 19.312298 429.451202
4.840000 -7.040000 4.920000 -34.639557 11.672829 1336.153809
4.840000 -7.040000 4.960000 -50.006042 -18.064232 2826.920654
4.840000 -7.040000 5.000000 -37.322624 -54.500359 4363.267578
4.840000 -7.040000 5.040000 1.268734 -72.347000 5235.698242
4.840000 -7.040000 5.080000 42.751831 -56.459457 5015.389648
4.840000 -7.040000 5.120000 59.904263 -16.109655 3848.041748
4.840000 -7.040000 5.160000 43.442898 21.291874 2340.629395
4.840000 -7.040000 5.200000 9.194441 32.536114 1143.136475
4.840000 -7.000000 4.800000 12.217778 -5.227437 176.600204
4.840000 -7.000000 4.840000 -0.351584 12.210529 149.220642
4.840000 -7.000000 4.880000 -27.845102 13.981932 970.844116
4.840000 -7.000000 4.920000 -51.861996 -10.880443 2808.050537
4.840000 -7.000000 4.960000 -48.790665 -52.476402 5134.301758
4.840000 -7.000000 5.000000 -11.515779 -82.375137 6918.276367
4.840000 -7.000000 5.040000 39.679604 -75.490112 7273.227539
4.840000 -7.000000 5.080000 70.576859 -32.970264 6068.130859
4.840000 -7.000000 5.120000 61.054840 16.446251 3998.172852
4.840000 -7.000000 5.160000 22.082287 39.788071 2070.718018
4.840000 -7.000000 5.200000 -14.610392 26.957455 940.167908
4.840000 -6.960000 4.800000 10.333762 -6.006644 142.866425
4.840000 -6.960000 4.840000 -8.597616 7.155703 125.123085
4.840000 -6.960000 4.880000 -35.867535 -3.578361 1299.284668
4.840000 -6.960000 4.920000 -45.975922 -38.962036 3631.825684
4.840000 -6.960000 4.960000 -21.517937 -75.718010 6196.238281
4.840000 -6.960000 5.000000 27.805500 -83.182526 7692.478516
4.840000 -6.960000 5.040000 69.269157 -50.404266 7338.806641
4.840000 -6.960000 5.080000 73.562485 1.882688 5414.983398
4.840000 -6.960000 5.120000 40.164227 37.476585 3017.659668
4.840000 -6.960000 5.160000 -2.485220 35.291588 1251.672485
4.840000 -6.960000 5.200000 -22.465567 5.940904 539.996033
4.840000 -6.920000 4.800000 14.257595 -4.218993 221.078918
4.840000 -6.920000 4.840000 -8.716709 1.471898 78.147499
4.840000 -6.920000 4.880000 -28.547356 -18.556942 1159.311646
4.840000 -6.920000 4.920000 -22.616444 -52.215984 3238.012451
4.840000 -6.920000 4.960000 12.327676 -71.718353 5295.493652
4.840000 -6.920000 5.000000 54.022430 -57.087570 6177.414062
4.840000 -6.920000 5.040000 71.981316 -15.122918 5410.012207
4.840000 -6.920000 5.080000 53.788483 24.914976 3513.957031
4.840000 -6.920000 5.120000 15.975395 36.238224 1568.422119
4.840000 -6.920000 5.160000 -11.124930 17.212294 420.027130
4.840000 -6.920000 5.200000 -10.294880 -9.265219 191.828827
4.840000 -6.880000 4.800000 15.503672 4.379693 259.545532
4.840000 -6.880000 4.840000 -6.537791 0.828151 43.428547
4.840000 -6.880000 4.880000 -15.816654 -21.618412 717.522278
4.840000 -6.880000 4.920000 -0.989279 -44.692875 1998.431763
4.840000 -6.880000 4.960000 29.343399 -47.756283 3141.697754
4.840000 -6.880000 5.000000 52.857426 -25.674585 3453.091797
4.840000 -6.880000 5.040000 52.320351 6.263483 2776.650391
4.840000 -6.880000 5.080000 30.268795 25.526836 1567.819336
4.840000 -6.880000 5.120000 5.968090 21.847214 512.918823
4.840000 -6.880000 5.160000 -2.469389 5.093758 32.044250
4.840000 -6.880000 5.200000 6.058483 -5.511898 67.086227
4.840000 -6.840000 4.800000 7.071537 12.398355 203.725861
4.840000 -6.840000 4.840000 -8.131996 1.944506 69.910469
4.840000 -6.840000 4.880000 -8.930429 -16.350899 347.104462
4.840000 -6.840000 4.920000 5.073051 -28.527849 839.574036
4.840000 -6.840000 4.960000 23.537292 -25.906118 1225.131104
4.840000 -6.840000 5.000000 33.908909 -11.162601 1274.417725
4.840000 -6.840000 5.040000 31.110352 4.885418 991.721313
4.840000 -6.840000 5.080000 20.396988 12.758399 578.813843
4.840000 -6.840000 5.120000 11.329844 11.694691 265.131165
4.840000 -6.840000 5.160000 8.641739 8.596312 148.576233
4.840000 -6.840000 5.200000 8.546755 9.914637 171.347046
4.840000 -6.800000 4.800000 -6.182796 9.356678 125.774399
4.840000 -6.800000 4.840000 -11.721951 -1.594074 139.945206
4.840000 -6.800000 4.880000 -9.176741 -12.659354 244.471817
4.840000 -6.800000 4.920000 -1.092575 -19.641054 386.964722
4.840000 -6.800000 4.960000 9.187241 -21.015903 526.073608
4.840000 -6.800000 5.000000 18.748440 -16.777573 632.990967
4.840000 -6.800000 5.040000 24.948238 -7.843309 683.932129
4.840000 -6.800000 5.080000 25.521931 3.594727 664.291016
4.840000 -6.800000 5.120000 19.573355 14.084595 581.492004
4.840000 -6.800000 5.160000 8.397841 19.970869 469.359344
4.840000 -6.800000 5.200000 -4.750835 18.819546 376.745728
4.880000 -7.200000 4.800000 -47.746765 -33.646008 3411.807617
4.880000 -7.200000 4.840000 -30.864740 -43.432251 2838.992676
4.880000 -7.200000 4.880000 -14.055441 -44.297535 2159.827148
4.880000 -7.200000 4.920000 -0.637220 -39.045341 1524.944702
4.880000 -7.200000 4.960000 8.510530 -29.951389 969.514832
4.880000 -7.200000 5.000000 12.298077 -18.315800 486.711182
4.880000 -7.200000 5.040000 8.975986 -6.957947 128.981339
4.880000 -7.200000 5.080000 -0.732717 -1.100262 1.747450
4.880000 -7.200000 5.120000 -11.058340 -4.716152 144.528976
4.880000 -7.200000 5.160000 -13.915050 -15.438873 431.987427
4.880000 -7.200000 5.200000 -5.913549 -24.322313 626.545044
4.880000 -7.160000 4.800000 -14.659271 -52.961487 3019.813477
4.880000 -7.160000 4.840000 2.814763 -46.348423 2156.099121
4.880000 -7.160000 4.880000 13.329599 -34.137772 1343.065674
4.880000 -7.160000 4.920000 15.915340 -20.551876 675.677673
4.880000 -7.160000 4.960000 11.286892 -9.566959 218.920639
4.880000 -7.160000 5.000000 2.011843 -4.781872 26.913811
4.880000 -7.160000 5.040000 -7.030740 -8.090416 114.886139
4.880000 -7.160000 5.080000 -9.989464 -17.496292 405.909637
4.880000 -7.160000 5.120000 -3.687223 -26.634998 723.018799
4.880000 -7.160000 5.160000 9.054785 -28.048527 868.708984
4.880000 -7.160000 5.200000 20.052204 -18.683350 751.158447
4.880000 -7.120000 4.800000 21.202473 -43.776413 2365.919189
4.880000 -7.120000 4.840000 30.044861 -22.867008 1425.593750
4.880000 -7.120000 4.880000 25.063662 -1.445463 630.276489
4.880000 -7.120000 4.920000 7.827999 11.304857 189.077362
4.880000 -7.120000 4.960000 -13.207438 8.328239 243.796005
4.880000 -7.120000 5.000000 -25.526772 -9.466667 741.233887
4.880000 -7.120000 5.040000 -20.347292 -31.457584 1403.591919
4.880000 -7.120000 5.080000 0.279705 -43.125454 1859.883057
4.880000 -7.120000 5.120000 23.670403 -36.121704 1865.065430
4.880000 -7.120000 5.160000 35.111343 -14.588452 1445.629395
4.880000 -7.120000 5.200000 28.257690 7.885401 860.676636
4.880000 -7.080000 4.800000 38.266869 -15.068953 1691.426636
4.880000 -7.080000 4.840000 31.590755 13.554585 1181.702637
4.880000 -7.080000 4.880000 5.046631 32.612297 1089.030396
4.880000 -7.080000 4.920000 -30.420568 27.247313 1667.827026
4.880000 -7.080000 4.960000 -52.909355 -4.435883 2819.076904
4.880000 -7.080000 5.000000 -44.767212 -44.961666 4025.654785
4.880000 -7.080000 5.040000 -8.354572 -67.548851 4632.645996
4.880000 -7.080000 5.080000 33.120506 -56.455788 4284.223633
4.880000 -7.080000 5.120000 52.604584 -19.992687 3166.949707
4.880000 -7.080000 5.160000 40.038734 16.077965 1861.601196
4.880000 -7.080000 5.200000 8.738271 29.223801 930.387878
4.880000 -7.040000 4.800000 31.343014 11.916878 1124.396484
4.880000 -7.040000 4.840000 6.603352 38.519203 1527.333252
4.880000 -7.040000 4.880000 -37.391788 39.970375 2995.776855
4.880000 -7.040000 4.920000 -73.941261 4.209049 5485.026367
4.880000 -7.040000 4.960000 -72.946487 -52.778515 8106.761719
4.880000 -7.040000 5.000000 -27.946835 -93.709373 9562.471680
4.880000 -7.040000 5.040000 33.841061 -88.779709 9027.054688
4.880000 -7.040000 5.080000 71.029663 -41.479050 6765.724609
4.880000 -7.040000 5.120000 61.422928 13.321859 3950.248047
4.880000 -7.040000 5.160000 19.085430 38.327461 1833.247925
4.880000 -7.040000 5.200000 -20.100191 23.478765 955.270142
4.880000 -7.000000 4.800000 13.173021 22.571756 683.012695
4.880000 -7.000000 4.840000 -26.013100 36.896698 2038.047607
4.880000 -7.000000 4.880000 -72.133209 11.708939 5340.298828
4.880000 -7.000000 4.920000 -86.683563 -49.003098 9915.343750
4.880000 -7.000000 4.960000 -47.728313 -107.248367 13780.204102
4.880000 -7.000000 5.000000 25.616787 -119.211388 14867.574219
4.880000 -7.000000 5.040000 84.398300 -73.539108 12531.074219
4.880000 -7.000000 5.080000 89.714996 -3.313523 8059.760254
4.880000 -7.000000 5.120000 45.189262 41.346371 3751.591797
4.880000 -7.000000 5.160000 -8.312791 35.286652 1314.250366
4.880000 -7.000000 5.200000 -29.885294 -3.802626 907.590759
4.880000 -6.960000 4.800000 -0.197883 19.146618 366.632141
4.880000 -6.960000 4.840000 -44.113014 14.730283 2162.939209
4.880000 -6.960000 4.880000 -74.134361 -32.274723 6537.561035
4.880000 -6.960000 4.920000 -55.026810 -95.881378 12221.187500
4.880000 -6.960000 4.960000 12.032583 -127.744965 16463.558594
4.880000 -6.960000 5.000000 84.314346 -98.788544 16868.085938
4.880000 -6.960000 5.040000 111.519913 -27.201042 13176.587891
4.880000 -6.960000 5.080000 78.941895 35.452866 7488.728516
4.880000 -6.960000 5.120000 19.153929 48.457474 2714.999756
4.880000 -6.960000 5.160000 -18.636982 15.156642 577.060913
4.880000 -6.960000 5.200000 -11.673597 -24.991257 760.835815
4.880000 -6.920000 4.800000 -4.127411 13.479694 198.737686
4.880000 -6.920000 4.840000 -40.638947 -8.458254 1723.066040
4.880000 -6.920000 4.880000 -45.384159 -60.797344 5756.039062
4.880000 -6.920000 4.920000 -1.558857 -104.287361 10878.283203
4.880000 -6.920000 4.960000 66.424622 -100.034843 14419.200195
4.880000 -6.920000 5.000000 110.637970 -45.452515 14306.691406
4.880000 -6.920000 5.040000 100.758835 21.330206 10607.320312
4.880000 -6.920000 5.080000 50.249718 54.251450 5468.253906
4.880000 -6.920000 5.120000 2.720686 38.820217 1514.411377
4.880000 -6.920000 5.160000 -7.925861 1.376417 64.713806
4.880000 -6.920000 5.200000 14.706565 -18.884886 572.921997
4.880000 -6.880000 4.800000 -5.460164 12.151678 177.476669
4.880000 -6.880000 4.840000 -26.215313 -18.314734 1022.672119
4.880000 -6.880000 4.880000 -11.086567 -58.983959 3602.019287
4.880000 -6.880000 4.920000 35.726364 -74.785461 6869.238281
4.880000 -6.880000 4.960000 81.818298 -48.384567 9035.300781
4.880000 -6.880000 5.000000 93.859985 3.528458 8822.147461
4.880000 -6.880000 5.040000 66.335403 44.621159 6391.433594
4.880000 -6.880000 5.080000 24.807024 50.701050 3185.984863
4.880000 -6.880000 5.120000 1.267989 28.987713 841.895264
4.880000 -6.880000 5.160000 5.823889 7.645117 92.365494
4.880000 -6.880000 5.200000 21.248373 7.504292 507.807739
4.880000 -6.840000 4.800000 -10.290782 10.926069 225.279175
4.880000 -6.840000 4.840000 -15.316540 -16.237640 498.257385
4.880000 -6.840000 4.880000 5.232515 -38.509312 1510.346313
4.880000 -6.840000 4.920000 37.784737 -37.073792 2802.152344
4.880000 -6.840000 4.960000 59.431019 -11.687065 3668.633301
4.880000 -6.840000 5.000000 56.915771 20.101604 3643.479492
4.880000 -6.840000 5.040000 36.163406 38.764114 2810.448730
4.880000 -6.840000 5.080000 14.515835 38.615170 1701.840820
4.880000 -6.840000 5.120000 4.217073 29.519112 889.161621
4.880000 -6.840000 5.160000 3.145803 24.510647 610.667847
4.880000 -6.840000 5.200000 0.458356 26.628965 709.311890
4.880000 -6.800000 4.800000 -14.997061 3.368379 236.257812
4.880000 -6.800000 4.840000 -11.937678 -12.720771 304.326172
4.880000 -6.800000 4.880000 1.736963 -21.885948 482.011749
4.880000 -6.800000 4.920000 18.008286 -19.620960 709.280396
4.880000 -6.800000 4.960000 29.294399 -8.028786 922.623230
4.880000 -6.800000 5.000000 32.088142 7.505087 1085.975220
4.880000 -6.800000 5.040000 26.664017 21.995853 1194.787354
4.880000 -6.800000 5.080000 14.967220 32.116592 1255.493164
4.880000 -6.800000 5.120000 -0.464976 35.618191 1268.871704
4.880000 -6.800000 5.160000 -16.200254 31.053268 1226.753662
4.880000 -6.800000 5.200000 -27.779030 18.784273 1124.523438
4.920000 -7.200000 4.800000 -34.682846 -57.291061 4485.165527
4.920000 -7.200000 4.840000 -11.137386 -60.274033 3757.000244
4.920000 -7.200000 4.880000 8.204046 -51.520035 2721.620361
4.920000 -7.200000 4.920000 18.560043 -36.520477 1678.220459
4.920000 -7.200000 4.960000 19.392643 -21.121120 822.176331
4.920000 -7.200000 5.000000 12.485533 -9.870550 253.316284
4.920000 -7.200000 5.040000 1.266242 -6.420155 42.821751
4.920000 -7.200000 5.080000 -8.303459 -12.544111 226.302155
4.920000 -7.200000 5.120000 -8.969975 -25.066706 708.800171
4.920000 -7.200000 5.160000 2.583575 -34.798077 1217.580933
4.920000 -7.200000 5.200000 20.562946 -31.710760 1428.407104
4.920000 -7.160000 4.800000 10.986075 -60.572685 3789.744141
4.920000 -7.160000 4.840000 27.866997 -44.917797 2794.177979
4.920000 -7.160000 4.880000 32.714722 -24.099773 1651.052124
4.920000 -7.160000 4.920000 25.001478 -6.503998 667.375916
4.920000 -7.160000 4.960000 9.669697 0.905083 94.322212
4.920000 -7.160000 5.000000 -4.894506 -4.205555 41.642887
4.920000 -7.160000 5.040000 -10.468679 -18.150978 439.051270
4.920000 -7.160000 5.080000 -3.041904 -32.296059 1052.288574
4.920000 -7.160000 5.120000 14.277348 -36.875778 1563.665649
4.920000 -7.160000 5.160000 31.662586 -26.655170 1713.017456
4.920000 -7.160000 5.200000 37.574867 -5.302396 1439.985962
4.920000 -7.120000 4.800000 44.996994 -30.257782 2940.262939
4.920000 -7.120000 4.840000 44.393692 -1.507407 1973.072144
4.920000 -7.120000 4.880000 24.775566 20.977190 1053.871216
4.920000 -7.120000 4.920000 -5.356787 24.010540 605.201233
4.920000 -7.120000 4.960000 -28.751835 4.481426 846.751221
4.920000 -7.120000 5.000000 -30.442013 -26.205124 1613.424561
4.920000 -7.120000 5.040000 -8.814247 -48.553711 2435.153809
4.920000 -7.120000 5.080000 22.504093 -48.191296 2828.834961
4.920000 -7.120000 5.120000 43.930519 -25.695076 2590.127441
4.920000 -7.120000 5.160000 43.204521 4.421512 1886.180420
4.920000 -7.120000 5.200000 22.725197 24.258732 1104.920654
4.920000 -7.080000 4.800000 46.708099 12.772240 2344.776611
4.920000 -7.080000 4.840000 21.715490 42.403221 2269.595703
4.920000 -7.080000 4.880000 -22.661667 47.389370 2759.303711
4.920000 -7.080000 4.920000 -61.181385 16.514168 4015.879639
4.920000 -7.080000 4.960000 -65.983459 -35.925911 5644.487793
4.920000 -7.080000 5.000000 -30.161739 -76.718750 6795.497070
4.920000 -7.080000 5.040000 23.846479 -78.536636 6736.658203
4.920000 -7.080000 5.080000 60.408875 -41.797455 5396.259277
4.920000 -7.080000 5.120000 58.184280 6.028127 3421.748779
4.920000 -7.080000 5.160000 25.066675 32.948849 1713.964844
4.920000 -7.080000 5.200000 -11.312574 26.550278 832.891602
4.920000 -7.040000 4.800000 20.014793 40.540218 2044.101196
4.920000 -7.040000 4.840000 -27.204260 55.039577 3769.426758
4.920000 -7.040000 4.880000 -80.094406 25.833694 7082.493652
4.920000 -7.040000 4.920000 -97.929260 -41.270523 11293.395508
4.920000 -7.040000 4.960000 -58.557049 -105.660912 14593.156250
4.920000 -7.040000 5.000000 17.540817 -121.866501 15159.125000
4.920000 -7.040000 5.040000 79.926422 -78.228317 12507.902344
4.920000 -7.040000 5.080000 88.757545 -8.002194 7941.937012
4.920000 -7.040000 5.120000 46.699921 38.505478 3663.554443
4.920000 -7.040000 5.160000 -6.583862 35.251595 1286.022217
4.920000 -7.040000 5.200000 -30.547817 -2.179475 937.919250
4.920000 -7.000000 4.800000 -12.311248 40.510441 1792.662598
4.920000 -7.000000 4.840000 -68.405037 27.762442 5450.001953
4.920000 -7.000000 4.880000 -103.476006 -35.466129 11965.130859
4.920000 -7.000000 4.920000 -77.167961 -115.668320 19334.054688
4.920000 -7.000000 4.960000 6.275696 -154.816895 24007.656250
4.920000 -7.000000 5.000000 94.121185 -120.068794 23275.312500
4.920000 -7.000000 5.040000 126.964798 -35.194138 17358.687500
4.920000 -7.000000 5.080000 89.045532 38.102913 9380.939453
4.920000 -7.000000 5.120000 19.829372 52.728943 3173.545410
4.920000 -7.000000 5.160000 -23.286718 13.645261 728.464355
4.920000 -7.000000 5.200000 -14.583883 -33.154835 1311.932739
4.920000 -6.960000 4.800000 -29.678432 22.472275 1385.812500
4.920000 -6.960000 4.840000 -75.413483 -17.550823 5995.224609
4.920000 -6.960000 4.880000 -73.668228 -94.308258 14321.055664
4.920000 -6.960000 4.920000 -5.447066 -152.827118 23385.798828
4.920000 -6.960000 4.960000 91.825417 -141.809601 28541.871094
4.920000 -6.960000 5.000000 151.193481 -62.044853 26709.033203
4.920000 -6.960000 5.040000 133.591919 30.533916 18779.121094
4.920000 -6.960000 5.080000 61.657032 72.586067 9070.327148
4.920000 -6.960000 5.120000 -2.513910 47.261791 2239.996826
4.920000 -6.960000 5.160000 -13.552464 -6.231001 222.494629
4.920000 -6.960000 5.200000 20.965286 -33.680084 1573.891235
4.920000 -6.920000 4.800000 -29.274534 5.162210 883.646790
4.920000 -6.920000 4.840000 -50.474861 -48.670723 4916.550781
4.920000 -6.920000 4.880000 -14.124334 -111.083061 12538.943359
4.920000 -6.920000 4.920000 68.319221 -127.010956 20799.298828
4.920000 -6.920000 4.960000 141.275650 -73.153915 25310.304688
4.920000 -6.920000 5.000000 151.843124 17.149542 23350.441406
4.920000 -6.920000 5.040000 96.837646 81.209038 15972.437500
4.920000 -6.920000 5.080000 24.521133 81.693787 7275.161133
4.920000 -6.920000 5.120000 -10.384613 36.625214 1449.246460
4.920000 -6.920000 5.160000 5.596148 -2.628139 38.223995
4.920000 -6.920000 5.200000 39.117188 -1.242157 1531.697266
4.920000 -6.880000 4.800000 -22.540787 -2.010627 512.129700
4.920000 -6.880000 4.840000 -18.634357 -50.775372 2925.377686
4.920000 -6.880000 4.880000 31.346704 -82.781097 7835.325684
4.920000 -6.880000 4.920000 96.261047 -63.281021 13270.676758
4.920000 -6.880000 4.960000 127.726852 1.502563 16316.406250
4.920000 -6.880000 5.000000 102.858223 67.762810 15171.613281
4.920000 -6.880000 5.040000 44.071571 92.551506 10508.084961
4.920000 -6.880000 5.080000 -3.002794 70.482544 4976.805664
4.920000 -6.880000 5.120000 -11.222002 34.014763 1282.937500
4.920000 -6.880000 5.160000 7.251272 19.291603 424.746887
4.920000 -6.880000 5.200000 18.920481 32.766685 1431.640259
4.920000 -6.840000 4.800000 -19.308435 -3.740952 386.810394
4.920000 -6.840000 4.840000 -2.344700 -34.996437 1230.248169
4.920000 -6.840000 4.880000 38.207043 -41.251762 3161.485840
4.920000 -6.840000 4.920000 72.724548 -12.009689 5433.092285
4.920000 -6.840000 4.960000 75.428886 34.563931 6884.182617
4.920000 -6.840000 5.000000 46.170605 67.893219 6741.213867
4.920000 -6.840000 5.040000 8.160187 71.470528 5174.625000
4.920000 -6.840000 5.080000 -14.759203 54.214569 3157.053467
4.920000 -6.840000 5.120000 -18.261288 37.528313 1741.848877
4.920000 -6.840000 5.160000 -16.362923 33.111748 1364.133057
4.920000 -6.840000 5.200000 -22.942305 34.086563 1688.243164
4.920000 -6.800000 4.800000 -18.033644 -7.874073 387.213348
4.920000 -6.800000 4.840000 -3.042274 -21.870701 487.582977
4.920000 -6.800000 4.880000 18.672382 -19.655445 734.994385
4.920000 -6.800000 4.920000 33.043472 -2.113701 1096.338867
4.920000 -6.800000 4.960000 32.511986 20.488937 1476.825684
4.920000 -6.800000 5.000000 19.368080 37.574444 1786.961426
4.920000 -6.800000 5.040000 0.779259 44.780647 2005.913696
4.920000 -6.800000 5.080000 -17.725508 43.152748 2176.353271
4.920000 -6.800000 5.120000 -33.805626 34.486099 2332.111328
4.920000 -6.800000 5.160000 -45.353607 19.341665 2431.049805
4.920000 -6.800000 5.200000 -48.625782 -0.505687 2364.722412
4.960000 -7.200000 4.800000 -1.634702 -69.656570 4854.709961
4.960000 -7.200000 4.840000 22.746037 -59.069885 4006.633789
4.960000 -7.200000 4.880000 34.792061 -38.663971 2705.390137
4.960000 -7.200000 4.920000 32.855042 -18.869751 1435.521240
4.960000 -7.200000 4.960000 21.907738 -7.034914 529.438965
4.960000 -7.200000 5.000000 8.784203 -5.436558 106.718376
4.960000 -7.200000 5.040000 -0.448244 -12.874756 165.960266
4.960000 -7.200000 5.080000 -0.673622 -25.392860 645.251160
4.960000 -7.200000 5.120000 10.665566 -35.438889 1369.669067
4.960000 -7.200000 5.160000 29.584846 -33.697433 2010.780029
4.960000 -7.200000 5.200000 44.305187 -15.891044 2215.474854
4.960000 -7.160000 4.800000 41.803246 -48.112839 4062.356445
4.960000 -7.160000 4.840000 50.495171 -23.102098 3083.469238
4.960000 -7.160000 4.880000 41.997581 0.686995 1764.268799
4.960000 -7.160000 4.920000 21.858049 11.987520 621.474976
4.960000 -7.160000 4.960000 1.718115 6.819550 49.458176
4.960000 -7.160000 5.000000 -7.687536 -9.936432 157.830902
4.960000 -7.160000 5.040000 -1.762672 -27.904575 781.772339
4.960000 -7.160000 5.080000 16.321564 -36.374825 1589.521240
4.960000 -7.160000 5.120000 36.999901 -29.028698 2211.657959
4.960000 -7.160000 5.160000 48.147503 -7.468011 2373.953369
4.960000 -7.160000 5.200000 41.222870 18.007683 2023.601562
4.960000 -7.120000 4.800000 56.176144 -0.908822 3156.584961
4.960000 -7.120000 4.840000 40.569103 27.845442 2421.220703
4.960000 -7.120000 4.880000 7.355000 39.009056 1575.802490
4.960000 -7.120000 4.920000 -25.067020 23.075985 1160.856689
4.960000 -7.120000 4.960000 -36.219231 -11.565735 1445.598877
4.960000 -7.120000 5.000000 -18.827515 -43.317383 2230.870850
4.960000 -7.120000 5.040000 15.687725 -52.468941 2999.094482
4.960000 -7.120000 5.080000 45.586182 -34.521408 3269.827637
4.960000 -7.120000 5.120000 53.731968 -1.927010 2890.837646
4.960000 -7.120000 5.160000 37.694347 25.603962 2076.426758
4.960000 -7.120000 5.200000 9.093413 33.814575 1226.115723
4.960000 -7.080000 4.800000 32.209091 40.764595 2699.177734
4.960000 -7.080000 4.840000 -8.618435 56.508942 3267.537842
4.960000 -7.080000 4.880000 -55.533672 35.640823 4354.256836
4.960000 -7.080000 4.920000 -75.331993 -17.700233 5988.207520
4.960000 -7.080000 4.960000 -49.335876 -71.856331 7597.361328
4.960000 -7.080000 5.000000 8.350613 -90.716232 8299.166992
4.960000 -7.080000 5.040000 60.046200 -62.724754 7539.940918
4.960000 -7.080000 5.080000 73.808228 -9.829896 5544.281250
4.960000 -7.080000 5.120000 47.138206 31.130007 3191.087891
4.960000 -7.080000 5.160000 5.342897 37.255089 1416.488159
4.960000 -7.080000 5.200000 -21.400486 13.749058 647.017395
4.960000 -7.040000 4.800000 -11.324827 50.931736 2722.293457
4.960000 -7.040000 4.840000 -65.499199 37.777519 5717.286133
4.960000 -7.040000 4.880000 -99.651535 -21.919313 10410.884766
4.960000 -7.040000 4.920000 -77.373260 -97.446533 15482.449219
4.960000 -7.040000 4.960000 -2.391323 -136.416595 18615.207031
4.960000 -7.040000 5.000000 78.434631 -108.816620 17993.046875
4.960000 -7.040000 5.040000 111.876106 -34.499577 13706.483398
4.960000 -7.040000 5.080000 82.149429 32.776348 7822.817871
4.960000 -7.040000 5.120000 21.574965 50.388744 3004.504639
4.960000 -7.040000 5.160000 -20.267410 19.433125 788.414246
4.960000 -7.040000 5.200000 -18.418917 -22.944143 865.690186
4.960000 -7.000000 4.800000 -44.023773 28.974060 2777.588867
4.960000 -7.000000 4.840000 -89.678093 -17.225834 8338.889648
4.960000 -7.000000 4.880000 -84.887756 -99.110397 17028.802734
4.960000 -7.000000 4.920000 -11.766146 -160.131760 25780.621094
4.960000 -7.000000 4.960000 90.284958 -148.493317 30201.638672
4.960000 -7.000000 5.000000 152.535095 -65.944054 27615.574219
4.960000 -7.000000 5.040000 135.285828 29.863327 19194.074219
4.960000 -7.000000 5.080000 61.672905 74.040611 9285.559570
4.960000 -7.000000 5.120000 -5.033390 48.846817 2411.346436
4.960000 -7.000000 5.160000 -18.027111 -6.633732 368.983154
4.960000 -7.000000 5.200000 16.524914 -37.423634 1673.601074
4.960000 -6.960000 4.800000 -49.107021 -3.066683 2420.904053
4.960000 -6.960000 4.840000 -66.505203 -69.309128 9226.697266
4.960000 -6.960000 4.880000 -16.964710 -140.919067 20145.984375
4.960000 -6.960000 4.920000 83.594299 -154.827637 30959.605469
4.960000 -6.960000 4.960000 168.920776 -86.357307 35991.812500
4.960000 -6.960000 5.000000 177.806366 22.682764 32129.611328
4.960000 -6.960000 5.040000 108.912613 97.314186 21332.007812
4.960000 -6.960000 5.080000 21.497833 94.326614 9359.666992
4.960000 -6.960000 5.120000 -18.847906 36.954422 1720.872803
4.960000 -6.960000 5.160000 3.304079 -12.287149 161.890991
4.960000 -6.960000 5.200000 47.297394 -11.299486 2364.721924
4.960000 -6.920000 4.800000 -34.039909 -22.188253 1651.034058
4.960000 -6.920000 4.840000 -18.513559 -85.223236 7605.751953
4.960000 -6.920000 4.880000 55.572186 -120.479950 17603.685547
4.960000 -6.920000 4.920000 143.596130 -83.778854 27638.746094
4.960000 -6.920000 4.960000 179.436798 11.981218 32341.113281
4.960000 -6.920000 5.000000 134.982437 102.938568 28816.605469
4.960000 -6.920000 5.040000 46.553226 129.520752 18942.828125
4.960000 -6.920000 5.080000 -18.480722 88.109680 8104.853027
4.960000 -6.920000 5.120000 -22.345095 29.533688 1371.541992
4.960000 -6.920000 5.160000 14.004673 7.980837 259.824615
4.960000 -6.920000 5.200000 38.667221 32.216957 2533.086426
4.960000 -6.880000 4.800000 -18.341463 -23.352648 881.755371
4.960000 -6.880000 4.840000 17.262028 -64.734375 4488.516602
4.960000 -6.880000 4.880000 84.874802 -61.641945 11003.460938
4.960000 -6.880000 4.920000 133.566711 -0.943218 17840.957031
4.960000 -6.880000 4.960000 121.862671 80.760315 21372.738281
4.960000 -6.880000 5.000000 56.493889 127.686401 19495.376953
4.960000 -6.880000 5.040000 -13.740931 114.345146 13263.625977
4.960000 -6.880000 5.080000 -43.128162 65.677917 6173.626953
4.960000 -6.880000 5.120000 -28.410341 29.358179 1669.050171
4.960000 -6.880000 5.160000 -4.936989 29.758648 909.950989
4.960000 -6.880000 5.200000 -7.006422 49.521851 2501.503418
4.960000 -6.840000 4.800000 -13.035757 -18.265738 503.568146
4.960000 -6.840000 4.840000 22.764685 -35.209045 1757.907715
4.960000 -6.840000 4.880000 64.692551 -13.502289 4367.437988
4.960000 -6.840000 4.920000 77.287346 37.956196 7414.006836
4.960000 -6.840000 4.960000 47.668442 84.332390 9384.232422
4.960000 -6.840000 5.000000 -3.310844 95.919685 9211.547852
4.960000 -6.840000 5.040000 -41.652229 73.175835 7089.610840
4.960000 -6.840000 5.080000 -51.045761 41.837791 4356.070312
4.960000 -6.840000 5.120000 -43.315426 25.317730 2517.213379
4.960000 -6.840000 5.160000 -40.542137 23.752773 2207.859131
4.960000 -6.840000 5.200000 -50.174561 19.662649 2904.106445
4.960000 -6.800000 4.800000 -13.050310 -18.405174 509.061035
4.960000 -6.800000 4.840000 10.129891 -21.771978 576.633728
4.960000 -6.800000 4.880000 28.965309 -4.134567 856.083801
4.960000 -6.800000 4.920000 28.876385 23.350029 1379.069458
4.960000 -6.800000 4.960000 10.047089 43.592133 2001.218018
4.960000 -6.800000 5.000000 -15.600849 47.652485 2514.145752
4.960000 -6.800000 5.040000 -36.654102 38.637051 2836.344727
4.960000 -6.800000 5.080000 -50.037971 23.979774 3078.828125
4.960000 -6.800000 5.120000 -57.838913 6.930822 3393.376221
4.960000 -6.800000 5.160000 -59.780819 -13.219627 3748.504883
4.960000 -6.800000 5.200000 -51.881943 -34.456085 3878.958008
5.000000 -7.200000 4.800000 36.082588 -53.976791 4215.447266
5.000000 -7.200000 4.840000 49.936134 -30.569166 3428.091309
5.000000 -7.200000 4.880000 45.852409 -6.850569 2149.373535
5.000000 -7.200000 4.920000 30.467098 5.781254 961.666992
5.000000 -7.200000 4.960000 14.661152 5.118614 241.149582
5.000000 -7.200000 5.000000 5.707918 -4.088459 49.295830
5.000000 -7.200000 5.040000 5.848112 -15.799418 283.822052
5.000000 -7.200000 5.080000 14.860420 -24.721048 831.962341
5.000000 -7.200000 5.120000 30.333595 -25.136461 1551.968750
5.000000 -7.200000 5.160000 45.039551 -12.421430 2182.853027
5.000000 -7.200000 5.200000 47.725075 11.134207 2401.653320
5.000000 -7.160000 4.800000 58.503624 -14.475203 3632.205566
5.000000 -7.160000 4.840000 52.476711 12.719049 2915.579346
5.000000 -7.160000 4.880000 30.362888 28.125069 1712.924438
5.000000 -7.160000 4.920000 5.782089 24.273308 622.626038
5.000000 -7.160000 4.960000 -7.504149 6.091114 93.413925
5.000000 -7.160000 5.000000 -4.080437 -14.318581 221.671707
5.000000 -7.160000 5.040000 12.206057 -25.798199 814.534912
5.000000 -7.160000 5.080000 32.315086 -22.767139 1562.607422
5.000000 -7.160000 5.120000 46.120491 -5.975150 2162.802002
5.000000 -7.160000 5.160000 45.424152 17.758648 2378.723145
5.000000 -7.160000 5.200000 27.805519 36.692684 2119.500000
5.000000 -7.120000 4.800000 44.295101 30.472311 2890.617676
5.000000 -7.120000 4.840000 16.186470 48.455536 2609.940674
5.000000 -7.120000 4.880000 -19.261438 40.477821 2009.457031
5.000000 -7.120000 4.920000 -38.967720 8.407410 1589.167725
5.000000 -7.120000 4.960000 -29.581177 -28.049541 1661.822754
5.000000 -7.120000 5.000000 2.344448 -46.180038 2138.092285
5.000000 -7.120000 5.040000 36.147720 -36.499966 2638.905273
5.000000 -7.120000 5.080000 52.338573 -7.500683 2795.586426
5.000000 -7.120000 5.120000 44.430786 22.495176 2480.127686
5.000000 -7.120000 5.160000 20.093323 37.787338 1831.624512
5.000000 -7.120000 5.200000 -5.999434 33.016403 1126.076050
5.000000 -7.080000 4.800000 1.825158 50.434547 2546.974854
5.000000 -7.080000 4.840000 -40.752808 44.358051 3628.428223
5.000000 -7.080000 4.880000 -70.378159 2.700092 4960.375488
5.000000 -7.080000 4.920000 -59.882439 -53.012569 6396.239258
5.000000 -7.080000 4.960000 -10.347240 -85.667496 7445.985352
5.000000 -7.080000 5.000000 47.180508 -72.830559 7530.291016
5.000000 -7.080000 5.040000 76.096161 -25.112148 6421.245605
5.000000 -7.080000 5.080000 62.626801 23.505251 4474.613281
5.000000 -7.080000 5.120000 23.676086 43.380592 2442.432861
5.000000 -7.080000 5.160000 -10.320795 29.954836 1003.810974
5.000000 -7.080000 5.200000 -19.816093 1.720783 395.638641
5.000000 -7.040000 4.800000 -39.504246 33.498310 2682.722168
5.000000 -7.040000 4.840000 -77.940453 -4.031376 6090.966309
5.000000 -7.040000 4.880000 -76.132477 -71.031517 10841.630859
5.000000 -7.040000 4.920000 -19.208073 -122.588623 15396.920898
5.000000 -7.040000 4.960000 62.488060 -117.176643 17635.123047
5.000000 -7.040000 5.000000 115.130081 -54.677338 16244.546875
5.000000 -7.040000 5.040000 106.256935 21.400904 11748.535156
5.000000 -7.040000 5.080000 51.105053 60.423557 6262.732422
5.000000 -7.040000 5.120000 -3.306789 45.825470 2110.908447
5.000000 -7.040000 5.160000 -19.640709 3.840994 400.510681
5.000000 -7.040000 5.200000 1.782869 -24.832369 619.825195
5.000000 -7.000000 4.800000 -53.316051 -4.398895 2861.951660
5.000000 -7.000000 4.840000 -66.708717 -64.958496 8669.659180
5.000000 -7.000000 4.880000 -20.543354 -129.372375 17159.240234
5.000000 -7.000000 4.920000 70.835648 -141.785950 25120.945312
5.000000 -7.000000 4.960000 148.481155 -80.301155 28494.929688
5.000000 -7.000000 5.000000 157.714203 18.059555 25199.917969
5.000000 -7.000000 5.040000 96.631294 86.500160 16819.884766
5.000000 -7.000000 5.080000 17.285229 85.560562 7619.389160
5.000000 -7.000000 5.120000 -21.456217 34.270058 1634.806152
5.000000 -7.000000 5.160000 -3.769459 -12.549084 171.688324
5.000000 -7.000000 5.200000 36.480827 -16.007324 1587.085205
5.000000 -6.960000 4.800000 -37.262806 -34.471405 2576.794434
5.000000 -6.960000 4.840000 -16.310278 -96.129768 9506.958008
5.000000 -6.960000 4.880000 61.482346 -127.738373 20097.169922
5.000000 -6.960000 4.920000 150.611389 -86.176537 30110.187500
5.000000 -6.960000 4.960000 184.500015 14.074346 34238.339844
5.000000 -6.960000 5.000000 135.632874 107.207825 29889.794922
5.000000 -6.960000 5.040000 42.365677 132.307236 19300.054688
5.000000 -6.960000 5.080000 -25.195387 86.215813 8067.974121
5.000000 -6.960000 5.120000 -27.501863 22.217270 1249.959595
5.000000 -6.960000 5.160000 13.942553 -2.337341 199.857941
5.000000 -6.960000 5.200000 44.481709 23.145981 2514.358887
5.000000 -6.920000 4.800000 -11.614824 -40.294346 1758.538452
5.000000 -6.920000 4.840000 34.383438 -81.293488 7790.852051
5.000000 -6.920000 4.880000 112.818672 -69.426735 17548.125000
5.000000 -6.920000 4.920000 164.383820 7.888885 27084.275391
5.000000 -6.920000 4.960000 142.216827 105.194893 31291.593750
5.000000 -6.920000 5.000000 57.639919 155.676270 27557.460938
5.000000 -6.920000 5.040000 -27.876652 130.733917 17868.464844
5.000000 -6.920000 5.080000 -58.169746 64.063774 7487.886719
5.000000 -6.920000 5.120000 -30.951817 17.030941 1248.067871
5.000000 -6.920000 5.160000 6.973553 20.973013 488.497711
5.000000 -6.920000 5.200000 9.660080 53.349258 2939.460449
5.000000 -6.880000 4.800000 2.074440 -29.201794 857.048035
5.000000 -6.880000 4.840000 52.393162 -42.042458 4512.611816
5.000000 -6.880000 4.880000 104.777832 -1.994820 10982.374023
5.000000 -6.880000 4.920000 110.415672 74.556297 17750.261719
5.000000 -6.880000 4.960000 55.153206 134.945511 21252.167969
5.000000 -6.880000 5.000000 -24.613380 137.076355 19395.746094
5.000000 -6.880000 5.040000 -74.611069 87.441414 13212.812500
5.000000 -6.880000 5.080000 -71.763794 32.372334 6198.009766
5.000000 -6.880000 5.120000 -40.976139 12.337458 1831.256836
5.000000 -6.880000 5.160000 -25.038950 26.080654 1307.149536
5.000000 -6.880000 5.200000 -40.899651 38.980278 3192.243408
5.000000 -6.840000 4.800000 0.375374 -20.232536 409.496429
5.000000 -6.840000 4.840000 38.074066 -13.919788 1643.395020
5.000000 -6.840000 4.880000 59.506279 27.718765 4309.327148
5.000000 -6.840000 4.920000 39.544228 77.340141 7545.243652
5.000000 -6.840000 4.960000 -12.640564 97.992249 9762.264648
5.000000 -6.840000 5.000000 -61.804893 76.931763 9738.340820
5.000000 -6.840000 5.040000 -79.649246 35.234512 7585.473145
5.000000 -6.840000 5.080000 -68.674858 4.564264 4737.068848
5.000000 -6.840000 5.120000 -53.785839 -3.392716 2904.427002
5.000000 -6.840000 5.160000 -53.207218 -3.406658 2842.613281
5.000000 -6.840000 5.200000 -60.792248 -15.189746 3926.425781
5.000000 -6.800000 4.800000 -3.295689 -22.774624 529.545044
5.000000 -6.800000 4.840000 18.303072 -12.355539 487.661804
5.000000 -6.800000 4.880000 23.200840 14.106724 737.278625
5.000000 -6.800000 4.920000 5.012520 36.867287 1384.322144
5.000000 -6.800000 4.960000 -24.287823 40.398094 2221.904297
5.000000 -6.800000 5.000000 -47.352940 25.575134 2896.388184
5.000000 -6.800000 5.040000 -56.904743 4.422981 3257.712646
5.000000 -6.800000 5.080000 -57.568100 -14.255747 3517.312500
5.000000 -6.800000 5.120000 -54.969971 -31.307915 4001.883301
5.000000 -6.800000 5.160000 -47.145897 -50.001350 4722.870605
5.000000 -6.800000 5.200000 -28.800461 -66.323227 5228.237305
5.040000 -7.200000 4.800000 52.245682 -14.086305 2928.035400
5.040000 -7.200000 4.840000 48.139847 11.197194 2442.822021
5.040000 -7.200000 4.880000 29.584223 24.658772 1483.281250
5.040000 -7.200000 4.920000 10.643991 21.653166 582.154114
5.040000 -7.200000 4.960000 1.640182 9.293997 89.068573
5.040000 -7.200000 5.000000 3.245330 -2.734574 18.010063
5.040000 -7.200000 5.040000 10.920029 -9.699741 213.332001
5.040000 -7.200000 5.080000 21.274498 -10.825083 569.786682
5.040000 -7.200000 5.120000 32.038673 -4.750413 1049.042969
5.040000 -7.200000 5.160000 37.940487 9.810015 1535.717041
5.040000 -7.200000 5.200000 31.408461 28.330656 1789.117432
5.040000 -7.160000 4.800000 46.543053 22.695873 2681.358398
5.040000 -7.160000 4.840000 27.298820 40.957859 2422.771973
5.040000 -7.160000 4.880000 1.244724 39.936699 1596.489258
5.040000 -7.160000 4.920000 -15.092714 21.992990 711.481628
5.040000 -7.160000 4.960000 -14.063030 0.227222 197.820450
5.040000 -7.160000 5.000000 0.027988 -13.020027 169.521881
5.040000 -7.160000 5.040000 17.551868 -13.333839 485.859375
5.040000 -7.160000 5.080000 30.603592 -2.842395 944.659058
5.040000 -7.160000 5.120000 34.472061 13.893873 1381.362671
5.040000 -7.160000 5.160000 26.477674 30.760258 1647.260742
5.040000 -7.160000 5.200000 7.642700 39.400352 1610.798706
5.040000 -7.120000 4.800000 14.086557 44.826588 2207.854004
5.040000 -7.120000 4.840000 -16.079021 46.483158 2419.218994
5.040000 -7.120000 4.880000 -39.941284 23.298941 2138.146729
5.040000 -7.120000 4.920000 -39.595703 -11.141204 1691.946167
5.040000 -7.120000 4.960000 -15.054169 -34.559372 1420.978271
5.040000 -7.120000 5.000000 17.042196 -33.718758 1427.391113
5.040000 -7.120000 5.040000 37.552319 -12.545799 1567.573730
5.040000 -7.120000 5.080000 37.874031 13.980343 1629.892212
5.040000 -7.120000 5.120000 22.200804 31.721392 1499.122437
5.040000 -7.120000 5.160000 1.163284 34.537216 1194.172607
5.040000 -7.120000 5.200000 -15.144852 24.119724 811.127625
5.040000 -7.080000 4.800000 -24.550592 35.949444 1895.094116
5.040000 -7.080000 4.840000 -53.801521 14.144127 3094.660156
5.040000 -7.080000 4.880000 -57.876122 -29.607063 4226.223633
5.040000 -7.080000 4.920000 -25.708475 -66.289642 5055.242676
5.040000 -7.080000 4.960000 24.834167 -68.807053 5351.146484
5.040000 -7.080000 5.000000 61.064514 -35.221527 4969.431152
5.040000 -7.080000 5.040000 62.152973 10.374100 3970.614258
5.040000 -7.080000 5.080000 33.974834 38.676346 2650.149170
5.040000 -7.080000 5.120000 0.711033 37.572395 1412.190552
5.040000 -7.080000 5.160000 -16.306967 17.219194 562.417847
5.040000 -7.080000 5.200000 -12.818388 -2.922205 172.850342
5.040000 -7.040000 4.800000 -43.252651 2.688805 1878.021484
5.040000 -7.040000 4.840000 -55.228516 -39.302086 4594.842773
5.040000 -7.040000 4.880000 -25.556671 -86.212074 8085.665527
5.040000 -7.040000 4.920000 37.270847 -98.568764 11104.916992
5.040000 -7.040000 4.960000 93.232971 -59.671455 12253.069336
5.040000 -7.040000 5.000000 104.072662 6.933792 10879.196289
5.040000 -7.040000 5.040000 66.239258 56.532166 7583.524902
5.040000 -7.040000 5.080000 12.505665 60.953987 3871.780029
5.040000 -7.040000 5.120000 -17.970982 29.660358 1202.693115
5.040000 -7.040000 5.160000 -11.899374 -3.420362 153.293991
5.040000 -7.040000 5.200000 12.421955 -11.833361 294.333374
5.040000 -7.000000 4.800000 -31.908648 -30.190287 1929.615234
5.040000 -7.000000 4.840000 -15.887314 -76.845634 6157.658203
5.040000 -7.000000 4.880000 43.773766 -101.458519 12209.973633
5.040000 -7.000000 4.920000 113.018616 -70.224174 17704.640625
5.040000 -7.000000 4.960000 140.637787 6.878677 19826.302734
5.040000 -7.000000 5.000000 104.369301 79.929375 17281.656250
5.040000 -7.000000 5.040000 32.294659 101.450455 11335.139648
5.040000 -7.000000 5.080000 -22.014242 67.145966 4993.207520
5.040000 -7.000000 5.120000 -26.554333 16.396299 973.971191
5.040000 -7.000000 5.160000 4.717890 -6.273349 61.613388
5.040000 -7.000000 5.200000 31.055359 9.923837 1062.917847
5.040000 -6.960000 4.800000 -4.347418 -41.016285 1701.235596
5.040000 -6.960000 4.840000 35.921524 -72.836426 6595.500977
5.040000 -6.960000 4.880000 102.722610 -59.806530 14128.755859
5.040000 -6.960000 4.920000 145.529572 8.894032 21257.958984
5.040000 -6.960000 4.960000 123.938477 93.998810 24196.523438
5.040000 -6.960000 5.000000 47.847824 137.189499 21110.373047
5.040000 -6.960000 5.040000 -28.598274 113.078659 13604.644531
5.040000 -6.960000 5.080000 -55.086510 51.218430 5657.851074
5.040000 -6.960000 5.120000 -28.557499 6.752766 861.130615
5.040000 -6.960000 5.160000 9.461861 9.376184 177.439636
5.040000 -6.960000 5.200000 16.224300 40.529957 1905.905273
5.040000 -6.920000 4.800000 15.480244 -29.354408 1101.319214
5.040000 -6.920000 4.840000 63.571915 -35.856583 5327.083008
5.040000 -6.920000 4.880000 110.895340 7.990988 12361.631836
5.040000 -6.920000 4.920000 110.315254 85.026222 19398.914062
5.040000 -6.920000 4.960000 49.320927 142.305054 22683.281250
5.040000 -6.920000 5.000000 -33.623314 138.042557 20186.275391
5.040000 -6.920000 5.040000 -82.076248 80.624809 13236.871094
5.040000 -6.920000 5.080000 -72.448624 20.079823 5652.002441
5.040000 -6.920000 5.120000 -32.376644 0.449503 1048.449097
5.040000 -6.920000 5.160000 -9.740046 20.941793 533.427185
5.040000 -6.920000 5.200000 -25.465488 43.089458 2505.192383
5.040000 -6.880000 4.800000 15.908880 -13.626833 438.783051
5.040000 -6.880000 4.840000 54.647800 0.645792 2986.799072
5.040000 -6.880000 4.880000 70.963402 52.400990 7781.667969
5.040000 -6.880000 4.920000 37.676594 107.776047 13035.201172
5.040000 -6.880000 4.960000 -30.599112 122.734779 16000.131836
5.040000 -6.880000 5.000000 -87.843597 84.820374 14910.993164
5.040000 -6.880000 5.040000 -98.730698 25.137300 10379.634766
5.040000 -6.880000 5.080000 -69.986343 -12.065766 5043.670898
5.040000 -6.880000 5.120000 -39.685448 -10.925643 1694.304443
5.040000 -6.880000 5.160000 -37.215534 5.447056 1414.666382
5.040000 -6.880000 5.200000 -56.007576 3.684090 3150.421143
5.040000 -6.840000 4.800000 6.527788 -10.971713 162.990509
5.040000 -6.840000 4.840000 29.144304 10.758383 965.133240
5.040000 -6.840000 4.880000 23.230003 49.935246 3033.161865
5.040000 -6.840000 4.920000 -16.282349 74.165909 5765.696777
5.040000 -6.840000 4.960000 -63.942383 61.088638 7820.450195
5.040000 -6.840000 5.000000 -87.461624 19.873615 8044.496094
5.040000 -6.840000 5.040000 -77.782318 -19.043936 6412.760254
5.040000 -6.840000 5.080000 -54.275688 -34.448727 4132.564941
5.040000 -6.840000 5.120000 -41.285282 -32.462467 2758.286133
5.040000 -6.840000 5.160000 -42.692581 -34.544910 3016.007324
5.040000 -6.840000 5.200000 -41.523926 -50.906384 4315.696289
5.040000 -6.800000 4.800000 5.231241 -20.201519 435.467255
5.040000 -6.800000 4.840000 16.051390 -1.494630 259.881042
5.040000 -6.800000 4.880000 5.105785 20.341385 439.840973
5.040000 -6.800000 4.920000 -21.134975 25.885509 1116.746826
5.040000 -6.800000 4.960000 -43.750698 10.453510 2023.399414
5.040000 -6.800000 5.000000 -50.179405 -13.872753 2710.426025
5.040000 -6.800000 5.040000 -43.721275 -33.155708 3010.851074
5.040000 -6.800000 5.080000 -34.738945 -45.157566 3246.000000
5.040000 -6.800000 5.120000 -26.198021 -56.624405 3892.659668
5.040000 -6.800000 5.160000 -11.497631 -69.690804 4989.003418
5.040000 -6.800000 5.200000 13.519987 -75.724953 5917.058594
5.080000 -7.200000 4.800000 33.851120 23.686741 1706.959961
5.080000 -7.200000 4.840000 16.206444 37.299503 1653.901733
5.080000 -7.200000 4.880000 -4.277931 33.371700 1131.971069
5.080000 -7.200000 4.920000 -13.800432 17.960466 513.030273
5.080000 -7.200000 4.960000 -10.223420 3.896774 119.703171
5.080000 -7.200000 5.000000 -1.287512 -1.899128 5.264376
5.080000 -7.200000 5.040000 6.029043 -1.714347 39.288345
5.080000 -7.200000 5.080000 11.431314 0.288063 130.757935
5.080000 -7.200000 5.120000 16.814720 4.725595 305.066040
5.080000 -7.200000 5.160000 19.329283 14.192385 575.044983
5.080000 -7.200000 5.200000 12.888577 25.504999 816.620422
5.080000 -7.160000 4.800000 12.248751 38.649132 1643.787231
5.080000 -7.160000 4.840000 -9.980152 41.705723 1838.970703
5.080000 -7.160000 4.880000 -27.207150 26.994658 1468.940552
5.080000 -7.160000 4.920000 -28.397211 5.767333 839.663757
5.080000 -7.160000 4.960000 -16.173485 -8.259129 329.794800
5.080000 -7.160000 5.000000 -0.987814 -10.231380 105.656921
5.080000 -7.160000 5.040000 9.617635 -4.197477 110.117722
5.080000 -7.160000 5.080000 14.618464 4.688293 235.679596
5.080000 -7.160000 5.120000 14.783002 14.673743 433.855896
5.080000 -7.160000 5.160000 8.698935 24.247520 663.613708
5.080000 -7.160000 5.200000 -4.119471 28.248577 814.952148
5.080000 -7.120000 4.800000 -15.068287 33.473732 1347.543945
5.080000 -7.120000 4.840000 -36.305550 23.234203 1857.921143
5.080000 -7.120000 4.880000 -43.036091 -2.220518 1857.035767
5.080000 -7.120000 4.920000 -28.628586 -25.238211 1456.563232
5.080000 -7.120000 4.960000 -3.210423 -31.005377 971.640198
5.080000 -7.120000 5.000000 16.896984 -18.914070 643.250122
5.080000 -7.120000 5.040000 22.653114 0.235302 513.218933
5.080000 -7.120000 5.080000 16.149673 15.283724 494.404175
5.080000 -7.120000 5.120000 4.526091 21.842218 497.568024
5.080000 -7.120000 5.160000 -6.785235 20.859482 481.157410
5.080000 -7.120000 5.200000 -14.952101 14.234013 426.172424
5.080000 -7.080000 4.800000 -30.209011 9.959627 1011.778503
5.080000 -7.080000 4.840000 -42.006290 -12.742863 1926.908936
5.080000 -7.080000 4.880000 -29.762465 -41.687431 2623.646240
5.080000 -7.080000 4.920000 3.226902 -53.496067 2872.241943
5.080000 -7.080000 4.960000 35.470081 -37.574390 2669.961426
5.080000 -7.080000 5.000000 46.274948 -5.029696 2166.668701
5.080000 -7.080000 5.040000 32.493404 22.194778 1548.429443
5.080000 -7.080000 5.080000 8.328373 29.923166 964.757690
5.080000 -7.080000 5.120000 -9.014548 20.621580 506.511658
5.080000 -7.080000 5.160000 -12.679235 6.935378 208.862457
5.080000 -7.080000 5.200000 -7.530670 -0.919136 57.555805
5.080000 -7.040000 4.800000 -23.233568 -15.873975 791.781799
5.080000 -7.040000 4.840000 -18.120846 -43.394890 2211.481445
5.080000 -7.040000 4.880000 14.251343 -61.234245 3952.733643
5.080000 -7.040000 4.920000 55.438667 -47.382515 5318.548828
5.080000 -7.040000 4.960000 75.234833 -5.271402 5688.067871
5.080000 -7.040000 5.000000 58.917629 37.660954 4889.634766
5.080000 -7.040000 5.040000 20.203896 53.857548 3308.833008
5.080000 -7.040000 5.080000 -11.913301 38.787956 1646.432251
5.080000 -7.040000 5.120000 -18.741297 11.961691 494.318237
5.080000 -7.040000 5.160000 -5.415343 -3.029491 38.503757
5.080000 -7.040000 5.200000 8.278396 1.131302 69.811684
5.080000 -7.000000 4.800000 -1.290483 -26.184944 687.316650
5.080000 -7.000000 4.840000 20.884827 -46.302078 2580.058594
5.080000 -7.000000 4.880000 61.831169 -40.275383 5445.200195
5.080000 -7.000000 4.920000 90.119766 1.283306 8123.219238
5.080000 -7.000000 4.960000 78.637421 55.280613 9239.790039
5.080000 -7.000000 5.000000 31.472719 84.581047 8144.485840
5.080000 -7.000000 5.040000 -18.134726 71.244736 5404.680664
5.080000 -7.000000 5.080000 -37.374905 32.058704 2424.644043
5.080000 -7.000000 5.120000 -22.124493 1.618684 492.113312
5.080000 -7.000000 5.160000 2.859568 0.380936 8.322239
5.080000 -7.000000 5.200000 9.993279 18.826094 454.287445
5.080000 -6.960000 4.800000 17.031986 -16.721409 569.694092
5.080000 -6.960000 4.840000 47.241814 -20.340591 2645.528809
5.080000 -6.960000 4.880000 78.212425 9.653224 6210.368164
5.080000 -6.960000 4.920000 76.743607 63.007442 9859.518555
5.080000 -6.960000 4.960000 32.707336 102.906509 11659.519531
5.080000 -6.960000 5.000000 -27.425219 98.802269 10514.031250
5.080000 -6.960000 5.040000 -62.724621 55.554585 7020.689941
5.080000 -6.960000 5.080000 -54.712288 9.228039 3078.591064
5.080000 -6.960000 5.120000 -22.557131 -6.650293 553.050537
5.080000 -6.960000 5.160000 -2.230639 9.245574 90.456383
5.080000 -6.960000 5.200000 -11.585089 28.913620 970.211731
5.080000 -6.920000 4.800000 18.498665 -0.426480 342.382477
5.080000 -6.920000 4.840000 44.392433 12.156585 2118.470703
5.080000 -6.920000 4.880000 52.964310 52.377880 5548.660156
5.080000 -6.920000 4.920000 22.781635 93.975037 9350.310547
5.080000 -6.920000 4.960000 -34.263199 101.674164 11511.602539
5.080000 -6.920000 5.000000 -80.112892 65.560287 10716.226562
5.080000 -6.920000 5.040000 -85.009438 12.272461 7377.217773
5.080000 -6.920000 5.080000 -54.840954 -19.554775 3389.919434
5.080000 -6.920000 5.120000 -23.607805 -15.139319 786.527466
5.080000 -6.920000 5.160000 -19.257870 5.327148 399.244049
5.080000 -6.920000 5.200000 -38.013012 10.153443 1548.081543
5.080000 -6.880000 4.800000 7.352291 5.400213 83.218491
5.080000 -6.880000 4.840000 21.777855 26.008141 1150.698364
5.080000 -6.880000 4.880000 9.975960 59.429680 3631.406738
5.080000 -6.880000 4.920000 -31.241215 75.588730 6689.669922
5.080000 -6.880000 4.960000 -75.984016 54.476398 8741.249023
5.080000 -6.880000 5.000000 -92.244713 7.569672 8566.386719
5.080000 -6.880000 5.040000 -72.414879 -32.084808 6273.349609
5.080000 -6.880000 5.080000 -39.501381 -41.517632 3284.072754
5.080000 -6.880000 5.120000 -22.771626 -28.308304 1319.906982
5.080000 -6.880000 5.160000 -28.883564 -19.361055 1209.110718
5.080000 -6.880000 5.200000 -38.310291 -31.228872 2442.920898
5.080000 -6.840000 4.800000 0.303475 -3.594527 13.012723
5.080000 -6.840000 4.840000 4.277750 16.553928 292.331665
5.080000 -6.840000 4.880000 -15.678730 35.130875 1480.000977
5.080000 -6.840000 4.920000 -48.669098 30.257223 3284.180664
5.080000 -6.840000 4.960000 -69.301521 -0.032810 4802.701660
5.080000 -6.840000 5.000000 -62.671364 -35.147781 5163.066406
5.080000 -6.840000 5.040000 -38.266739 -52.802650 4252.462891
5.080000 -6.840000 5.080000 -18.053335 -50.539028 2880.116211
5.080000 -6.840000 5.120000 -12.675499 -44.833324 2170.695312
5.080000 -6.840000 5.160000 -12.185980 -50.169762 2665.502930
5.080000 -6.840000 5.200000 -0.428345 -62.422279 3896.724609
5.080000 -6.800000 4.800000 8.689999 -14.601599 288.722748
5.080000 -6.800000 4.840000 6.878645 1.874369 50.829018
5.080000 -6.800000 4.880000 -10.475624 9.076666 192.124573
5.080000 -6.800000 4.920000 -28.398012 -2.176495 811.184204
5.080000 -6.800000 4.960000 -32.091827 -23.806759 1596.647217
5.080000 -6.800000 5.000000 -21.400700 -40.573528 2104.201172
5.080000 -6.800000 5.040000 -7.799837 -46.604965 2232.860107
5.080000 -6.800000 5.080000 1.133804 -48.943687 2396.770020
5.080000 -6.800000 5.120000 10.270146 -55.002029 3130.698975
5.080000 -6.800000 5.160000 28.287342 -60.436932 4452.796387
5.080000 -6.800000 5.200000 53.063408 -53.224106 5648.530762
5.120000 -7.200000 4.800000 -3.925611 32.170082 1050.324585
5.120000 -7.200000 4.840000 -21.422800 29.475826 1327.760742
5.120000 -7.200000 4.880000 -30.721542 14.126602 1143.374023
5.120000 -7.200000 4.920000 -26.163868 -1.498060 686.792175
5.120000 -7.200000 4.960000 -14.896892 -7.531744 278.644531
5.120000 -7.200000 5.000000 -7.166252 -5.481118 81.397827
5.120000 -7.200000 5.040000 -5.121150 -3.498064 38.462631
5.120000 -7.200000 5.080000 -2.821281 -5.092826 33.896503
5.120000 -7.200000 5.120000 3.843466 -5.330842 43.190098
5.120000 -7.200000 5.160000 10.400757 1.360570 110.026894
5.120000 -7.200000 5.200000 8.898232 12.081699 225.145966
5.120000 -7.160000 4.800000 -18.994835 23.439215 910.200562
5.120000 -7.160000 4.840000 -32.932842 15.552805 1326.461914
5.120000 -7.160000 4.880000 -35.881821 -1.260087 1289.092773
5.120000 -7.160000 4.920000 -26.284901 -14.317459 895.885620
5.120000 -7.160000 4.960000 -13.080526 -16.880293 456.044434
5.120000 -7.160000 5.000000 -4.607419 -12.742390 183.596802
5.120000 -7.160000 5.040000 -0.834997 -8.754456 77.337715
5.120000 -7.160000 5.080000 2.937548 -5.987073 44.474236
5.120000 -7.160000 5.120000 7.365320 -0.322419 54.351891
5.120000 -7.160000 5.160000 7.188189 9.322300 138.575333
5.120000 -7.160000 5.200000 -1.229558 16.712309 280.813080
5.120000 -7.120000 4.800000 -23.814293 6.985798 615.921936
5.120000 -7.120000 4.840000 -32.975224 -4.409261 1106.806885
5.120000 -7.120000 4.880000 -28.872452 -20.721348 1262.992676
5.120000 -7.120000 4.920000 -13.684819 -29.022650 1029.588501
5.120000 -7.120000 4.960000 1.645401 -24.910126 623.221680
5.120000 -7.120000 5.000000 9.020908 -14.320452 286.452118
5.120000 -7.120000 5.040000 9.135898 -5.058745 109.055527
5.120000 -7.120000 5.080000 6.951641 0.781259 48.935680
5.120000 -7.120000 5.120000 4.360096 5.609571 50.477730
5.120000 -7.120000 5.160000 -0.688861 9.997801 100.430557
5.120000 -7.120000 5.200000 -8.729679 10.526471 187.013885
5.120000 -7.080000 4.800000 -15.680222 -7.043814 295.484680
5.120000 -7.080000 4.840000 -18.687824 -19.896275 745.096558
5.120000 -7.080000 4.880000 -7.135594 -31.869186 1066.561768
5.120000 -7.080000 4.920000 11.578110 -30.654230 1073.734497
5.120000 -7.080000 4.960000 23.713306 -16.134098 822.630005
5.120000 -7.080000 5.000000 22.295631 1.008755 498.112762
5.120000 -7.080000 5.040000 11.846025 10.403507 248.561279
5.120000 -7.080000 5.080000 1.719478 10.466835 112.511238
5.120000 -7.080000 5.120000 -3.185349 6.788756 56.233658
5.120000 -7.080000 5.160000 -4.787434 4.381662 42.118492
5.120000 -7.080000 5.200000 -6.766524 3.166367 55.811729
5.120000 -7.040000 4.800000 -0.983388 -9.585978 92.858017
5.120000 -7.040000 4.840000 2.568858 -20.409948 423.165009
5.120000 -7.040000 4.880000 18.455173 -23.138142 875.967041
5.120000 -7.040000 4.920000 33.305248 -9.684951 1203.037720
5.120000 -7.040000 4.960000 33.139591 12.389244 1251.725952
5.120000 -7.040000 5.000000 16.986971 27.242077 1030.687988
5.120000 -7.040000 5.040000 -2.756495 25.752157 670.771851
5.120000 -7.040000 5.080000 -12.609880 12.998112 327.959991
5.120000 -7.040000 5.120000 -9.938926 1.752641 101.853989
5.120000 -7.040000 5.160000 -3.228064 -0.241182 10.478563
5.120000 -7.040000 5.200000 -1.940357 3.744613 17.787109
5.120000 -7.000000 4.800000 8.689289 -0.050319 75.506279
5.120000 -7.000000 4.840000 16.480316 -5.238837 299.046234
5.120000 -7.000000 4.880000 29.595570 2.935966 884.517639
5.120000 -7.000000 4.920000 31.736675 23.983913 1582.444580
5.120000 -7.000000 4.960000 14.825703 42.441490 2021.081543
5.120000 -7.000000 5.000000 -11.635449 42.626953 1952.440796
5.120000 -7.000000 5.040000 -28.938637 24.153276 1420.825439
5.120000 -7.000000 5.080000 -26.773506 2.369366 722.434509
5.120000 -7.000000 5.120000 -12.311082 -6.525229 194.141357
5.120000 -7.000000 5.160000 -2.030651 -0.417804 4.298102
5.120000 -7.000000 5.200000 -5.249276 8.334810 97.023964
5.120000 -6.960000 4.800000 5.752933 12.182760 181.515884
5.120000 -6.960000 4.840000 13.393669 13.694113 366.919098
5.120000 -6.960000 4.880000 16.972023 28.314451 1089.757690
5.120000 -6.960000 4.920000 3.715526 45.942520 2124.520264
5.120000 -6.960000 4.960000 -23.350964 48.764030 2923.198242
5.120000 -6.960000 5.000000 -45.999363 29.662464 2995.803223
5.120000 -6.960000 5.040000 -47.753429 0.809180 2281.044922
5.120000 -6.960000 5.080000 -30.012724 -17.169533 1195.556396
5.120000 -6.960000 5.120000 -10.591486 -14.712121 328.626068
5.120000 -6.960000 5.160000 -6.119555 -1.692583 40.313797
5.120000 -6.960000 5.200000 -16.316526 3.536891 278.738647
5.120000 -6.920000 4.800000 -6.148067 15.121799 266.467560
5.120000 -6.920000 4.840000 -2.188453 21.181597 453.449371
5.120000 -6.920000 4.880000 -9.414047 34.205387 1258.632812
5.120000 -6.920000 4.920000 -31.244371 38.786674 2480.616943
5.120000 -6.920000 4.960000 -54.292412 23.231939 3487.389160
5.120000 -6.920000 5.000000 -60.109234 -6.492321 3655.270020
5.120000 -6.920000 5.040000 -43.735905 -30.676245 2853.861328
5.120000 -6.920000 5.080000 -19.302849 -34.525528 1564.612061
5.120000 -6.920000 5.120000 -6.282407 -22.230726 533.673828
5.120000 -6.920000 5.160000 -10.584658 -11.837858 252.169861
5.120000 -6.920000 5.200000 -19.929733 -16.538723 670.723633
5.120000 -6.880000 4.800000 -14.403990 5.212021 234.640076
5.120000 -6.880000 4.840000 -14.902056 12.725439 384.008057
5.120000 -6.880000 4.880000 -28.215076 18.404636 1134.821167
5.120000 -6.880000 4.920000 -47.293781 8.924561 2316.349365
5.120000 -6.880000 4.960000 -55.393623 -15.937977 3322.472656
5.120000 -6.880000 5.000000 -43.192909 -40.894455 3537.983887
5.120000 -6.880000 5.040000 -19.118349 -49.663010 2831.925781
5.120000 -6.880000 5.080000 -1.121881 -41.135925 1693.422974
5.120000 -6.880000 5.120000 1.450089 -29.613138 879.040710
5.120000 -6.880000 5.160000 -3.614557 -29.099760 859.861023
5.120000 -6.880000 5.200000 -1.167807 -38.786232 1505.735596
5.120000 -6.840000 4.800000 -8.796027 -8.212330 144.812454
5.120000 -6.840000 4.840000 -12.997770 -0.893176 169.739792
5.120000 -6.840000 4.880000 -26.315649 -2.754881 700.102722
5.120000 -6.840000 4.920000 -35.477943 -19.107544 1623.782715
5.120000 -6.840000 4.960000 -28.855495 -40.201054 2448.764404
5.120000 -6.840000 5.000000 -9.358011 -50.855247 2673.828369
5.120000 -6.840000 5.040000 8.687392 -46.413605 2229.693359
5.120000 -6.840000 5.080000 15.257023 -36.859520 1591.401001
5.120000 -6.840000 5.120000 14.949362 -34.460266 1410.993286
5.120000 -6.840000 5.160000 20.248121 -39.423225 1964.177124
5.120000 -6.840000 5.200000 35.822456 -40.072426 2889.047852
5.120000 -6.800000 4.800000 7.911759 -10.676779 176.589539
5.120000 -6.800000 4.840000 0.019722 -4.255474 18.109449
5.120000 -6.800000 4.880000 -10.401117 -10.516698 218.784180
5.120000 -6.800000 4.920000 -10.551172 -25.468056 759.949097
5.120000 -6.800000 4.960000 1.727762 -36.082230 1304.912354
5.120000 -6.800000 5.000000 16.221977 -35.180408 1500.813721
5.120000 -6.800000 5.040000 23.246323 -28.839468 1372.106445
5.120000 -6.800000 5.080000 25.338026 -27.341068 1389.549561
5.120000 -6.800000 5.120000 33.183769 -30.881435 2054.825684
5.120000 -6.800000 5.160000 50.478046 -28.035070 3333.998291
5.120000 -6.800000 5.200000 66.467606 -9.788590 4513.758789
5.160000 -7.200000 4.800000 -29.379070 8.648013 937.917908
5.160000 -7.200000 4.840000 -35.452988 -2.079431 1261.238281
5.160000 -7.200000 4.880000 -31.166248 -15.305435 1205.591309
5.160000 -7.200000 4.920000 -19.606018 -21.204708 834.035583
5.160000 -7.200000 4.960000 -10.473217 -18.308596 444.892944
5.160000 -7.200000 5.000000 -8.720025 -14.362536 282.321289
5.160000 -7.200000 5.040000 -9.180210 -16.424833 354.051392
5.160000 -7.200000 5.080000 -3.396443 -21.984383 494.848907
5.160000 -7.200000 5.120000 9.386637 -21.603142 554.804688
5.160000 -7.200000 5.160000 20.086428 -10.209254 507.693451
5.160000 -7.200000 5.200000 19.282677 6.062531 408.575928
5.160000 -7.160000 4.800000 -23.815411 -7.436377 622.473450
5.160000 -7.160000 4.840000 -26.464481 -15.117416 928.905029
5.160000 -7.160000 4.880000 -20.996805 -23.565685 996.207397
5.160000 -7.160000 4.920000 -11.433907 -25.688997 790.658813
5.160000 -7.160000 4.960000 -4.995211 -22.456400 529.242004
5.160000 -7.160000 5.000000 -2.851611 -20.239750 417.779175
5.160000 -7.160000 5.040000 0.635294 -21.502653 462.767700
5.160000 -7.160000 5.080000 9.448706 -20.851105 524.046570
5.160000 -7.160000 5.120000 18.987429 -11.714611 497.754578
5.160000 -7.160000 5.160000 19.802233 4.214677 409.891907
5.160000 -7.160000 5.200000 8.376881 16.553905 344.203918
5.160000 -7.120000 4.800000 -9.196589 -12.685328 245.494797
5.160000 -7.120000 4.840000 -12.482947 -17.252123 453.459717
5.160000 -7.120000 4.880000 -8.960541 -23.031263 610.730347
5.160000 -7.120000 4.920000 -1.969530 -24.283501 593.567444
5.160000 -7.120000 4.960000 3.398196 -21.706722 482.729523
5.160000 -7.120000 5.000000 6.682850 -19.033503 406.934723
5.160000 -7.120000 5.040000 10.906100 -16.572065 393.576385
5.160000 -7.120000 5.080000 16.257256 -10.603393 376.730316
5.160000 -7.120000 5.120000 17.643467 0.534730 311.577881
5.160000 -7.120000 5.160000 10.096521 11.731608 239.570374
5.160000 -7.120000 5.200000 -4.139108 14.628922 231.137589
5.160000 -7.080000 4.800000 2.737943 -4.412450 26.966043
5.160000 -7.080000 4.840000 -3.265160 -8.736159 86.981750
5.160000 -7.080000 4.880000 -1.862370 -14.790553 222.228882
5.160000 -7.080000 4.920000 3.813230 -16.649158 291.735199
5.160000 -7.080000 4.960000 8.743745 -14.085817 274.863312
5.160000 -7.080000 5.000000 11.205078 -9.966652 224.887924
5.160000 -7.080000 5.040000 12.273348 -5.621938 182.241257
5.160000 -7.080000 5.080000 12.033461 -0.211452 144.848877
5.160000 -7.080000 5.120000 8.371123 5.897645 104.857925
5.160000 -7.080000 5.160000 0.209882 9.177155 84.264236
5.160000 -7.080000 5.200000 -9.218226 5.761778 118.173782
5.160000 -7.040000 4.800000 2.648336 9.998019 106.974075
5.160000 -7.040000 4.840000 -4.997272 2.901346 33.390533
5.160000 -7.040000 4.880000 -3.957529 -4.858969 39.271614
5.160000 -7.040000 4.920000 1.386034 -7.284275 54.981750
5.160000 -7.040000 4.960000 5.108659 -4.741377 48.579048
5.160000 -7.040000 5.000000 5.144054 -1.253780 28.033257
5.160000 -7.040000 5.040000 3.326069 0.540974 11.355387
5.160000 -7.040000 5.080000 1.645883 1.119091 3.961294
5.160000 -7.040000 5.120000 -0.192859 1.682220 2.867060
5.160000 -7.040000 5.160000 -3.383879 1.455561 13.569292
5.160000 -7.040000 5.200000 -7.115355 -1.711841 53.558670
5.160000 -7.000000 4.800000 -9.592837 18.762672 444.060394
5.160000 -7.000000 4.840000 -15.905600 8.038963 317.613037
5.160000 -7.000000 4.880000 -13.553542 -0.916742 184.538925
5.160000 -7.000000 4.920000 -8.481795 -3.776550 86.203178
5.160000 -7.000000 4.960000 -6.130709 -2.874746 45.849758
5.160000 -7.000000 5.000000 -6.752234 -2.871103 53.835892
5.160000 -7.000000 5.040000 -6.931965 -5.265353 75.776077
5.160000 -7.000000 5.080000 -4.608973 -7.562106 78.428078
5.160000 -7.000000 5.120000 -1.631119 -7.213000 54.687923
5.160000 -7.000000 5.160000 -1.175699 -5.316381 29.646181
5.160000 -7.000000 5.200000 -3.335460 -5.671168 43.287445
5.160000 -6.960000 4.800000 -24.919729 14.374022 827.605408
5.160000 -6.960000 4.840000 -27.363724 1.892614 752.355347
5.160000 -6.960000 4.880000 -23.316311 -6.895801 591.202393
5.160000 -6.960000 4.920000 -18.416943 -10.740112 454.533783
5.160000 -6.960000 4.960000 -15.402007 -12.949855 404.920563
5.160000 -6.960000 5.000000 -12.506716 -16.148941 417.206238
5.160000 -6.960000 5.040000 -7.220793 -19.012060 413.598267
5.160000 -6.960000 5.080000 -0.470127 -18.405016 338.965607
5.160000 -6.960000 5.120000 3.819238 -13.985299 210.175171
5.160000 -6.960000 5.160000 3.265528 -9.647057 103.729378
5.160000 -6.960000 5.200000 0.433233 -9.792405 96.078888
5.160000 -6.920000 4.800000 -31.707317 -0.854745 1006.084595
5.160000 -6.920000 4.840000 -30.102283 -11.756834 1044.370605
5.160000 -6.920000 4.880000 -25.194120 -19.436359 1012.515747
5.160000 -6.920000 4.920000 -19.510206 -24.799580 995.667297
5.160000 -6.920000 4.960000 -12.742270 -29.075397 1007.744141
5.160000 -6.920000 5.000000 -3.980295 -31.123627 984.522888
5.160000 -6.920000 5.040000 5.217955 -28.786362 855.881653
5.160000 -6.920000 5.080000 11.172798 -22.385521 625.942993
5.160000 -6.920000 5.120000 11.789680 -15.785810 388.188354
5.160000 -6.920000 5.160000 9.323154 -13.220467 261.701935
5.160000 -6.920000 5.200000 8.775478 -15.101984 305.078918
5.160000 -6.880000 4.800000 -24.302107 -16.273314 855.413147
5.160000 -6.880000 4.840000 -21.302948 -23.108246 987.806641
5.160000 -6.880000 4.880000 -16.788382 -29.874195 1174.317261
5.160000 -6.880000 4.920000 -8.935890 -36.284653 1396.426147
5.160000 -6.880000 4.960000 2.834721 -39.019680 1530.571045
5.160000 -6.880000 5.000000 14.958070 -34.993622 1448.297485
5.160000 -6.880000 5.040000 21.982702 -25.738956 1145.733154
5.160000 -6.880000 5.080000 22.043762 -17.128048 779.297485
5.160000 -6.880000 5.120000 19.220825 -13.935479 563.637695
5.160000 -6.880000 5.160000 19.567057 -15.035505 608.936157
5.160000 -6.880000 5.200000 24.912498 -14.756292 838.380737
5.160000 -6.840000 4.800000 -7.475256 -20.501104 476.174744
5.160000 -6.840000 4.840000 -7.092349 -23.774071 615.507812
5.160000 -6.840000 4.880000 -3.588712 -30.948057 970.661072
5.160000 -6.840000 4.920000 7.144865 -36.912918 1413.612549
5.160000 -6.840000 4.960000 21.760124 -34.608398 1671.244141
5.160000 -6.840000 5.000000 31.489326 -23.586649 1547.907715
5.160000 -6.840000 5.040000 31.449516 -11.803064 1128.384399
5.160000 -6.840000 5.080000 26.514740 -7.431318 758.255920
5.160000 -6.840000 5.120000 26.199631 -9.685603 780.231567
5.160000 -6.840000 5.160000 33.800266 -9.502756 1232.760376
5.160000 -6.840000 5.200000 42.249901 0.069321 1785.058838
5.160000 -6.800000 4.800000 6.616893 -9.952628 142.838074
5.160000 -6.800000 4.840000 1.996353 -13.528495 187.005600
5.160000 -6.800000 4.880000 5.372065 -22.690981 543.739685
5.160000 -6.800000 4.920000 18.520647 -26.620365 1051.658203
5.160000 -6.800000 4.960000 31.895802 -18.656170 1365.394775
5.160000 -6.800000 5.000000 35.043850 -4.715236 1250.304810
5.160000 -6.800000 5.040000 28.997051 3.085855 850.351501
5.160000 -6.800000 5.080000 25.450384 0.877645 648.492310
5.160000 -6.800000 5.120000 32.718479 -1.628992 1073.152466
5.160000 -6.800000 5.160000 44.655941 7.788300 2054.810791
5.160000 -6.800000 5.200000 46.417397 28.571730 2970.918457
5.200000 -7.200000 4.800000 -22.960562 -22.042465 1013.057617
5.200000 -7.200000 4.840000 -18.396137 -27.677334 1104.452637
5.200000 -7.200000 4.880000 -9.896162 -30.162275 1007.696899
5.200000 -7.200000 4.920000 -2.359773 -27.034845 736.451416
5.200000 -7.200000 4.960000 -0.341014 -22.327290 498.624176
5.200000 -7.200000 5.000000 -1.641461 -22.428280 505.722137
5.200000 -7.200000 5.040000 1.382129 -27.953894 783.330444
5.200000 -7.200000 5.080000 13.216579 -31.260206 1151.878418
5.200000 -7.200000 5.120000 28.644192 -23.574806 1376.261230
5.200000 -7.200000 5.160000 36.215717 -4.731862 1333.968628
5.200000 -7.200000 5.200000 28.989979 15.111488 1068.776001
5.200000 -7.160000 4.800000 -1.849526 -25.982164 678.493652
5.200000 -7.160000 4.840000 -0.388016 -25.416889 646.168823
5.200000 -7.160000 4.880000 2.640823 -24.712246 617.669067
5.200000 -7.160000 4.920000 4.927459 -22.573141 533.826538
5.200000 -7.160000 4.960000 5.294241 -21.683895 498.220306
5.200000 -7.160000 5.000000 7.246263 -24.196226 637.965637
5.200000 -7.160000 5.040000 15.316511 -26.487486 936.182434
5.200000 -7.160000 5.080000 27.881752 -20.985672 1217.790527
5.200000 -7.160000 5.120000 35.740562 -4.606194 1298.604858
5.200000 -7.160000 5.160000 29.903992 15.529996 1135.429443
5.200000 -7.160000 5.200000 11.257698 26.677559 838.427917
5.200000 -7.120000 4.800000 12.977692 -10.772658 284.470642
5.200000 -7.120000 4.840000 6.680489 -9.304852 131.209198
5.200000 -7.120000 4.880000 3.315910 -12.043413 156.039062
5.200000 -7.120000 4.920000 3.423697 -15.949068 266.094482
5.200000 -7.120000 4.960000 6.786894 -19.670668 432.997131
5.200000 -7.120000 5.000000 13.989958 -21.379555 652.804260
5.200000 -7.120000 5.040000 23.843391 -17.314026 868.282837
5.200000 -7.120000 5.080000 30.785639 -5.017324 972.929077
5.200000 -7.120000 5.120000 27.614243 11.749743 900.602844
5.200000 -7.120000 5.160000 12.582094 23.252792 699.001465
5.200000 -7.120000 5.200000 -6.740320 21.184107 494.198303
5.200000 -7.080000 4.800000 8.511133 10.699847 186.926117
5.200000 -7.080000 4.840000 -4.288567 5.613433 49.902435
5.200000 -7.080000 4.880000 -8.950877 -5.786058 113.596680
5.200000 -7.080000 4.920000 -4.520532 -16.394302 289.208374
5.200000 -7.080000 4.960000 5.766087 -21.128738 479.671356
5.200000 -7.080000 5.000000 17.027220 -17.960485 612.505249
5.200000 -7.080000 5.040000 24.143980 -7.743052 642.886597
5.200000 -7.080000 5.080000 23.006256 5.557314 560.171570
5.200000 -7.080000 5.120000 12.869076 15.401917 402.832153
5.200000 -7.080000 5.160000 -1.718658 15.815933 253.097519
5.200000 -7.080000 5.200000 -12.511531 5.940235 191.824799
5.200000 -7.040000 4.800000 -12.504641 20.404146 572.695251
5.200000 -7.040000 4.840000 -24.872326 4.718510 640.896912
5.200000 -7.040000 4.880000 -23.083206 -14.596064 745.879517
5.200000 -7.040000 4.920000 -9.429535 -26.894115 812.209595
5.200000 -7.040000 4.960000 7.509204 -26.913052 780.700439
5.200000 -7.040000 5.000000 18.898552 -16.842522 640.825806
5.200000 -7.040000 5.040000 20.484550 -3.602052 432.591583
5.200000 -7.040000 5.080000 13.746063 5.779738 222.359634
5.200000 -7.040000 5.120000 3.857231 7.585187 72.413300
5.200000 -7.040000 5.160000 -3.522584 2.383389 18.089144
5.200000 -7.040000 5.200000 -4.821613 -6.050086 59.851498
5.200000 -7.000000 4.800000 -34.203407 9.968426 1269.242554
5.200000 -7.000000 4.840000 -38.270409 -13.541553 1647.997803
5.200000 -7.000000 4.880000 -25.509193 -34.093906 1813.113281
5.200000 -7.000000 4.920000 -3.375810 -40.920151 1685.854858
5.200000 -7.000000 4.960000 15.673367 -32.602722 1308.591919
5.200000 -7.000000 5.000000 23.142830 -16.959095 823.201477
5.200000 -7.000000 5.040000 19.415636 -4.212777 394.714417
5.200000 -7.000000 5.080000 11.380252 0.317757 129.611099
5.200000 -7.000000 5.120000 5.916264 -1.743341 38.041412
5.200000 -7.000000 5.160000 5.324373 -5.469856 58.268280
5.200000 -7.000000 5.200000 7.840920 -7.413761 116.443893
5.200000 -6.960000 4.800000 -40.870956 -13.175034 1844.016602
5.200000 -6.960000 4.840000 -33.599400 -36.644764 2471.758301
5.200000 -6.960000 4.880000 -12.086914 -50.725784 2719.198730
5.200000 -6.960000 4.920000 12.734183 -48.142097 2479.821045
5.200000 -6.960000 4.960000 28.511425 -32.407097 1863.121338
5.200000 -6.960000 5.000000 30.376835 -14.497978 1132.943481
5.200000 -6.960000 5.040000 23.279207 -3.914837 557.247437
5.200000 -6.960000 5.080000 16.194799 -2.137506 266.840454
5.200000 -6.960000 5.120000 14.224355 -3.832859 217.023087
5.200000 -6.960000 5.160000 15.814339 -3.483694 262.229431
5.200000 -6.960000 5.200000 16.695444 -0.356336 278.864838
5.200000 -6.920000 4.800000 -29.022274 -32.836014 1920.496338
5.200000 -6.920000 4.840000 -14.407271 -49.031906 2611.697510
5.200000 -6.920000 4.880000 8.858191 -53.637768 2955.477783
5.200000 -6.920000 4.920000 30.251753 -43.417374 2800.236816
5.200000 -6.920000 4.960000 40.294346 -24.239973 2211.210449
5.200000 -6.920000 5.000000 37.412659 -6.733654 1445.049072
5.200000 -6.920000 5.040000 28.305534 1.879170 804.734558
5.200000 -6.920000 5.080000 21.508780 2.565319 469.208466
5.200000 -6.920000 5.120000 20.250553 1.724477 413.058716
5.200000 -6.920000 5.160000 21.207588 4.171618 467.164215
5.200000 -6.920000 5.200000 19.617504 8.943390 464.830688
5.200000 -6.880000 4.800000 -8.578319 -37.104168 1450.306763
5.200000 -6.880000 4.840000 5.641664 -44.687183 2028.772705
5.200000 -6.880000 4.880000 24.626488 -43.168514 2469.984619
5.200000 -6.880000 4.920000 40.629383 -30.308998 2569.382324
5.200000 -6.880000 4.960000 46.087986 -11.004978 2245.212158
5.200000 -6.880000 5.000000 39.885590 5.360885 1619.599365
5.200000 -6.880000 5.040000 28.659050 12.206612 970.342529
5.200000 -6.880000 5.080000 21.075176 10.986510 564.866455
5.200000 -6.880000 5.120000 20.228931 9.020489 490.578857
5.200000 -6.880000 5.160000 21.709782 11.811028 610.814941
5.200000 -6.880000 5.200000 19.322636 17.779579 689.477661
5.200000 -6.840000 4.800000 6.224912 -26.256599 728.158508
5.200000 -6.840000 4.840000 14.724503 -30.244549 1131.543701
5.200000 -6.840000 4.880000 28.829948 -28.586870 1648.375122
5.200000 -6.840000 4.920000 41.890060 -16.488728 2026.655396
5.200000 -6.840000 4.960000 44.873817 2.485173 2019.835571
5.200000 -6.840000 5.000000 35.580143 17.821871 1583.565674
5.200000 -6.840000 5.040000 21.979902 21.671135 952.754150
5.200000 -6.840000 5.080000 14.861251 16.741817 501.145233
5.200000 -6.840000 5.120000 16.992947 13.397490 468.252930
5.200000 -6.840000 5.160000 20.670231 18.440903 767.325317
5.200000 -6.840000 5.200000 16.743841 27.759731 1050.958862
5.200000 -6.800000 4.800000 7.443683 -10.347322 162.475494
5.200000 -6.800000 4.840000 11.232523 -17.470587 431.390991
5.200000 -6.800000 4.880000 24.645605 -18.757490 959.249268
5.200000 -6.800000 4.920000 37.853569 -6.736681 1478.275513
5.200000 -6.800000 4.960000 38.566982 13.033686 1657.289062
5.200000 -6.800000 5.000000 25.629578 26.394268 1353.532715
5.200000 -6.800000 5.040000 11.158426 25.394390 769.385559
5.200000 -6.800000 5.080000 7.745806 17.108221 352.688721
5.200000 -6.800000 5.120000 14.521975 15.781689 459.949432
5.200000 -6.800000 5.160000 18.178131 26.537203 1034.667603
5.200000 -6.800000 5.200000 8.417751 39.113178 1600.699219
