#kx 	ky 	kz 	real 	imag 	intensity
5.800000 1.800000 3.800000 -28.808121 8.360723 899.809509
5.800000 1.800000 3.840000 -27.469780 -1.993168 758.561523
5.800000 1.800000 3.880000 -22.758106 -9.464886 607.515442
5.800000 1.800000 3.920000 -16.441818 -14.620014 484.078186
5.800000 1.800000 3.960000 -8.138531 -17.541420 373.937103
5.800000 1.800000 4.000000 1.922816 -16.157839 264.772980
5.800000 1.800000 4.040000 10.495530 -8.644215 184.878601
5.800000 1.800000 4.080000 13.006458 3.154325 179.117722
5.800000 1.800000 4.120000 7.796501 13.910065 254.275330
5.800000 1.800000 4.160000 -2.059002 18.970627 364.124176
5.800000 1.800000 4.200000 -11.655787 17.893768 456.044312
5.800000 1.840000 3.800000 -26.671406 -15.076161 938.654541
5.800000 1.840000 3.840000 -19.356827 -20.107090 778.981812
5.800000 1.840000 3.880000 -12.007330 -22.086056 631.969849
5.800000 1.840000 3.920000 -4.613841 -21.334881 476.464691
5.800000 1.840000 3.960000 1.595434 -16.987423 291.117950
5.800000 1.840000 4.000000 3.752207 -10.043537 114.951691
5.800000 1.840000 4.040000 0.784261 -4.559484 21.403955
5.800000 1.840000 4.080000 -3.876724 -4.157001 32.309650
5.800000 1.840000 4.120000 -4.852421 -7.423982 78.661499
5.800000 1.840000 4.160000 -0.947552 -8.381985 71.155525
5.800000 1.840000 4.200000 2.304652 -2.980255 14.193342
5.800000 1.880000 3.800000 -7.865628 -30.615423 999.172241
5.800000 1.880000 3.840000 0.470719 -27.827610 774.597412
5.800000 1.880000 3.880000 6.252811 -23.334368 583.590393
5.800000 1.880000 3.920000 9.370497 -16.765732 368.895966
5.800000 1.880000 3.960000 7.187260 -9.555835 142.970673
5.800000 1.880000 4.000000 -0.487686 -7.269831 53.088276
5.800000 1.880000 4.040000 -7.024365 -14.318742 254.368073
5.800000 1.880000 4.080000 -3.101765 -26.396593 706.401123
5.800000 1.880000 4.120000 12.800175 -31.095486 1130.773682
5.800000 1.880000 4.160000 29.287584 -19.136219 1223.957520
5.800000 1.880000 4.200000 30.425072 4.270844 943.925110
5.800000 1.920000 3.800000 16.300043 -27.731260 1034.714233
5.800000 1.920000 3.840000 20.068169 -18.530029 746.093384
5.800000 1.920000 3.880000 19.752132 -10.234034 494.882172
5.800000 1.920000 3.920000 14.783782 -3.228755 228.985077
5.800000 1.920000 3.960000 4.717477 -2.027927 26.367083
5.800000 1.920000 4.000000 -3.997787 -11.965673 159.159637
5.800000 1.920000 4.040000 0.287715 -29.527451 871.953125
5.800000 1.920000 4.080000 22.240009 -39.491550 2054.200439
5.800000 1.920000 4.120000 49.613907 -26.633034 3170.858398
5.800000 1.920000 4.160000 59.602448 7.379734 3606.912109
5.800000 1.920000 4.200000 39.026974 40.471138 3161.017578
5.800000 1.960000 3.800000 30.068516 -8.540452 977.054993
5.800000 1.960000 3.840000 25.851614 2.035759 672.450256
5.800000 1.960000 3.880000 18.084835 8.111041 392.850220
5.800000 1.960000 3.920000 7.469027 8.245829 123.780060
5.800000 1.960000 3.960000 -1.759108 -1.505853 5.362052
5.800000 1.960000 4.000000 0.729219 -19.714756 389.203369
5.800000 1.960000 4.040000 22.118399 -33.019638 1579.520020
5.800000 1.960000 4.080000 53.677876 -23.566765 3436.706543
5.800000 1.960000 4.120000 71.394432 12.752052 5259.779785
5.800000 1.960000 4.160000 54.951756 56.150856 6172.614258
5.800000 1.960000 4.200000 8.713041 75.329590 5750.463867
5.800000 2.000000 3.800000 25.110628 13.466042 811.877930
5.800000 2.000000 3.840000 13.910023 19.011671 554.932373
5.800000 2.000000 3.880000 2.790971 17.172871 302.696991
5.800000 2.000000 3.920000 -5.215916 7.785789 87.824280
5.800000 2.000000 3.960000 -3.719745 -7.946726 76.986954
5.800000 2.000000 4.000000 13.618262 -20.826200 619.187683
5.800000 2.000000 4.040000 42.278481 -15.351229 2023.130127
5.800000 2.000000 4.080000 62.593697 16.197697 4180.336426
5.800000 2.000000 4.120000 52.448166 60.399162 6398.869141
5.800000 2.000000 4.160000 8.669910 87.395714 7713.178223
5.800000 2.000000 4.200000 -44.576546 74.302826 7507.978516
5.800000 2.040000 3.800000 6.436912 23.801754 607.957336
5.800000 2.040000 3.840000 -6.282543 20.172686 446.407593
5.800000 2.040000 3.880000 -13.058120 9.747640 265.530975
5.800000 2.040000 3.920000 -10.744297 -3.670259 128.910721
5.800000 2.040000 3.960000 3.158946 -13.562339 193.915970
5.800000 2.040000 4.000000 25.487087 -9.665821 743.019714
5.800000 2.040000 4.040000 42.678600 14.713680 2037.955322
5.800000 2.040000 4.080000 36.686245 51.810436 4030.201904
5.800000 2.040000 4.120000 0.874821 78.588715 6176.951172
5.800000 2.040000 4.160000 -48.817711 72.343094 7616.692383
5.800000 2.040000 4.200000 -81.837143 31.162060 7668.391602
5.800000 2.080000 3.800000 -12.496992 17.578671 465.184448
5.800000 2.080000 3.840000 -19.672644 5.692063 419.412506
5.800000 2.080000 3.880000 -16.226255 -7.581785 320.774811
5.800000 2.080000 3.920000 -3.252369 -15.026095 236.361450
5.800000 2.080000 3.960000 14.033743 -10.380542 304.701599
5.800000 2.080000 4.000000 25.647602 8.846106 736.053101
5.800000 2.080000 4.040000 19.905602 36.416470 1722.392334
5.800000 2.080000 4.080000 -7.810147 56.457741 3248.474854
5.800000 2.080000 4.120000 -47.183640 52.132278 4944.070312
5.800000 2.080000 4.160000 -75.992752 19.637310 6160.522461
5.800000 2.080000 4.200000 -75.325806 -25.261274 6312.108887
5.800000 2.120000 3.800000 -20.700014 1.465568 430.638458
5.800000 2.120000 3.840000 -17.960274 -13.026227 492.254028
5.800000 2.120000 3.880000 -4.771019 -20.787312 454.874969
5.800000 2.120000 3.920000 11.064587 -15.688954 368.568359
5.800000 2.120000 3.960000 19.181673 1.445847 370.027069
5.800000 2.120000 4.000000 11.840832 22.374966 640.844360
5.800000 2.120000 4.040000 -11.038383 34.501797 1312.219971
5.800000 2.120000 4.080000 -39.759510 27.614204 2343.362793
5.800000 2.120000 4.120000 -58.749237 1.326478 3453.232422
5.800000 2.120000 4.160000 -56.060387 -32.509174 4199.613281
5.800000 2.120000 4.200000 -32.306404 -56.271465 4210.181641
5.800000 2.160000 3.800000 -16.843830 -13.614159 469.059937
5.800000 2.160000 3.840000 -5.045692 -23.945240 598.833496
5.800000 2.160000 3.880000 11.503778 -21.193621 581.506470
5.800000 2.160000 3.920000 20.490768 -5.450186 449.576111
5.800000 2.160000 3.960000 13.592484 13.277450 361.046295
5.800000 2.160000 4.000000 -6.968501 21.537849 512.438965
5.800000 2.160000 4.040000 -29.243385 11.809831 994.647705
5.800000 2.160000 4.080000 -39.374325 -11.973681 1693.706421
5.800000 2.160000 4.120000 -30.952055 -36.879341 2318.115479
5.800000 2.160000 4.160000 -9.177002 -49.750957 2559.375000
5.800000 2.160000 4.200000 13.255735 -45.917862 2284.164551
5.800000 2.200000 3.800000 -7.315733 -21.521002 516.673462
5.800000 2.200000 3.840000 8.750884 -23.978939 651.567505
5.800000 2.200000 3.880000 21.460323 -12.016911 604.951599
5.800000 2.200000 3.920000 19.330486 6.389818 414.497467
5.800000 2.200000 3.960000 2.051906 16.258286 268.542175
5.800000 2.200000 4.000000 -17.881468 7.955513 383.037079
5.800000 2.200000 4.040000 -24.788471 -14.162918 815.056580
5.800000 2.200000 4.080000 -12.616910 -34.810699 1370.971191
5.800000 2.200000 4.120000 10.209106 -40.112766 1713.259888
5.800000 2.200000 4.160000 28.094435 -28.504028 1601.776855
5.800000 2.200000 4.200000 31.075815 -10.954261 1085.702148
5.840000 1.800000 3.800000 -36.618385 5.309986 1369.102051
5.840000 1.800000 3.840000 -34.915253 -8.790001 1296.338989
5.840000 1.800000 3.880000 -26.144997 -20.127480 1088.676270
5.840000 1.800000 3.920000 -12.923361 -25.269835 805.577759
5.840000 1.800000 3.960000 0.669147 -22.754646 518.221680
5.840000 1.800000 4.000000 10.299419 -13.671848 292.997467
5.840000 1.800000 4.040000 13.047241 -1.558605 172.659744
5.840000 1.800000 4.080000 8.842783 9.010288 159.380096
5.840000 1.800000 4.120000 0.425362 14.753423 217.844421
5.840000 1.800000 4.160000 -8.590420 15.135511 302.879028
5.840000 1.800000 4.200000 -15.955331 11.615507 389.492584
5.840000 1.840000 3.800000 -25.949152 -20.435112 1090.952271
5.840000 1.840000 3.840000 -13.007819 -26.679062 880.975708
5.840000 1.840000 3.880000 1.121316 -23.451591 551.234497
5.840000 1.840000 3.920000 8.972805 -12.097502 226.860779
5.840000 1.840000 3.960000 6.308857 0.109565 39.813683
5.840000 1.840000 4.000000 -3.616061 4.812449 36.235558
5.840000 1.840000 4.040000 -11.844389 -0.463020 140.503937
5.840000 1.840000 4.080000 -11.106560 -9.636396 216.215805
5.840000 1.840000 4.120000 -2.569809 -13.159528 179.777084
5.840000 1.840000 4.160000 4.821288 -6.914509 71.055252
5.840000 1.840000 4.200000 2.592437 3.351192 17.951220
5.840000 1.880000 3.800000 1.038012 -29.340048 861.915833
5.840000 1.880000 3.840000 16.552189 -19.662876 660.603638
5.840000 1.880000 3.880000 21.425480 0.178569 459.083069
5.840000 1.880000 3.920000 8.788948 18.696140 426.791260
5.840000 1.880000 3.960000 -15.576565 20.865128 677.982910
5.840000 1.880000 4.000000 -33.906574 1.511044 1151.938965
5.840000 1.880000 4.040000 -29.793993 -26.981096 1615.661621
5.840000 1.880000 4.080000 -3.568115 -42.397999 1810.321777
5.840000 1.880000 4.120000 25.564941 -31.309704 1633.863770
5.840000 1.880000 4.160000 34.777802 -1.823055 1212.818970
5.840000 1.880000 4.200000 17.461323 22.392483 806.321045
5.840000 1.920000 3.800000 24.651379 -14.266399 811.220642
5.840000 1.920000 3.840000 28.978523 9.679604 933.449524
5.840000 1.920000 3.880000 12.290770 33.814163 1294.460571
5.840000 1.920000 3.920000 -21.972313 38.654236 1976.932373
5.840000 1.920000 3.960000 -52.337639 12.787888 2902.758545
5.840000 1.920000 4.000000 -52.869831 -32.004398 3819.500488
5.840000 1.920000 4.040000 -16.448347 -64.443748 4423.544922
5.840000 1.920000 4.080000 34.397976 -57.827042 4527.187500
5.840000 1.920000 4.120000 62.818611 -14.337463 4151.740723
5.840000 1.920000 4.160000 48.070953 34.241199 3483.276367
5.840000 1.920000 4.200000 3.603745 52.332241 2751.650635
5.840000 1.960000 3.800000 27.047686 12.808105 895.624817
5.840000 1.960000 3.840000 11.787544 38.011436 1583.815430
5.840000 1.960000 3.880000 -23.865509 47.053295 2783.575195
5.840000 1.960000 3.920000 -61.576977 23.433792 4340.866699
5.840000 1.960000 3.960000 -71.276619 -27.662590 5845.575195
5.840000 1.960000 4.000000 -36.055393 -74.545746 6857.059570
5.840000 1.960000 4.040000 27.400227 -80.207573 7184.027344
5.840000 1.960000 4.080000 75.979790 -34.542503 6966.112793
5.840000 1.960000 4.120000 73.625893 32.662682 6487.622559
5.840000 1.960000 4.160000 22.483601 73.516632 5910.207520
5.840000 1.960000 4.200000 -37.906799 61.256149 5189.241211
5.840000 2.000000 3.800000 7.375388 30.405605 978.897217
5.840000 2.000000 3.840000 -22.376143 41.041138 2185.066650
5.840000 2.000000 3.880000 -58.796551 24.475115 4056.065674
5.840000 2.000000 3.920000 -75.515160 -21.420698 6161.385742
5.840000 2.000000 3.960000 -50.053520 -72.756721 7798.895508
5.840000 2.000000 4.000000 11.857529 -91.249084 8466.996094
5.840000 2.000000 4.040000 72.042542 -55.298153 8248.013672
5.840000 2.000000 4.080000 86.284698 16.606295 7720.818359
5.840000 2.000000 4.120000 41.534355 75.508560 7426.645020
5.840000 2.000000 4.160000 -30.453840 80.342041 7382.280273
5.840000 2.000000 4.200000 -78.070602 31.714018 7100.797852
5.840000 2.040000 3.800000 -17.928782 25.528934 973.167725
5.840000 2.040000 3.840000 -46.148067 15.409647 2367.101318
5.840000 2.040000 3.880000 -63.269451 -18.563442 4347.625000
5.840000 2.040000 3.920000 -48.894348 -62.766136 6330.245117
5.840000 2.040000 3.960000 -0.010432 -86.893532 7550.485840
5.840000 2.040000 4.000000 57.655624 -65.666412 7636.249023
5.840000 2.040000 4.040000 83.383476 -4.093447 6969.560547
5.840000 2.040000 4.080000 53.831154 59.354069 6420.698730
5.840000 2.040000 4.120000 -14.108164 80.036148 6604.825195
5.840000 2.040000 4.160000 -73.569199 43.584312 7312.019043
5.840000 2.040000 4.200000 -84.819176 -21.666594 7663.733887
5.840000 2.080000 3.800000 -29.709003 3.564712 895.332031
5.840000 2.080000 3.840000 -41.646976 -18.713018 2084.647705
5.840000 2.080000 3.880000 -33.771751 -49.391819 3580.083008
5.840000 2.080000 3.920000 -1.189347 -69.627594 4849.416504
5.840000 2.080000 3.960000 42.404503 -59.522579 5341.079102
5.840000 2.080000 4.000000 68.389236 -16.365217 4944.908203
5.840000 2.080000 4.040000 53.596130 36.491409 4204.167969
5.840000 2.080000 4.080000 1.962887 62.937744 3965.012695
5.840000 2.080000 4.120000 -53.802967 42.166290 4672.755371
5.840000 2.080000 4.160000 -75.873199 -12.702908 5918.105957
5.840000 2.080000 4.200000 -51.271774 -63.781326 6696.852539
5.840000 2.120000 3.800000 -21.706772 -18.264250 804.766724
5.840000 2.120000 3.840000 -15.104948 -36.557144 1564.584229
5.840000 2.120000 3.880000 5.405346 -47.740646 2308.387207
5.840000 2.120000 3.920000 31.991556 -41.161331 2717.714844
5.840000 2.120000 3.960000 48.709816 -14.694246 2588.567139
5.840000 2.120000 4.000000 40.973152 19.400291 2055.170410
5.840000 2.120000 4.040000 8.298792 39.237320 1608.437256
5.840000 2.120000 4.080000 -31.180738 28.575302 1788.786377
5.840000 2.120000 4.120000 -51.538467 -8.905575 2735.522949
5.840000 2.120000 4.160000 -38.522484 -49.957832 3979.766602
5.840000 2.120000 4.200000 -1.228580 -68.692093 4720.112793
5.840000 2.160000 3.800000 -3.236272 -26.578377 716.883545
5.840000 2.160000 3.840000 11.460198 -30.306232 1049.803833
5.840000 2.160000 3.880000 26.148973 -22.274174 1179.907593
5.840000 2.160000 3.920000 31.779625 -5.066774 1035.616821
5.840000 2.160000 3.960000 23.281807 12.430111 696.550171
5.840000 2.160000 4.000000 3.519890 19.385855 388.200989
5.840000 2.160000 4.040000 -16.919987 9.674483 379.881592
5.840000 2.160000 4.080000 -25.349419 -13.109545 814.453186
5.840000 2.160000 4.120000 -15.324311 -36.586811 1573.429199
5.840000 2.160000 4.160000 8.236183 -47.247341 2300.145996
5.840000 2.160000 4.200000 31.956833 -39.779373 2603.637695
5.840000 2.200000 3.800000 11.776719 -21.586586 604.671814
5.840000 2.200000 3.840000 21.841522 -12.673999 637.682373
5.840000 2.200000 3.880000 21.779848 1.436156 476.424316
5.840000 2.200000 3.920000 10.629116 10.755375 228.656204
5.840000 2.200000 3.960000 -4.205238 8.049685 82.481468
5.840000 2.200000 4.000000 -12.292568 -5.587837 182.331161
5.840000 2.200000 4.040000 -7.754202 -21.567617 525.289734
5.840000 2.200000 4.080000 6.838208 -30.119743 953.960022
5.840000 2.200000 4.120000 22.898907 -26.980511 1252.307861
5.840000 2.200000 4.160000 32.243362 -15.564016 1281.873047
5.840000 2.200000 4.200000 32.414413 -3.486332 1062.848755
5.880000 1.800000 3.800000 -41.883636 -5.611847 1785.731812
5.880000 1.800000 3.840000 -35.727982 -22.973194 1804.256348
5.880000 1.800000 3.880000 -19.639351 -33.811089 1528.893799
5.880000 1.800000 3.920000 -0.547161 -32.875500 1081.097900
5.880000 1.800000 3.960000 13.046780 -21.554443 634.812500
5.880000 1.800000 4.000000 16.550787 -6.586246 317.307190
5.880000 1.800000 4.040000 11.570745 4.896053 157.853500
5.880000 1.800000 4.080000 3.444345 9.860571 109.094376
5.880000 1.800000 4.120000 -3.387894 9.930484 110.092331
5.880000 1.800000 4.160000 -8.063156 8.159172 131.586578
5.880000 1.800000 4.200000 -11.974612 5.539829 174.081055
5.880000 1.840000 3.800000 -20.604176 -26.917227 1149.069092
5.880000 1.840000 3.840000 -1.746752 -27.411104 754.419800
5.880000 1.840000 3.880000 11.641972 -13.154882 308.586426
5.880000 1.840000 3.920000 8.917759 5.896820 114.298920
5.880000 1.840000 3.960000 -7.584999 14.429264 265.735870
5.880000 1.840000 4.000000 -23.381098 5.507774 577.011292
5.880000 1.840000 4.040000 -24.436304 -12.542908 754.457458
5.880000 1.840000 4.080000 -10.012825 -23.418764 648.695190
5.880000 1.840000 4.120000 6.704449 -17.779785 361.070374
5.880000 1.840000 4.160000 11.018648 -1.680466 124.234573
5.880000 1.840000 4.200000 0.340353 9.506169 90.483093
5.880000 1.880000 3.800000 8.946951 -22.805277 600.128540
5.880000 1.880000 3.840000 21.849123 1.449043 479.483917
5.880000 1.880000 3.880000 8.472816 31.860176 1086.859375
5.880000 1.880000 3.920000 -29.010471 41.773262 2586.612793
5.880000 1.880000 3.960000 -64.437820 16.108147 4411.705078
5.880000 1.880000 4.000000 -67.841362 -31.277481 5580.730957
5.880000 1.880000 4.040000 -32.714561 -65.972092 5422.559570
5.880000 1.880000 4.080000 16.004147 -61.885086 4085.896729
5.880000 1.880000 4.120000 42.489754 -24.228262 2392.387695
5.880000 1.880000 4.160000 30.770498 15.399609 1183.971436
5.880000 1.880000 4.200000 -2.932539 27.279703 752.781982
5.880000 1.920000 3.800000 22.060135 3.030437 495.833099
5.880000 1.920000 3.840000 8.872925 40.306435 1703.337402
5.880000 1.920000 3.880000 -38.955067 58.144855 4898.321289
5.880000 1.920000 3.920000 -93.548996 28.551929 9566.627930
5.880000 1.920000 3.960000 -110.145432 -40.914330 13805.998047
5.880000 1.920000 4.000000 -66.415283 -105.227478 15483.812500
5.880000 1.920000 4.040000 13.007484 -116.628777 13771.465820
5.880000 1.920000 4.080000 73.249969 -66.303459 9761.707031
5.880000 1.920000 4.120000 74.660995 6.623253 5618.131836
5.880000 1.920000 4.160000 25.477858 48.571335 3008.295898
5.880000 1.920000 4.200000 -28.363171 36.621120 2145.575928
5.880000 1.960000 3.800000 7.823044 27.542236 819.774780
5.880000 1.960000 3.840000 -34.611275 52.391499 3942.809570
5.880000 1.960000 3.880000 -96.324753 31.932392 10298.135742
5.880000 1.960000 3.920000 -129.072296 -41.083405 18347.503906
5.880000 1.960000 3.960000 -93.441826 -126.256126 24671.984375
5.880000 1.960000 4.000000 0.441223 -161.616150 26119.974609
5.880000 1.960000 4.040000 92.833076 -116.078003 22092.082031
5.880000 1.960000 4.080000 120.859070 -19.859236 15001.304688
5.880000 1.960000 4.120000 71.172356 58.403610 8476.486328
5.880000 1.960000 4.160000 -10.123623 68.798492 4835.720215
5.880000 1.960000 4.200000 -59.405640 19.230598 3898.845947
5.880000 2.000000 3.800000 -20.631418 28.782579 1254.092285
5.880000 2.000000 3.840000 -73.045593 22.205000 5828.720703
5.880000 2.000000 3.880000 -113.714355 -35.557869 14195.317383
5.880000 2.000000 3.920000 -96.394333 -121.231750 23989.003906
5.880000 2.000000 3.960000 -11.215122 -175.452682 30909.423828
5.880000 2.000000 4.000000 95.328972 -149.684601 31493.093750
5.880000 2.000000 4.040000 151.410370 -52.318390 25662.312500
5.880000 2.000000 4.080000 118.907532 51.949490 16837.750000
5.880000 2.000000 4.120000 26.701145 93.435669 9443.175781
5.880000 2.000000 4.160000 -54.044102 54.302666 5869.544434
5.880000 2.000000 4.200000 -70.240646 -21.001242 5374.800781
5.880000 2.040000 3.800000 -38.129601 5.473331 1483.823853
5.880000 2.040000 3.840000 -73.368591 -28.746941 6209.336914
5.880000 2.040000 3.880000 -72.328461 -94.954025 14247.672852
5.880000 2.040000 3.920000 -12.501952 -151.431580 23087.822266
5.880000 2.040000 3.960000 82.665771 -147.961349 28726.191406
5.880000 2.040000 4.000000 152.332474 -71.427078 28307.009766
5.880000 2.040000 4.040000 145.225433 34.576473 22285.958984
5.880000 2.040000 4.080000 64.858780 99.924141 14191.495117
5.880000 2.040000 4.120000 -30.365675 84.529205 8067.260742
5.880000 2.040000 4.160000 -74.869560 10.453203 5714.720703
5.880000 2.040000 4.200000 -48.648567 -59.920918 5957.199219
5.880000 2.080000 3.800000 -30.083527 -22.871838 1428.139526
5.880000 2.080000 3.840000 -35.129723 -61.448631 5010.031738
5.880000 2.080000 3.880000 -2.654263 -103.151649 10647.307617
5.880000 2.080000 3.920000 62.791786 -111.690811 16417.644531
5.880000 2.080000 3.960000 123.861656 -65.339943 19611.017578
5.880000 2.080000 4.000000 135.148438 17.526520 18572.279297
5.880000 2.080000 4.040000 81.973793 85.502098 14030.311523
5.880000 2.080000 4.080000 -2.512333 93.113884 8676.506836
5.880000 2.080000 4.120000 -61.091072 38.665882 5227.169434
5.880000 2.080000 4.160000 -58.182983 -34.134163 4550.400391
5.880000 2.080000 4.200000 -6.734460 -73.113876 5390.991699
5.880000 2.120000 3.800000 -4.126018 -34.530792 1209.399658
5.880000 2.120000 3.840000 10.743196 -54.769058 3115.065918
5.880000 2.120000 3.880000 44.339779 -61.453514 5742.550293
5.880000 2.120000 3.920000 81.037018 -39.164772 8100.877441
5.880000 2.120000 3.960000 94.491821 9.110100 9011.698242
5.880000 2.120000 4.000000 68.216927 57.496979 7959.451172
5.880000 2.120000 4.040000 13.068996 73.643631 5594.183105
5.880000 2.120000 4.080000 -36.656303 44.856834 3355.820312
5.880000 2.120000 4.120000 -48.554356 -9.333807 2444.645264
5.880000 2.120000 4.160000 -17.873234 -51.385754 2959.947998
5.880000 2.120000 4.200000 29.492289 -55.394043 3938.295166
5.880000 2.160000 3.800000 19.233768 -24.301615 960.506348
5.880000 2.160000 3.840000 32.101624 -21.990692 1514.104858
5.880000 2.160000 3.880000 43.650784 -10.262003 2010.699585
5.880000 2.160000 3.920000 46.332344 9.309860 2233.359619
5.880000 2.160000 3.960000 34.607994 28.733097 2023.304199
5.880000 2.160000 4.000000 10.746086 36.348984 1436.727051
5.880000 2.160000 4.040000 -13.404846 24.797611 794.611389
5.880000 2.160000 4.080000 -22.756605 -1.489693 520.082275
5.880000 2.160000 4.120000 -10.178257 -27.044842 835.020386
5.880000 2.160000 4.160000 16.865015 -35.744064 1562.066895
5.880000 2.160000 4.200000 41.166248 -22.982119 2222.837891
5.880000 2.200000 3.800000 26.199928 -5.005816 711.494385
5.880000 2.200000 3.840000 23.688473 6.076691 598.069885
5.880000 2.200000 3.880000 14.216139 12.020395 346.588501
5.880000 2.200000 3.920000 4.113745 9.613239 109.337265
5.880000 2.200000 3.960000 -0.750919 1.605929 3.142889
5.880000 2.200000 4.000000 0.998718 -6.604732 44.619915
5.880000 2.200000 4.040000 6.845724 -11.401642 176.861374
5.880000 2.200000 4.080000 13.750358 -12.333069 341.176941
5.880000 2.200000 4.120000 20.265293 -10.290541 516.577332
5.880000 2.200000 4.160000 25.840294 -5.611506 699.209778
5.880000 2.200000 4.200000 29.331104 1.661175 863.073181
5.920000 1.800000 3.800000 -37.454910 -19.008469 1764.192261
5.920000 1.800000 3.840000 -24.973541 -35.122101 1857.239746
5.920000 1.800000 3.880000 -3.887646 -39.786373 1598.069214
5.920000 1.800000 3.920000 14.928307 -30.174084 1133.329712
5.920000 1.800000 3.960000 22.504814 -12.679443 667.234985
5.920000 1.800000 4.000000 18.114040 2.414856 333.950012
5.920000 1.800000 4.040000 8.518147 8.900620 151.779846
5.920000 1.800000 4.080000 1.332699 8.239519 69.665764
5.920000 1.800000 4.120000 -1.110886 6.178426 39.407013
5.920000 1.800000 4.160000 -1.965383 6.316616 43.762371
5.920000 1.800000 4.200000 -4.785204 7.087794 73.135002
5.920000 1.840000 3.800000 -10.842772 -28.141733 909.522888
5.920000 1.840000 3.840000 6.601841 -18.585875 389.019043
5.920000 1.840000 3.880000 8.830849 2.369690 83.599319
5.920000 1.840000 3.920000 -8.131470 16.298943 331.776306
5.920000 1.840000 3.960000 -30.038898 9.237656 987.669739
5.920000 1.840000 4.000000 -36.668709 -14.193695 1546.055176
5.920000 1.840000 4.040000 -20.712547 -34.074936 1590.110962
5.920000 1.840000 4.080000 5.090771 -33.319641 1136.114380
5.920000 1.840000 4.120000 19.748718 -13.216936 564.699280
5.920000 1.840000 4.160000 13.221742 8.473049 246.607025
5.920000 1.840000 4.200000 -5.382612 14.538829 240.350067
5.920000 1.880000 3.800000 10.204596 -11.504854 236.495438
5.920000 1.880000 3.840000 6.282543 21.556646 504.159332
5.920000 1.880000 3.880000 -31.291363 41.796471 2726.094238
5.920000 1.880000 3.920000 -78.842575 20.966499 6655.746094
5.920000 1.880000 3.960000 -95.653313 -36.296875 10467.019531
5.920000 1.880000 4.000000 -60.960548 -90.933228 11985.040039
5.920000 1.880000 4.040000 4.303551 -101.675949 10356.519531
5.920000 1.880000 4.080000 53.752052 -61.625622 6687.000488
5.920000 1.880000 4.120000 55.541420 -4.081421 3101.507324
5.920000 1.880000 4.160000 18.393444 27.873808 1115.267944
5.920000 1.880000 4.200000 -20.010288 18.547085 744.406006
5.920000 1.920000 3.800000 6.201899 14.055170 236.011353
5.920000 1.920000 3.840000 -34.448013 44.762627 3190.358398
5.920000 1.920000 3.880000 -100.531502 27.214165 10847.193359
5.920000 1.920000 3.920000 -137.675354 -48.882015 21343.955078
5.920000 1.920000 3.960000 -101.828491 -139.501144 29829.609375
5.920000 1.920000 4.000000 -4.358124 -177.915344 31672.863281
5.920000 1.920000 4.040000 91.036263 -132.767258 25914.746094
5.920000 1.920000 4.080000 120.714981 -37.517452 15979.666016
5.920000 1.920000 4.120000 74.719742 38.140015 7037.700684
5.920000 1.920000 4.160000 1.495939 48.313477 2336.429932
5.920000 1.920000 4.200000 -38.925926 5.878813 1549.788208
5.920000 1.960000 3.800000 -18.675827 22.607159 859.870117
5.920000 1.960000 3.840000 -83.219528 20.704407 7354.162109
5.920000 1.960000 3.880000 -137.314804 -48.552578 21212.708984
5.920000 1.960000 3.920000 -118.774452 -156.233398 38516.246094
5.920000 1.960000 3.960000 -14.320103 -225.894638 51233.453125
5.920000 1.960000 4.000000 116.908737 -197.088470 52511.515625
5.920000 1.960000 4.040000 186.969238 -82.295868 41730.105469
5.920000 1.960000 4.080000 153.137238 39.285240 24994.343750
5.920000 1.960000 4.120000 53.264053 88.192810 10615.031250
5.920000 1.960000 4.160000 -30.686295 49.742680 3415.982910
5.920000 1.960000 4.200000 -44.837173 -21.923674 2491.019531
5.920000 2.000000 3.800000 -39.901329 3.924252 1607.515869
5.920000 2.000000 3.840000 -94.874741 -38.813766 10507.725586
5.920000 2.000000 3.880000 -99.551651 -134.256348 27935.298828
5.920000 2.000000 3.920000 -16.572704 -219.814362 48593.011719
5.920000 2.000000 3.960000 120.425339 -219.865906 62843.277344
5.920000 2.000000 4.000000 223.006165 -115.377625 63043.746094
5.920000 2.000000 4.040000 219.558380 30.855583 49157.949219
5.920000 2.000000 4.080000 117.720154 122.506859 28865.964844
5.920000 2.000000 4.120000 -2.199291 109.498634 11994.788086
5.920000 2.000000 4.160000 -57.212288 25.596624 3928.433105
5.920000 2.000000 4.200000 -28.999113 -49.085770 3250.361328
5.920000 2.040000 3.800000 -35.737926 -26.581585 1983.780029
5.920000 2.040000 3.840000 -54.318981 -88.232712 10735.562500
5.920000 2.040000 3.880000 -7.325279 -164.095459 26980.980469
5.920000 2.040000 3.920000 102.145981 -187.358978 45537.187500
5.920000 2.040000 3.960000 210.034515 -116.569687 57702.988281
5.920000 2.040000 4.000000 237.947220 18.760708 56970.843750
5.920000 2.040000 4.040000 161.030975 133.659683 43795.882812
5.920000 2.040000 4.080000 33.121960 155.797058 25369.787109
5.920000 2.040000 4.120000 -57.166492 84.933357 10481.683594
5.920000 2.040000 4.160000 -59.848225 -11.230379 3707.931396
5.920000 2.040000 4.200000 1.025879 -59.158012 3500.722900
5.920000 2.080000 3.800000 -7.494347 -42.606560 1871.484253
5.920000 2.080000 3.840000 8.778229 -89.830475 8146.571289
5.920000 2.080000 3.880000 73.432968 -117.782188 19265.044922
5.920000 2.080000 3.920000 156.240967 -84.367760 31529.160156
5.920000 2.080000 3.960000 197.576447 10.774193 39152.535156
5.920000 2.080000 4.000000 157.516205 115.098808 38059.089844
5.920000 2.080000 4.040000 54.746101 160.871750 28876.855469
5.920000 2.080000 4.080000 -43.921280 121.021263 16575.224609
5.920000 2.080000 4.120000 -77.112427 31.926014 6965.596680
5.920000 2.080000 4.160000 -37.495262 -38.609520 2896.589844
5.920000 2.080000 4.200000 28.257915 -48.175766 3119.414307
5.920000 2.120000 3.800000 22.717533 -31.382624 1500.955322
5.920000 2.120000 3.840000 48.056438 -47.313072 4547.948242
5.920000 2.120000 3.880000 90.768211 -37.171066 9620.556641
5.920000 2.120000 3.920000 121.815384 10.613338 14951.629883
5.920000 2.120000 3.960000 109.916786 76.875458 17991.535156
5.920000 2.120000 4.000000 50.679764 120.500893 17088.902344
5.920000 2.120000 4.040000 -23.758072 110.292458 12728.872070
5.920000 2.120000 4.080000 -67.114449 52.465057 7256.931641
5.920000 2.120000 4.120000 -55.618134 -12.528400 3250.337402
5.920000 2.120000 4.160000 -6.184948 -42.453743 1840.573853
5.920000 2.120000 4.200000 40.080643 -26.035168 2284.287842
5.920000 2.160000 3.800000 33.439621 -3.888126 1133.325806
5.920000 2.160000 3.840000 42.598461 1.082388 1815.800415
5.920000 2.160000 3.880000 50.500801 15.799423 2799.952637
5.920000 2.160000 3.920000 47.291512 38.592487 3725.867188
5.920000 2.160000 3.960000 26.634171 58.270733 4104.857422
5.920000 2.160000 4.000000 -5.860931 60.218933 3660.670410
5.920000 2.160000 4.040000 -33.052189 38.609928 2583.173828
5.920000 2.160000 4.080000 -37.864342 3.858231 1448.594360
5.920000 2.160000 4.120000 -17.210560 -23.098852 829.760315
5.920000 2.160000 4.160000 14.493279 -26.292404 901.345642
5.920000 2.160000 4.200000 36.234612 -6.773396 1358.825928
5.920000 2.200000 3.800000 22.578354 17.907303 830.453613
5.920000 2.200000 3.840000 11.567081 20.817570 567.168579
5.920000 2.200000 3.880000 2.584190 15.739613 254.413437
5.920000 2.200000 3.920000 0.636906 7.875229 62.424877
5.920000 2.200000 3.960000 3.822441 3.680208 28.154989
5.920000 2.200000 4.000000 6.156338 4.217224 55.685471
5.920000 2.200000 4.040000 4.693724 4.792351 44.997665
5.920000 2.200000 4.080000 2.891781 1.147926 9.680131
5.920000 2.200000 4.120000 6.458752 -4.770113 64.469452
5.920000 2.200000 4.160000 16.185812 -6.038794 298.447540
5.920000 2.200000 4.200000 25.659456 2.088957 662.771484
5.960000 1.800000 3.800000 -24.629124 -24.921579 1227.678955
5.960000 1.800000 3.840000 -9.051571 -35.483856 1341.034912
5.960000 1.800000 3.880000 10.712391 -32.949272 1200.409912
5.960000 1.800000 3.920000 23.762863 -18.475368 906.012878
5.960000 1.800000 3.960000 24.291269 -1.012146 591.090149
5.960000 1.800000 4.000000 15.507946 9.987061 340.237762
5.960000 1.800000 4.040000 5.940697 11.753128 173.427887
5.960000 1.800000 4.080000 1.738266 9.053382 84.985291
5.960000 1.800000 4.120000 2.067356 8.432903 75.387825
5.960000 1.800000 4.160000 1.539341 11.715336 139.618668
5.960000 1.800000 4.200000 -3.291584 14.954326 234.466370
5.960000 1.840000 3.800000 -3.906298 -21.231024 466.015533
5.960000 1.840000 3.840000 3.457596 -6.407255 53.007885
5.960000 1.840000 3.880000 -7.473015 8.547478 128.905319
5.960000 1.840000 3.920000 -28.613113 6.169632 856.774597
5.960000 1.840000 3.960000 -39.573586 -15.715485 1813.045166
5.960000 1.840000 4.000000 -26.981758 -40.120720 2337.687500
5.960000 1.840000 4.040000 1.964066 -45.835571 2104.757324
5.960000 1.840000 4.080000 25.339813 -26.970848 1369.532715
5.960000 1.840000 4.120000 26.162901 1.811752 687.779846
5.960000 1.840000 4.160000 6.931937 19.058193 411.266479
5.960000 1.840000 4.200000 -14.344842 15.530115 446.958984
5.960000 1.880000 3.800000 0.994030 -2.892828 9.356549
5.960000 1.880000 3.840000 -23.045362 21.366760 987.627197
5.960000 1.880000 3.880000 -68.845741 12.620270 4899.007324
5.960000 1.880000 3.920000 -96.307648 -39.303818 10819.953125
5.960000 1.880000 3.960000 -71.807449 -103.207573 15808.112305
5.960000 1.880000 4.000000 -2.734695 -130.267212 16977.025391
5.960000 1.880000 4.040000 64.869781 -97.568665 13727.732422
5.960000 1.880000 4.080000 85.359146 -29.490414 8155.868164
5.960000 1.880000 4.120000 52.383423 24.055866 3322.707520
5.960000 1.880000 4.160000 1.040285 31.346239 983.668945
5.960000 1.880000 4.200000 -26.807444 2.797901 726.467285
5.960000 1.920000 3.800000 -14.637388 8.108866 280.006836
5.960000 1.920000 3.840000 -70.041016 9.834885 5002.468750
5.960000 1.920000 3.880000 -118.810936 -49.888725 16604.923828
5.960000 1.920000 3.920000 -102.731789 -145.553543 31739.654297
5.960000 1.920000 3.960000 -9.352615 -207.262863 43045.367188
5.960000 1.920000 4.000000 107.254852 -180.742554 44171.476562
5.960000 1.920000 4.040000 168.404251 -78.779236 34566.160156
5.960000 1.920000 4.080000 138.253159 27.192165 19853.349609
5.960000 1.920000 4.120000 52.727814 68.741501 7505.616211
5.960000 1.920000 4.160000 -16.557270 36.704910 1621.393677
5.960000 1.920000 4.200000 -26.593960 -19.721460 1096.174683
5.960000 1.960000 3.800000 -33.420593 -3.566532 1129.656128
5.960000 1.960000 3.840000 -91.764938 -44.696430 10418.574219
5.960000 1.960000 3.880000 -98.318474 -144.218109 30465.386719
5.960000 1.960000 3.920000 -11.393372 -234.494415 55117.437500
5.960000 1.960000 3.960000 132.637848 -234.259293 72470.218750
5.960000 1.960000 4.000000 239.447174 -124.710068 72887.546875
5.960000 1.960000 4.040000 235.542694 26.246315 56169.226562
5.960000 1.960000 4.080000 132.459656 119.045601 31717.416016
5.960000 1.960000 4.120000 14.653908 106.435753 11543.306641
5.960000 1.960000 4.160000 -36.570004 27.461138 2091.479248
5.960000 1.960000 4.200000 -9.447300 -37.314308 1481.609009
5.960000 2.000000 3.800000 -32.608280 -30.192364 1974.878784
5.960000 2.000000 3.840000 -59.044533 -102.842888 14062.916016
5.960000 2.000000 3.880000 -4.307732 -196.608643 38673.511719
5.960000 2.000000 3.920000 129.038300 -226.627655 68010.976562
5.960000 2.000000 3.960000 260.857483 -141.189423 87981.078125
5.960000 2.000000 4.000000 295.137207 21.895796 87585.398438
5.960000 2.000000 4.040000 204.528046 158.708984 67020.265625
5.960000 2.000000 4.080000 56.664116 185.432480 37596.023438
5.960000 2.000000 4.120000 -44.579315 107.231949 13486.005859
5.960000 2.000000 4.160000 -47.142445 5.867584 2256.838623
5.960000 2.000000 4.200000 14.343732 -38.373840 1678.294312
5.960000 2.040000 3.800000 -7.041700 -47.486488 2304.552002
5.960000 2.040000 3.840000 10.218563 -116.810684 13749.155273
5.960000 2.040000 3.880000 101.132042 -161.565918 36331.234375
5.960000 2.040000 3.920000 221.497498 -117.016899 62754.093750
5.960000 2.040000 3.960000 283.000305 17.664665 80401.210938
5.960000 2.040000 4.000000 228.666031 165.422577 79652.781250
5.960000 2.040000 4.040000 87.759766 230.608536 60882.074219
5.960000 2.040000 4.080000 -45.075516 179.482910 34245.917969
5.960000 2.040000 4.120000 -89.277061 66.425812 12382.782227
5.960000 2.040000 4.160000 -42.235832 -17.879238 2103.532715
5.960000 2.040000 4.200000 30.004795 -25.061232 1528.353027
5.960000 2.080000 3.800000 25.004446 -37.929733 2063.886963
5.960000 2.080000 3.840000 65.811829 -74.932404 9946.062500
5.960000 2.080000 3.880000 144.974792 -64.842072 25222.185547
5.960000 2.080000 3.920000 206.369324 17.180939 42883.480469
5.960000 2.080000 3.960000 190.363617 135.394058 54569.859375
5.960000 2.080000 4.000000 89.907974 214.309067 54011.820312
5.960000 2.080000 4.040000 -36.081528 200.480316 41494.230469
5.960000 2.080000 4.080000 -108.747787 108.870094 23678.777344
5.960000 2.080000 4.120000 -93.792007 9.506451 8887.313477
5.960000 2.080000 4.160000 -25.113829 -32.940395 1715.774170
5.960000 2.080000 4.200000 31.845581 -9.740649 1109.021240
5.960000 2.120000 3.800000 39.018051 -7.459484 1578.052246
5.960000 2.120000 3.840000 70.975525 -11.599710 5172.078125
5.960000 2.120000 3.880000 107.917252 21.075901 12090.326172
5.960000 2.120000 3.920000 112.153946 86.332993 20031.894531
5.960000 2.120000 3.960000 62.480392 146.244202 25291.166016
5.960000 2.120000 4.000000 -21.605293 156.977249 25108.646484
5.960000 2.120000 4.040000 -90.604370 106.641701 19581.605469
5.960000 2.120000 4.080000 -103.978790 27.696236 11578.669922
5.960000 2.120000 4.120000 -62.580330 -28.900682 4751.546875
5.960000 2.120000 4.160000 -5.161374 -34.597878 1223.652954
5.960000 2.120000 4.200000 26.388248 -2.229223 701.309082
5.960000 2.160000 3.800000 26.936825 20.921637 1163.307373
5.960000 2.160000 3.840000 33.621540 26.414238 1828.119873
5.960000 2.160000 3.880000 36.117382 43.612045 3206.475830
5.960000 2.160000 3.920000 22.570847 65.841721 4844.575195
5.960000 2.160000 3.960000 -8.986740 76.817688 5981.718750
5.960000 2.160000 4.000000 -45.038757 63.154339 6016.959961
5.960000 2.160000 4.040000 -64.569351 27.200180 4909.050781
5.960000 2.160000 4.080000 -55.237232 -12.153114 3198.850098
5.960000 2.160000 4.120000 -23.813398 -32.832668 1645.062012
5.960000 2.160000 4.160000 8.753314 -26.030689 754.217285
5.960000 2.160000 4.200000 23.399723 -1.695875 550.423035
5.960000 2.200000 3.800000 2.791414 29.306570 866.667053
5.960000 2.200000 3.840000 -6.537148 22.259684 538.227783
5.960000 2.200000 3.880000 -8.195778 12.209057 216.231842
5.960000 2.200000 3.920000 -3.371658 6.742157 56.824760
5.960000 2.200000 3.960000 0.461075 8.558617 73.462509
5.960000 2.200000 4.000000 -2.698294 12.042885 152.311874
5.960000 2.200000 4.040000 -10.305672 8.837990 184.316925
5.960000 2.200000 4.080000 -12.899361 -2.739773 173.899857
5.960000 2.200000 4.120000 -3.678806 -14.351593 219.501831
5.960000 2.200000 4.160000 13.386539 -14.683357 394.800415
5.960000 2.200000 4.200000 25.603315 -0.537588 655.818787
6.000000 1.800000 3.800000 -13.465132 -18.984060 541.704285
6.000000 1.800000 3.840000 -0.371830 -24.689173 609.693481
6.000000 1.800000 3.880000 14.078484 -19.903244 594.342834
6.000000 1.800000 3.920000 21.935747 -6.853264 528.144226
6.000000 1.800000 3.960000 19.793730 7.059174 441.623688
6.000000 1.800000 4.000000 11.116936 14.889656 345.288116
6.000000 1.800000 4.040000 2.926422 15.394261 245.547226
6.000000 1.800000 4.080000 -0.416561 13.226067 175.102356
6.000000 1.800000 4.120000 -0.660173 13.790081 190.602158
6.000000 1.800000 4.160000 -3.065544 17.745003 324.282684
6.000000 1.800000 4.200000 -10.376019 20.517544 528.631348
6.000000 1.840000 3.800000 -6.763062 -12.216751 194.988007
6.000000 1.840000 3.840000 -10.061357 -3.142841 111.108360
6.000000 1.840000 3.880000 -23.555593 -3.539513 567.394104
6.000000 1.840000 3.920000 -32.680641 -19.640907 1453.789551
6.000000 1.840000 3.960000 -23.608231 -41.083485 2245.201172
6.000000 1.840000 4.000000 2.151398 -49.267860 2431.950439
6.000000 1.840000 4.040000 27.424019 -34.548214 1945.655884
6.000000 1.840000 4.080000 34.020020 -5.613277 1188.870605
6.000000 1.840000 4.120000 18.358675 17.929783 658.518066
6.000000 1.840000 4.160000 -6.440702 22.307379 539.101807
6.000000 1.840000 4.200000 -23.069111 9.926527 630.719849
6.000000 1.880000 3.800000 -13.366558 -6.438847 220.123611
6.000000 1.880000 3.840000 -43.445663 -4.921577 1911.747559
6.000000 1.880000 3.880000 -70.674263 -40.103664 6603.155273
6.000000 1.880000 3.920000 -58.792992 -96.773254 12821.678711
6.000000 1.880000 3.960000 -0.295609 -131.754044 17359.216797
6.000000 1.880000 4.000000 70.845505 -112.081871 17581.431641
6.000000 1.880000 4.040000 106.141472 -46.814693 13457.626953
6.000000 1.880000 4.080000 84.546341 19.231670 7517.940918
6.000000 1.880000 4.120000 29.378172 44.282303 2823.999268
6.000000 1.880000 4.160000 -15.059197 23.703760 788.647644
6.000000 1.880000 4.200000 -23.017553 -11.839275 669.976196
6.000000 1.920000 3.800000 -24.009897 -14.844883 796.845703
6.000000 1.920000 3.840000 -66.103821 -44.837765 6380.140625
6.000000 1.920000 3.880000 -69.104538 -119.859619 19141.765625
6.000000 1.920000 3.920000 -0.285370 -187.013245 34974.035156
6.000000 1.920000 3.960000 111.136871 -183.234009 45926.109375
6.000000 1.920000 4.000000 191.325897 -95.576630 45740.492188
6.000000 1.920000 4.040000 184.748474 21.443542 34591.824219
6.000000 1.920000 4.080000 103.086319 90.996262 18907.109375
6.000000 1.920000 4.120000 12.938831 79.264786 6450.319824
6.000000 1.920000 4.160000 -24.758835 19.027546 975.047363
6.000000 1.920000 4.200000 -4.344648 -27.982595 801.901611
6.000000 1.960000 3.800000 -21.350704 -34.812538 1667.765381
6.000000 1.960000 3.840000 -44.512291 -98.141998 11613.195312
6.000000 1.960000 3.880000 5.894531 -181.527191 32986.867188
6.000000 1.960000 3.920000 127.622475 -206.300858 58847.539062
6.000000 1.960000 3.960000 246.131241 -125.642082 76366.515625
6.000000 1.960000 4.000000 273.955261 23.676395 75612.054688
6.000000 1.960000 4.040000 189.058411 145.772552 56992.718750
6.000000 1.960000 4.080000 55.983864 166.821198 30963.505859
6.000000 1.960000 4.120000 -31.653236 96.003418 10218.583984
6.000000 1.960000 4.160000 -31.523899 9.317602 1080.573975
6.000000 1.960000 4.200000 20.366230 -24.201941 1000.517273
6.000000 2.000000 3.800000 1.227587 -48.178780 2322.701904
6.000000 2.000000 3.840000 17.840435 -119.596985 14621.719727
6.000000 2.000000 3.880000 113.219971 -166.175064 40432.914062
6.000000 2.000000 3.920000 239.752838 -117.739952 71344.117188
6.000000 2.000000 3.960000 302.529449 25.477936 92173.195312
6.000000 2.000000 4.000000 242.698532 179.765442 91218.187500
6.000000 2.000000 4.040000 94.789612 244.839203 68931.304688
6.000000 2.000000 4.080000 -40.145367 189.773071 37625.472656
6.000000 2.000000 4.120000 -81.571495 75.998245 12429.642578
6.000000 2.000000 4.160000 -33.653156 -2.978985 1141.409302
6.000000 2.000000 4.200000 31.758858 -4.259865 1026.771484
6.000000 2.040000 3.800000 30.428692 -38.590527 2415.134033
6.000000 2.040000 3.840000 78.970390 -86.016907 13635.230469
6.000000 2.040000 3.880000 177.467285 -74.734718 37079.914062
6.000000 2.040000 3.920000 253.694824 27.303658 65106.550781
6.000000 2.040000 3.960000 232.485626 173.381226 84110.617188
6.000000 2.040000 4.000000 107.876724 268.201019 83569.179688
6.000000 2.040000 4.040000 -43.885391 248.556381 63706.199219
6.000000 2.040000 4.080000 -127.088844 138.537506 35344.214844
6.000000 2.040000 4.120000 -106.705673 26.018017 12063.038086
6.000000 2.040000 4.160000 -30.610403 -15.963558 1191.831909
6.000000 2.040000 4.200000 23.258566 13.168526 714.370972
6.000000 2.080000 3.800000 44.037647 -8.605106 2013.362183
6.000000 2.080000 3.840000 95.273193 -19.651024 9463.144531
6.000000 2.080000 3.880000 156.044418 29.643528 25228.599609
6.000000 2.080000 3.920000 164.124405 131.329041 44184.136719
6.000000 2.080000 3.960000 87.407974 222.808044 57283.578125
6.000000 2.080000 4.000000 -39.387333 236.431473 57451.203125
6.000000 2.080000 4.040000 -138.299469 159.562012 44586.777344
6.000000 2.080000 4.080000 -152.844131 47.147076 25584.175781
6.000000 2.080000 4.120000 -93.417992 -25.988964 9402.347656
6.000000 2.080000 4.160000 -21.734135 -27.525843 1230.044678
6.000000 2.080000 4.200000 7.536476 13.381929 235.874512
6.000000 2.120000 3.800000 31.688633 21.400074 1462.132568
6.000000 2.120000 3.840000 60.688515 31.787491 4693.540039
6.000000 2.120000 3.880000 75.801544 78.040710 11836.226562
6.000000 2.120000 3.920000 45.231617 136.141998 20580.542969
6.000000 2.120000 3.960000 -29.208740 161.320251 26877.373047
6.000000 2.120000 4.000000 -107.129120 126.520332 27484.042969
6.000000 2.120000 4.040000 -140.640884 48.409321 22123.320312
6.000000 2.120000 4.080000 -113.903763 -24.794209 13588.820312
6.000000 2.120000 4.120000 -54.532806 -52.913696 5773.686523
6.000000 2.120000 4.160000 -7.400833 -34.166080 1222.093384
6.000000 2.120000 4.200000 2.982016 0.201887 8.933175
6.000000 2.160000 3.800000 4.385677 31.828354 1032.278320
6.000000 2.160000 3.840000 9.446159 38.367256 1561.276367
6.000000 2.160000 3.880000 4.030445 55.040588 3045.710693
6.000000 2.160000 3.920000 -19.532684 68.066956 5014.636230
6.000000 2.160000 3.960000 -53.594543 61.233894 6621.964844
6.000000 2.160000 4.000000 -78.791504 30.329987 7128.009277
6.000000 2.160000 4.040000 -78.672379 -11.432289 6320.040527
6.000000 2.160000 4.080000 -52.787479 -42.450050 4588.524902
6.000000 2.160000 4.120000 -16.974634 -48.587959 2648.927979
6.000000 2.160000 4.160000 8.902593 -32.403328 1129.231812
6.000000 2.160000 4.200000 14.787282 -8.986959 299.429138
6.000000 2.200000 3.800000 -16.731224 21.273188 732.482422
6.000000 2.200000 3.840000 -18.664766 11.423126 478.861328
6.000000 2.200000 3.880000 -14.684399 3.746918 229.670959
6.000000 2.200000 3.920000 -9.065498 2.340652 87.661911
6.000000 2.200000 3.960000 -8.329294 5.322578 97.706985
6.000000 2.200000 4.000000 -14.200886 5.187843 228.578888
6.000000 2.200000 4.040000 -20.083252 -4.005299 419.379425
6.000000 2.200000 4.080000 -16.123108 -19.106874 625.027283
6.000000 2.200000 4.120000 0.644310 -28.520864 813.854858
6.000000 2.200000 4.160000 21.145466 -22.133842 937.037720
6.000000 2.200000 4.200000 30.480242 -1.774073 932.192505
6.040000 1.800000 3.800000 -13.522434 -7.887262 245.065140
6.040000 1.800000 3.840000 -4.964640 -14.109978 223.739120
6.040000 1.800000 3.880000 6.730927 -12.739338 207.596100
6.040000 1.800000 3.920000 14.908997 -3.140987 232.143982
6.040000 1.800000 3.960000 14.457253 9.550781 300.229553
6.040000 1.800000 4.000000 6.367889 18.025812 365.479919
6.040000 1.800000 4.040000 -3.064419 19.009998 370.770691
6.040000 1.800000 4.080000 -8.246067 15.843708 319.020691
6.040000 1.800000 4.120000 -9.573007 14.367771 298.075317
6.040000 1.800000 4.160000 -12.239054 16.266411 414.390564
6.040000 1.800000 4.200000 -19.708324 17.124460 681.665161
6.040000 1.840000 3.800000 -17.358257 -11.338025 429.859894
6.040000 1.840000 3.840000 -21.673342 -14.915718 692.212402
6.040000 1.840000 3.880000 -23.251656 -26.630798 1249.838867
6.040000 1.840000 3.920000 -13.197220 -40.689423 1829.795776
6.040000 1.840000 3.960000 7.943161 -44.824268 2072.308838
6.040000 1.840000 4.000000 28.491592 -31.810646 1823.687988
6.040000 1.840000 4.040000 34.794014 -7.070023 1260.608643
6.040000 1.840000 4.080000 22.624866 15.024776 737.628479
6.040000 1.840000 4.120000 0.289732 22.489151 505.845856
6.040000 1.840000 4.160000 -18.742191 14.265258 554.767334
6.040000 1.840000 4.200000 -26.251686 -1.026418 690.204529
6.040000 1.880000 3.800000 -19.916725 -23.198612 934.851562
6.040000 1.880000 3.840000 -35.512363 -40.539669 2904.592773
6.040000 1.880000 3.880000 -30.203003 -77.838776 6971.096191
6.040000 1.880000 3.920000 10.638718 -107.160797 11596.619141
6.040000 1.880000 3.960000 69.290749 -97.530220 14313.351562
6.040000 1.880000 4.000000 106.957809 -45.654411 13524.297852
6.040000 1.880000 4.040000 97.067703 17.521729 9729.149414
6.040000 1.880000 4.080000 48.870609 52.106255 5103.398438
6.040000 1.880000 4.120000 -1.417271 42.552174 1812.696167
6.040000 1.880000 4.160000 -22.625673 7.651117 570.460693
6.040000 1.880000 4.200000 -12.842356 -20.369177 579.829468
6.040000 1.920000 3.800000 -10.436813 -39.670944 1682.710938
6.040000 1.920000 3.840000 -20.013992 -79.245262 6680.371582
6.040000 1.920000 3.880000 17.681580 -129.621841 17114.460938
6.040000 1.920000 3.920000 99.579025 -139.255219 29307.998047
6.040000 1.920000 3.960000 175.083679 -79.373154 36954.390625
6.040000 1.920000 4.000000 187.258942 22.640106 35578.484375
6.040000 1.920000 4.040000 124.784271 101.921196 25959.044922
6.040000 1.920000 4.080000 33.580379 111.301437 13515.651367
6.040000 1.920000 4.120000 -23.866152 60.273041 4202.432617
6.040000 1.920000 4.160000 -21.864475 1.237274 479.586121
6.040000 1.920000 4.200000 13.120448 -21.010862 613.602478
6.040000 1.960000 3.800000 13.571163 -46.794609 2373.911865
6.040000 1.960000 3.840000 28.883190 -97.815811 10402.170898
6.040000 1.960000 3.880000 103.916656 -129.040482 27450.117188
6.040000 1.960000 3.920000 200.817932 -85.926361 47711.183594
6.040000 1.960000 3.960000 244.936859 29.509312 60864.867188
6.040000 1.960000 4.000000 192.026642 149.574432 59246.742188
6.040000 1.960000 4.040000 72.677315 195.953308 43679.691406
6.040000 1.960000 4.080000 -31.846962 147.854462 22875.169922
6.040000 1.960000 4.120000 -60.248135 57.333855 6917.008789
6.040000 1.960000 4.160000 -20.274395 -1.772694 414.193542
6.040000 1.960000 4.200000 28.905651 0.444237 835.734009
6.040000 2.000000 3.800000 39.787361 -33.026592 2673.789795
6.040000 2.000000 3.840000 82.521080 -72.199699 12022.525391
6.040000 2.000000 3.880000 169.887802 -58.923809 32333.880859
6.040000 2.000000 3.920000 235.667892 36.055149 56839.328125
6.040000 2.000000 3.960000 211.581207 168.649109 73209.125000
6.040000 2.000000 4.000000 94.715698 251.045288 71994.804688
6.040000 2.000000 4.040000 -42.466049 227.874146 53729.992188
6.040000 2.000000 4.080000 -113.093628 125.688454 28587.755859
6.040000 2.000000 4.120000 -89.997375 27.062630 8831.914062
6.040000 2.000000 4.160000 -22.054554 -4.491947 506.580933
6.040000 2.000000 4.200000 19.463066 24.811491 994.421021
6.040000 2.040000 3.800000 49.540993 -2.335332 2459.763916
6.040000 2.040000 3.840000 102.191566 -13.231327 10618.184570
6.040000 2.040000 3.880000 165.297089 40.076340 28929.240234
6.040000 2.040000 3.920000 171.142303 148.685501 51397.066406
6.040000 2.040000 3.960000 86.294876 243.782425 66876.679688
6.040000 2.040000 4.000000 -48.877563 253.369965 66585.359375
6.040000 2.040000 4.040000 -149.370651 168.106827 50571.496094
6.040000 2.040000 4.080000 -158.353302 51.207485 27697.974609
6.040000 2.040000 4.120000 -93.764023 -18.192825 9122.670898
6.040000 2.040000 4.160000 -24.988419 -12.791624 788.046753
6.040000 2.040000 4.200000 -5.735163 28.541660 847.518433
6.040000 2.080000 3.800000 34.578606 26.495026 1897.666260
6.040000 2.080000 3.840000 74.149567 40.044842 7101.747559
6.040000 2.080000 3.880000 94.374084 102.397957 19391.808594
6.040000 2.080000 3.920000 52.154297 179.122879 34805.078125
6.040000 2.080000 3.960000 -47.048130 208.909637 45856.765625
6.040000 2.080000 4.000000 -145.801239 158.775803 46467.757812
6.040000 2.080000 4.040000 -181.791504 56.969894 36293.722656
6.040000 2.080000 4.080000 -141.428467 -30.124210 20909.480469
6.040000 2.080000 4.120000 -68.483765 -55.300911 7748.216797
6.040000 2.080000 4.160000 -21.094883 -26.966925 1172.209106
6.040000 2.080000 4.200000 -20.918188 7.922297 500.333374
6.040000 2.120000 3.800000 5.578186 35.369091 1282.088867
6.040000 2.120000 3.840000 22.135368 54.389324 3448.173096
6.040000 2.120000 3.880000 11.675728 94.534042 9073.007812
6.040000 2.120000 3.920000 -38.501396 121.988991 16363.670898
6.040000 2.120000 3.960000 -105.126747 104.226173 21914.728516
6.040000 2.120000 4.000000 -145.441040 41.396576 22866.771484
6.040000 2.120000 4.040000 -133.530334 -31.046928 18794.261719
6.040000 2.120000 4.080000 -82.083145 -71.836929 11898.187500
6.040000 2.120000 4.120000 -29.339798 -67.426552 5407.163574
6.040000 2.120000 4.160000 -5.253896 -38.523445 1511.659180
6.040000 2.120000 4.200000 -9.683350 -16.370895 361.773499
6.040000 2.160000 3.800000 -16.962475 22.653225 800.894165
6.040000 2.160000 3.840000 -15.256456 30.469250 1161.134644
6.040000 2.160000 3.880000 -28.030632 40.568298 2431.503174
6.040000 2.160000 3.920000 -52.709068 37.657478 4196.331543
6.040000 2.160000 3.960000 -74.221130 14.515198 5719.467285
6.040000 2.160000 4.000000 -76.972107 -20.879791 6360.670898
6.040000 2.160000 4.040000 -57.288689 -51.246613 5908.208984
6.040000 2.160000 4.080000 -25.536987 -63.067451 4629.641113
6.040000 2.160000 4.120000 2.680666 -55.204773 3054.752930
6.040000 2.160000 4.160000 17.395983 -36.973186 1669.636719
6.040000 2.160000 4.200000 18.436203 -19.648653 725.963135
6.040000 2.200000 3.800000 -21.093206 3.497687 457.157196
6.040000 2.200000 3.840000 -19.283878 -2.149515 376.488373
6.040000 2.200000 3.880000 -15.554615 -6.604504 285.565521
6.040000 2.200000 3.920000 -11.480526 -8.111534 197.599457
6.040000 2.200000 3.960000 -10.342867 -7.899124 169.371063
6.040000 2.200000 4.000000 -12.431969 -10.729416 269.674225
6.040000 2.200000 4.040000 -12.240028 -19.747040 539.763916
6.040000 2.200000 4.080000 -2.725426 -30.679686 948.671021
6.040000 2.200000 4.120000 16.158321 -33.175381 1361.697144
6.040000 2.200000 4.160000 34.034416 -20.333662 1571.799316
6.040000 2.200000 4.200000 37.582329 2.477933 1418.571533
6.080000 1.800000 3.800000 -24.143307 -3.707426 596.644226
6.080000 1.800000 3.840000 -16.112984 -14.856787 480.352356
6.080000 1.800000 3.880000 -0.922335 -16.970001 288.831635
6.080000 1.800000 3.920000 11.460926 -6.579319 174.640259
6.080000 1.800000 3.960000 11.874611 9.584830 232.875351
6.080000 1.800000 4.000000 0.755157 19.981760 399.840973
6.080000 1.800000 4.040000 -12.327971 18.890907 508.845215
6.080000 1.800000 4.080000 -18.327583 11.168186 460.628693
6.080000 1.800000 4.120000 -17.317940 5.978707 335.655975
6.080000 1.800000 4.160000 -16.890728 6.537641 328.037445
6.080000 1.800000 4.200000 -22.411747 7.094395 552.616821
6.080000 1.840000 3.800000 -24.925829 -22.408829 1123.452515
6.080000 1.840000 3.840000 -18.783810 -34.071587 1513.704590
6.080000 1.840000 3.880000 -3.729324 -42.361374 1808.393799
6.080000 1.840000 3.920000 16.185341 -39.338627 1809.492920
6.080000 1.840000 3.960000 30.705170 -23.208319 1481.433472
6.080000 1.840000 4.000000 31.368877 -1.363960 985.866882
6.080000 1.840000 4.040000 18.372299 14.880432 558.968628
6.080000 1.840000 4.080000 -0.099361 18.663603 348.339966
6.080000 1.840000 4.120000 -14.731386 11.378654 346.487518
6.080000 1.840000 4.160000 -21.285877 -0.587196 453.433350
6.080000 1.840000 4.200000 -21.077126 -11.774325 582.879944
6.080000 1.880000 3.800000 -9.420405 -41.685760 1826.446655
6.080000 1.880000 3.840000 -2.083748 -58.557602 3433.334717
6.080000 1.880000 3.880000 23.947372 -72.617783 5846.818848
6.080000 1.880000 3.920000 62.008812 -64.380371 7989.924805
6.080000 1.880000 3.960000 88.740364 -27.767540 8645.888672
6.080000 1.880000 4.000000 83.439331 20.080982 7365.368164
6.080000 1.880000 4.040000 47.421402 50.781212 4827.520508
6.080000 1.880000 4.080000 4.153900 48.012951 2322.498291
6.080000 1.880000 4.120000 -20.266521 20.176411 817.819458
6.080000 1.880000 4.160000 -17.757278 -9.005110 396.412933
6.080000 1.880000 4.200000 -1.131455 -21.808132 476.874817
6.080000 1.920000 3.800000 20.150175 -46.163204 2537.071045
6.080000 1.920000 3.840000 35.962318 -67.091461 5794.552734
6.080000 1.920000 3.880000 79.616135 -73.935516 11805.189453
6.080000 1.920000 3.920000 128.895065 -40.353268 18242.324219
6.080000 1.920000 3.960000 144.260025 28.436146 21619.570312
6.080000 1.920000 4.000000 105.538864 93.136543 19812.867188
6.080000 1.920000 4.040000 33.982677 112.186890 13740.720703
6.080000 1.920000 4.080000 -23.857010 78.203011 6684.867676
6.080000 1.920000 4.120000 -35.893974 23.500420 1840.647217
6.080000 1.920000 4.160000 -9.694658 -10.410467 202.364227
6.080000 1.920000 4.200000 20.056192 -8.820017 480.043549
6.080000 1.960000 3.800000 47.800064 -26.909027 3008.941895
6.080000 1.960000 3.840000 75.685509 -43.354965 7607.949219
6.080000 1.960000 3.880000 128.371216 -27.162344 17216.962891
6.080000 1.960000 3.920000 163.976730 38.972115 28407.193359
6.080000 1.960000 3.960000 140.036057 125.015518 35238.976562
6.080000 1.960000 4.000000 57.610630 173.688873 33486.808594
6.080000 1.960000 4.040000 -33.325325 151.135757 23952.595703
6.080000 1.960000 4.080000 -75.763641 78.607162 11919.214844
6.080000 1.960000 4.120000 -54.882317 13.002716 3181.139160
6.080000 1.960000 4.160000 -6.809328 -4.689416 68.357567
6.080000 1.960000 4.200000 19.925322 17.793844 713.639282
6.080000 2.000000 3.800000 54.596344 8.119190 3046.681885
6.080000 2.000000 3.840000 88.972328 5.424091 7945.496094
6.080000 2.000000 3.880000 130.213577 47.795502 19239.986328
6.080000 2.000000 3.920000 128.346161 128.998413 33113.328125
6.080000 2.000000 3.960000 59.112396 197.013168 42308.460938
6.080000 2.000000 4.000000 -45.028755 197.966339 41218.261719
6.080000 2.000000 4.040000 -118.223480 127.482605 30228.605469
6.080000 2.000000 4.080000 -118.849213 37.182953 15507.708008
6.080000 2.000000 4.120000 -65.052856 -11.657318 4367.767090
6.080000 2.000000 4.160000 -13.545652 -1.694090 186.354630
6.080000 2.000000 4.200000 -4.452343 31.856632 1034.668335
6.080000 2.040000 3.800000 34.762295 37.689362 2628.905029
6.080000 2.040000 3.840000 64.001152 50.236210 6619.824219
6.080000 2.040000 3.880000 77.373856 103.707428 16741.943359
6.080000 2.040000 3.920000 36.639271 168.415405 29706.183594
6.080000 2.040000 3.960000 -52.686642 189.893250 38835.328125
6.080000 2.040000 4.000000 -137.980713 140.143585 38678.902344
6.080000 2.040000 4.040000 -163.943588 47.655239 29148.521484
6.080000 2.040000 4.080000 -122.290985 -25.964142 15629.221680
6.080000 2.040000 4.120000 -57.235435 -40.803440 4940.815918
6.080000 2.040000 4.160000 -21.930342 -10.815628 597.917725
6.080000 2.040000 4.200000 -30.430758 16.832090 1209.350342
6.080000 2.080000 3.800000 1.941931 43.797848 1922.022583
6.080000 2.080000 3.840000 17.413788 63.512047 4337.020020
6.080000 2.080000 3.880000 4.159313 105.601799 11169.040039
6.080000 2.080000 3.920000 -51.743744 132.572510 20252.886719
6.080000 2.080000 3.960000 -123.056618 108.950256 27013.089844
6.080000 2.080000 4.000000 -161.647247 37.832451 27561.126953
6.080000 2.080000 4.040000 -141.747101 -38.085625 21542.755859
6.080000 2.080000 4.080000 -83.346611 -73.694984 12377.608398
6.080000 2.080000 4.120000 -32.369476 -60.432484 4699.868164
6.080000 2.080000 4.160000 -18.192734 -28.998135 1171.867310
6.080000 2.080000 4.200000 -30.994232 -15.522865 1201.601807
6.080000 2.120000 3.800000 -21.569328 26.583590 1171.923218
6.080000 2.120000 3.840000 -19.326847 42.379662 2169.562744
6.080000 2.120000 3.880000 -42.002975 60.418541 5414.650391
6.080000 2.120000 3.920000 -83.192787 54.304005 9869.964844
6.080000 2.120000 3.960000 -114.766258 14.414192 13379.062500
6.080000 2.120000 4.000000 -111.566185 -40.384888 14077.953125
6.080000 2.120000 4.040000 -74.462250 -78.245918 11667.050781
6.080000 2.120000 4.080000 -28.950222 -81.950119 7553.937012
6.080000 2.120000 4.120000 -1.448224 -61.540054 3789.275635
6.080000 2.120000 4.160000 2.522880 -41.091965 1694.914429
6.080000 2.120000 4.200000 -2.206765 -34.959564 1227.041016
6.080000 2.160000 3.800000 -23.561129 3.435097 566.926636
6.080000 2.160000 3.840000 -26.950905 9.340473 813.595703
6.080000 2.160000 3.880000 -40.595276 8.065166 1713.023315
6.080000 2.160000 3.920000 -53.569695 -7.624069 2927.838623
6.080000 2.160000 3.960000 -53.535927 -32.510353 3923.018555
6.080000 2.160000 4.000000 -37.574768 -53.727013 4298.455078
6.080000 2.160000 4.040000 -13.544289 -61.856506 4009.675049
6.080000 2.160000 4.080000 7.977581 -57.102127 3324.294678
6.080000 2.160000 4.120000 21.828548 -45.917282 2584.882324
6.080000 2.160000 4.160000 29.013277 -33.719910 1978.802612
6.080000 2.160000 4.200000 31.733702 -22.023052 1492.042725
6.080000 2.200000 3.800000 -11.226665 -7.346710 180.012146
6.080000 2.200000 3.840000 -12.637035 -10.001265 259.719940
6.080000 2.200000 3.880000 -10.754048 -16.097881 374.791351
6.080000 2.200000 3.920000 -4.291344 -20.196934 426.331757
6.080000 2.200000 3.960000 2.078018 -19.612392 388.964081
6.080000 2.200000 4.000000 4.570908 -18.228813 353.182831
6.080000 2.200000 4.040000 6.422962 -21.071278 485.253204
6.080000 2.200000 4.080000 14.597950 -26.059868 892.216858
6.080000 2.200000 4.120000 29.969704 -24.059708 1477.052734
6.080000 2.200000 4.160000 42.947952 -8.974940 1925.076172
6.080000 2.200000 4.200000 41.623093 12.968594 1900.666260
6.120000 1.800000 3.800000 -34.624237 -12.403740 1352.690552
6.120000 1.800000 3.840000 -21.053261 -26.874960 1165.503296
6.120000 1.800000 3.880000 0.530087 -26.613525 708.560730
6.120000 1.800000 3.920000 14.626141 -9.930696 312.542725
6.120000 1.800000 3.960000 10.810772 10.606255 229.365417
6.120000 1.800000 4.000000 -6.100390 19.364510 412.198975
6.120000 1.800000 4.040000 -20.938314 12.188084 586.962402
6.120000 1.800000 4.080000 -23.155720 -0.815014 536.851624
6.120000 1.800000 4.120000 -16.210854 -6.874548 310.051178
6.120000 1.800000 4.160000 -11.842497 -3.818022 154.822037
6.120000 1.800000 4.200000 -16.177902 -0.894426 262.524506
6.120000 1.840000 3.800000 -20.128881 -37.818573 1835.416382
6.120000 1.840000 3.840000 -1.141790 -45.357239 2058.582764
6.120000 1.840000 3.880000 20.862602 -38.240807 1897.607422
6.120000 1.840000 3.920000 33.206070 -17.539608 1410.280884
6.120000 1.840000 3.960000 28.468872 5.345894 839.055237
6.120000 1.840000 4.000000 11.071013 17.506054 429.029236
6.120000 1.840000 4.040000 -6.802822 14.780375 264.737854
6.120000 1.840000 4.080000 -15.740967 3.576196 260.567200
6.120000 1.840000 4.120000 -15.603018 -6.740364 288.886658
6.120000 1.840000 4.160000 -12.390659 -12.396992 307.213867
6.120000 1.840000 4.200000 -10.166703 -16.240040 367.100739
6.120000 1.880000 3.800000 13.370146 -46.635368 2353.618408
6.120000 1.880000 3.840000 32.541466 -45.795654 3156.188965
6.120000 1.880000 3.880000 52.869526 -32.228394 3833.855957
6.120000 1.880000 3.920000 62.986019 -5.484119 3997.314209
6.120000 1.880000 3.960000 53.731724 24.001875 3463.188232
6.120000 1.880000 4.000000 27.519211 40.796146 2421.632568
6.120000 1.880000 4.040000 -1.566059 36.343487 1323.301514
6.120000 1.880000 4.080000 -17.977810 15.928858 576.930176
6.120000 1.880000 4.120000 -16.253782 -5.962302 299.734467
6.120000 1.880000 4.160000 -3.495879 -17.464943 317.245392
6.120000 1.880000 4.200000 8.679198 -17.403931 378.225281
6.120000 1.920000 3.800000 46.522491 -26.760530 2880.468262
6.120000 1.920000 3.840000 61.506752 -19.684082 4170.543457
6.120000 1.920000 3.880000 77.851913 0.274393 6060.995605
6.120000 1.920000 3.920000 80.659309 34.669193 7707.877441
6.120000 1.920000 3.960000 57.936939 68.582909 8060.304199
6.120000 1.920000 4.000000 15.743538 80.235649 6685.618164
6.120000 1.920000 4.040000 -22.644949 60.569485 4181.456055
6.120000 1.920000 4.080000 -35.075020 23.271187 1771.805176
6.120000 1.920000 4.120000 -19.349277 -5.973562 410.077972
6.120000 1.920000 4.160000 5.991270 -11.364034 165.036591
6.120000 1.920000 4.200000 19.674816 1.087293 388.280609
6.120000 1.960000 3.800000 55.820518 13.061089 3286.522217
6.120000 1.960000 3.840000 64.998154 22.620293 4736.437500
6.120000 1.960000 3.880000 73.757294 47.702362 7715.653320
6.120000 1.960000 3.920000 62.046700 85.180405 11105.494141
6.120000 1.960000 3.960000 20.969557 111.526840 12877.958984
6.120000 1.960000 4.000000 -32.061874 103.015053 11640.065430
6.120000 1.960000 4.040000 -64.576576 60.559528 7837.590820
6.120000 1.960000 4.080000 -57.817715 12.492404 3498.948242
6.120000 1.960000 4.120000 -24.312860 -9.741602 686.013977
6.120000 1.960000 4.160000 4.296681 0.573383 18.790239
6.120000 1.960000 4.200000 7.280309 21.899725 532.600830
6.120000 2.000000 3.800000 33.358490 47.470509 3366.238037
6.120000 2.000000 3.840000 37.612762 56.488827 4605.707520
6.120000 2.000000 3.880000 35.584244 82.253029 8031.798828
6.120000 2.000000 3.920000 7.474832 111.647049 12520.936523
6.120000 2.000000 3.960000 -44.186489 116.250900 15466.716797
6.120000 2.000000 4.000000 -90.063576 81.316704 14723.853516
6.120000 2.000000 4.040000 -99.029480 24.690033 10416.435547
6.120000 2.000000 4.080000 -68.358025 -16.448835 4943.383301
6.120000 2.000000 4.120000 -27.270317 -19.412409 1120.511719
6.120000 2.000000 4.160000 -9.022940 3.902028 96.639259
6.120000 2.000000 4.200000 -19.847504 21.253361 845.628784
6.120000 2.040000 3.800000 -5.202299 54.263706 2971.613770
6.120000 2.040000 3.840000 -4.177735 61.542187 3804.894043
6.120000 2.040000 3.880000 -16.495714 81.188156 6863.625000
6.120000 2.040000 3.920000 -52.789730 91.922340 11236.472656
6.120000 2.040000 3.960000 -96.944344 70.997269 14438.818359
6.120000 2.040000 4.000000 -117.536469 20.646420 14241.095703
6.120000 2.040000 4.040000 -98.191666 -29.376167 10504.562500
6.120000 2.040000 4.080000 -55.180065 -48.217941 5369.809570
6.120000 2.040000 4.120000 -22.631992 -32.850685 1591.374512
6.120000 2.040000 4.160000 -19.895336 -9.348078 483.210968
6.120000 2.040000 4.200000 -34.739349 -5.216163 1234.030762
6.120000 2.080000 3.800000 -32.976967 32.652794 2153.685303
6.120000 2.080000 3.840000 -34.280994 38.145348 2630.253906
6.120000 2.080000 3.880000 -51.401226 46.349648 4790.375977
6.120000 2.080000 3.920000 -81.363892 37.149132 8000.141113
6.120000 2.080000 3.960000 -102.331848 2.561607 10478.369141
6.120000 2.080000 4.000000 -94.227127 -41.353134 10588.833984
6.120000 2.080000 4.040000 -59.851124 -67.582565 8149.560547
6.120000 2.080000 4.080000 -23.526501 -63.657616 4605.788086
6.120000 2.080000 4.120000 -7.898760 -42.956001 1907.608398
6.120000 2.080000 4.160000 -12.938851 -29.914759 1062.306641
6.120000 2.080000 4.200000 -18.892765 -35.005493 1582.321045
6.120000 2.120000 3.800000 -34.208897 3.113815 1179.944458
6.120000 2.120000 3.840000 -37.919064 6.350580 1478.185181
6.120000 2.120000 3.880000 -51.926086 2.833952 2704.349609
6.120000 2.120000 3.920000 -64.588959 -16.385849 4440.229492
6.120000 2.120000 3.960000 -61.003464 -45.021099 5748.322266
6.120000 2.120000 4.000000 -38.484928 -66.092216 5849.270996
6.120000 2.120000 4.040000 -9.987288 -67.975037 4720.351562
6.120000 2.120000 4.080000 8.379677 -55.078781 3103.891113
6.120000 2.120000 4.120000 12.433752 -42.053047 1923.056885
6.120000 2.120000 4.160000 11.798505 -38.259960 1603.029297
6.120000 2.120000 4.200000 17.502365 -39.314430 1851.957153
6.120000 2.160000 3.800000 -16.363579 -11.316679 395.833954
6.120000 2.160000 3.840000 -22.094940 -12.114040 634.936340
6.120000 2.160000 3.880000 -27.096388 -22.446779 1238.072144
6.120000 2.160000 3.920000 -22.298841 -37.578720 1909.398438
6.120000 2.160000 3.960000 -7.357300 -47.186115 2280.659424
6.120000 2.160000 4.000000 9.290718 -45.946926 2197.437500
6.120000 2.160000 4.040000 19.642595 -38.166229 1842.492554
6.120000 2.160000 4.080000 23.973127 -31.664173 1577.330688
6.120000 2.160000 4.120000 28.583368 -28.497360 1629.108521
6.120000 2.160000 4.160000 36.735016 -23.409222 1897.453125
6.120000 2.160000 4.200000 43.796314 -11.498257 2050.327148
6.120000 2.200000 3.800000 -1.032076 -5.003350 26.098694
6.120000 2.200000 3.840000 -6.225868 -11.798864 177.974640
6.120000 2.200000 3.880000 -1.053049 -22.034256 486.617340
6.120000 2.200000 3.920000 11.958931 -24.376949 737.251709
6.120000 2.200000 3.960000 21.665522 -16.451157 740.035400
6.120000 2.200000 4.000000 21.586132 -7.294518 519.171082
6.120000 2.200000 4.040000 17.613605 -6.149439 348.054688
6.120000 2.200000 4.080000 20.678150 -10.708155 542.250488
6.120000 2.200000 4.120000 32.707996 -9.178125 1154.051025
6.120000 2.200000 4.160000 42.626019 5.547499 1847.752197
6.120000 2.200000 4.200000 38.049557 25.965950 2121.999268
6.160000 1.800000 3.800000 -34.379086 -28.209988 1977.724854
6.160000 1.800000 3.840000 -13.622831 -39.632343 1756.304199
6.160000 1.800000 3.880000 10.371865 -31.437386 1095.884766
6.160000 1.800000 3.920000 19.759434 -8.203959 457.740173
6.160000 1.800000 3.960000 8.376514 12.053800 215.460083
6.160000 1.800000 4.000000 -12.071016 14.410379 353.368469
6.160000 1.800000 4.040000 -23.383532 0.740541 547.337952
6.160000 1.800000 4.080000 -18.289963 -13.389678 513.806213
6.160000 1.800000 4.120000 -6.034177 -15.126592 265.225067
6.160000 1.800000 4.160000 -0.993846 -6.623779 44.862183
6.160000 1.800000 4.200000 -7.100970 -0.833454 51.118423
6.160000 1.840000 3.800000 -4.601521 -45.477230 2089.352539
6.160000 1.840000 3.840000 18.446222 -40.544029 1984.081543
6.160000 1.840000 3.880000 32.713921 -19.597065 1454.245483
6.160000 1.840000 3.920000 27.991283 5.249062 811.064636
6.160000 1.840000 3.960000 8.056868 18.001930 388.982605
6.160000 1.840000 4.000000 -12.107608 12.313109 298.206818
6.160000 1.840000 4.040000 -19.361023 -3.768921 389.053986
6.160000 1.840000 4.080000 -13.015208 -16.273300 434.215942
6.160000 1.840000 4.120000 -3.058723 -18.215816 341.171753
6.160000 1.840000 4.160000 1.252553 -14.103285 200.471542
6.160000 1.840000 4.200000 0.116073 -12.610260 159.032135
6.160000 1.880000 3.800000 32.448719 -33.403625 2168.721680
6.160000 1.880000 3.840000 44.166809 -14.990930 2175.435059
6.160000 1.880000 3.880000 42.097126 8.002288 1836.204590
6.160000 1.880000 3.920000 26.009735 24.593292 1281.336426
6.160000 1.880000 3.960000 4.121402 26.718452 730.861633
6.160000 1.880000 4.000000 -12.023364 14.935480 367.629852
6.160000 1.880000 4.040000 -15.389299 -2.170138 241.540039
6.160000 1.880000 4.080000 -7.621764 -14.543724 269.611206
6.160000 1.880000 4.120000 3.640326 -17.611946 323.432617
6.160000 1.880000 4.160000 11.484306 -13.964149 326.886780
6.160000 1.880000 4.200000 14.423018 -9.173440 292.175446
6.160000 1.920000 3.800000 49.526669 5.134905 2479.258057
6.160000 1.920000 3.840000 43.358540 24.247965 2467.926758
6.160000 1.920000 3.880000 28.608734 37.391460 2216.581055
6.160000 1.920000 3.920000 9.580451 41.173462 1787.038940
6.160000 1.920000 3.960000 -8.232365 34.420830 1252.565430
6.160000 1.920000 4.000000 -18.745409 19.163925 718.646362
6.160000 1.920000 4.040000 -17.747093 1.542194 317.337677
6.160000 1.920000 4.080000 -6.373204 -10.164935 143.943634
6.160000 1.920000 4.120000 8.192219 -10.707489 181.762772
6.160000 1.920000 4.160000 17.153263 -2.097428 298.633636
6.160000 1.920000 4.200000 16.816854 7.761404 343.045959
6.160000 1.960000 3.800000 31.680817 44.945946 3023.812256
6.160000 1.960000 3.840000 13.408360 51.790737 2862.064697
6.160000 1.960000 3.880000 -3.328627 50.333626 2544.553711
6.160000 1.960000 3.920000 -17.253922 43.751095 2211.856201
6.160000 1.960000 3.960000 -28.053127 32.137421 1819.791748
6.160000 1.960000 4.000000 -32.181282 15.556010 1277.624390
6.160000 1.960000 4.040000 -25.445911 -0.888314 648.283508
6.160000 1.960000 4.080000 -9.815089 -8.332127 165.760315
6.160000 1.960000 4.120000 4.807703 -2.365788 28.710962
6.160000 1.960000 4.160000 8.239976 10.879086 186.251709
6.160000 1.960000 4.200000 0.059750 19.056997 363.172729
6.160000 2.000000 3.800000 -9.418736 58.005333 3453.331299
6.160000 2.000000 3.840000 -26.790878 49.334534 3151.647461
6.160000 2.000000 3.880000 -36.161453 37.745564 2732.378418
6.160000 2.000000 3.920000 -41.710609 26.749197 2455.294434
6.160000 2.000000 3.960000 -45.065147 13.889872 2223.796143
6.160000 2.000000 4.000000 -42.077385 -1.458593 1772.633789
6.160000 2.000000 4.040000 -29.629145 -12.922282 1044.871582
6.160000 2.000000 4.080000 -13.296112 -12.561525 334.578491
6.160000 2.000000 4.120000 -4.715328 -1.180680 23.628326
6.160000 2.000000 4.160000 -9.782036 9.649887 188.808548
6.160000 2.000000 4.200000 -20.921120 8.332941 507.131134
6.160000 2.040000 3.800000 -44.133884 37.043102 3319.991211
6.160000 2.040000 3.840000 -51.302788 20.517897 3052.960205
6.160000 2.040000 3.880000 -51.296070 7.081074 2681.428467
6.160000 2.040000 3.920000 -49.600410 -3.623713 2473.332031
6.160000 2.040000 3.960000 -45.857574 -14.928082 2325.764893
6.160000 2.040000 4.000000 -36.222450 -25.185741 1946.387451
6.160000 2.040000 4.040000 -21.718018 -27.912544 1250.782471
6.160000 2.040000 4.080000 -10.747853 -20.497169 535.650330
6.160000 2.040000 4.120000 -10.907145 -10.245569 223.937500
6.160000 2.040000 4.160000 -19.138447 -8.620458 440.592438
6.160000 2.040000 4.200000 -22.806864 -18.611397 866.537109
6.160000 2.080000 3.800000 -49.758865 1.416751 2477.951660
6.160000 2.080000 3.840000 -47.783401 -12.689966 2444.288574
6.160000 2.080000 3.880000 -42.514439 -23.158714 2343.803711
6.160000 2.080000 3.920000 -35.654915 -31.786613 2281.661621
6.160000 2.080000 3.960000 -25.658871 -38.510735 2141.454346
6.160000 2.080000 4.000000 -12.926332 -39.803879 1751.438843
6.160000 2.080000 4.040000 -2.755666 -33.753769 1146.910645
6.160000 2.080000 4.080000 -0.769319 -25.088917 630.045593
6.160000 2.080000 4.120000 -5.430611 -22.358879 529.411011
6.160000 2.080000 4.160000 -7.434133 -28.777193 883.393188
6.160000 2.080000 4.200000 1.410023 -36.942886 1366.765015
6.160000 2.120000 3.800000 -29.103306 -20.553349 1269.442505
6.160000 2.120000 3.840000 -25.908306 -28.929668 1508.166016
6.160000 2.120000 3.880000 -19.385368 -37.410007 1775.301147
6.160000 2.120000 3.920000 -8.104475 -43.187504 1930.843018
6.160000 2.120000 3.960000 5.437051 -42.049419 1797.715210
6.160000 2.120000 4.000000 14.876053 -33.638245 1352.828491
6.160000 2.120000 4.040000 15.736256 -23.990696 823.183228
6.160000 2.120000 4.080000 11.075445 -20.904541 559.665344
6.160000 2.120000 4.120000 9.884020 -25.845995 765.709290
6.160000 2.120000 4.160000 18.421923 -31.193573 1312.406250
6.160000 2.120000 4.200000 33.036842 -26.880383 1813.988037
6.160000 2.160000 3.800000 -5.708027 -16.437542 302.774353
6.160000 2.160000 3.840000 -6.482258 -24.384563 636.626587
6.160000 2.160000 3.880000 1.841591 -33.610928 1133.085938
6.160000 2.160000 3.920000 17.089445 -34.496319 1482.045166
6.160000 2.160000 3.960000 28.914562 -24.070786 1415.454590
6.160000 2.160000 4.000000 29.218315 -10.369337 961.233093
6.160000 2.160000 4.040000 21.241692 -4.737713 473.655396
6.160000 2.160000 4.080000 16.790024 -9.725904 376.498108
6.160000 2.160000 4.120000 23.805447 -15.822820 817.060913
6.160000 2.160000 4.160000 37.467472 -11.159042 1528.335693
6.160000 2.160000 4.200000 44.625214 5.868323 2025.846924
6.160000 2.200000 3.800000 -0.850689 1.348871 2.543125
6.160000 2.200000 3.840000 -2.199316 -12.678245 165.574875
6.160000 2.200000 3.880000 11.348314 -21.752138 601.939758
6.160000 2.200000 3.920000 27.870274 -15.037170 1002.868652
6.160000 2.200000 3.960000 32.174477 1.894114 1038.784546
6.160000 2.200000 4.000000 22.330341 13.095285 670.130615
6.160000 2.200000 4.040000 11.633928 9.911253 233.581207
6.160000 2.200000 4.080000 13.510117 0.578920 182.858398
6.160000 2.200000 4.120000 26.210423 0.863964 687.732727
6.160000 2.200000 4.160000 34.483810 16.133127 1449.411011
6.160000 2.200000 4.200000 26.447470 34.966919 1922.154053
6.200000 1.800000 3.800000 -22.675716 -39.720558 2091.910889
6.200000 1.800000 3.840000 0.600535 -43.392048 1883.230469
6.200000 1.800000 3.880000 20.159538 -27.937090 1186.887939
6.200000 1.800000 3.920000 21.423264 -3.743960 472.973450
6.200000 1.800000 3.960000 5.033921 10.788115 141.723785
6.200000 1.800000 4.000000 -13.256384 6.227197 214.509705
6.200000 1.800000 4.040000 -17.574011 -9.338350 396.050659
6.200000 1.800000 4.080000 -6.757475 -18.974497 405.695007
6.200000 1.800000 4.120000 5.870492 -13.877407 227.045105
6.200000 1.800000 4.160000 7.098842 -1.146612 51.708271
6.200000 1.800000 4.200000 -2.785266 5.028142 33.039925
6.200000 1.840000 3.800000 10.718737 -40.703094 1771.633301
6.200000 1.840000 3.840000 26.872185 -26.268362 1412.141113
6.200000 1.840000 3.880000 27.582649 -3.781769 775.104309
6.200000 1.840000 3.920000 11.757008 11.386334 267.875854
6.200000 1.840000 3.960000 -8.483316 9.090725 154.607941
6.200000 1.840000 4.000000 -17.939251 -6.714539 366.901733
6.200000 1.840000 4.040000 -11.375411 -21.833094 606.083984
6.200000 1.840000 4.080000 2.907899 -24.805496 623.768494
6.200000 1.840000 4.120000 12.032400 -16.393610 413.529114
6.200000 1.840000 4.160000 10.720108 -6.828886 161.554398
6.200000 1.840000 4.200000 4.709278 -4.524431 42.647778
6.200000 1.880000 3.800000 35.183270 -13.081888 1408.998291
6.200000 1.880000 3.840000 30.583164 7.642048 993.730835
6.200000 1.880000 3.880000 12.365888 18.865557 508.824402
6.200000 1.880000 3.920000 -7.618889 13.478442 239.715881
6.200000 1.880000 3.960000 -16.547976 -3.803431 288.301575
6.200000 1.880000 4.000000 -10.236391 -20.572395 528.007141
6.200000 1.880000 4.040000 4.748371 -26.598900 730.048462
6.200000 1.880000 4.080000 17.546848 -20.841793 742.272217
6.200000 1.880000 4.120000 21.759211 -10.228065 578.076599
6.200000 1.880000 4.160000 18.939886 -2.432916 364.638367
6.200000 1.880000 4.200000 14.894874 0.208021 221.900528
6.200000 1.920000 3.800000 29.314472 25.949722 1532.726318
6.200000 1.920000 3.840000 5.240270 33.755432 1166.889648
6.200000 1.920000 3.880000 -16.743530 21.915142 760.619263
6.200000 1.920000 3.920000 -23.166576 -0.846753 537.407227
6.200000 1.920000 3.960000 -12.467279 -19.665289 542.156677
6.200000 1.920000 4.000000 5.974410 -24.986507 660.019104
6.200000 1.920000 4.040000 20.723181 -17.679382 742.010742
6.200000 1.920000 4.080000 26.212063 -5.266361 714.806824
6.200000 1.920000 4.120000 23.920357 5.192239 599.142822
6.200000 1.920000 4.160000 18.285242 11.004560 455.450378
6.200000 1.920000 4.200000 12.677642 12.922230 327.706635
6.200000 1.960000 3.800000 -5.444438 47.323769 2269.180908
6.200000 1.960000 3.840000 -32.527370 31.277512 2036.312500
6.200000 1.960000 3.880000 -39.450306 1.128895 1557.601074
6.200000 1.960000 3.920000 -23.808748 -23.182369 1104.278809
6.200000 1.960000 3.960000 1.368733 -28.734800 827.562134
6.200000 1.960000 4.000000 20.193104 -17.401476 710.572815
6.200000 1.960000 4.040000 25.593819 -0.327318 655.150696
6.200000 1.960000 4.080000 20.633680 12.787373 589.265686
6.200000 1.960000 4.120000 11.853736 18.976414 500.615356
6.200000 1.960000 4.160000 3.489968 19.673912 399.242676
6.200000 1.960000 4.200000 -2.703722 16.650661 284.554657
6.200000 2.000000 3.800000 -43.965054 34.710777 3137.763916
6.200000 2.000000 3.840000 -55.670624 1.184821 3100.622070
6.200000 2.000000 3.880000 -39.972725 -30.078949 2502.562012
6.200000 2.000000 3.920000 -9.004777 -40.225140 1699.147949
6.200000 2.000000 3.960000 16.801199 -27.422684 1034.283936
6.200000 2.000000 4.000000 25.093708 -4.613074 650.974609
6.200000 2.000000 4.040000 17.662291 13.521748 494.794189
6.200000 2.000000 4.080000 4.036593 20.621323 441.533051
6.200000 2.000000 4.120000 -7.798713 18.508995 403.402802
6.200000 2.000000 4.160000 -14.583871 11.410882 342.897522
6.200000 2.000000 4.200000 -15.413016 2.765042 245.206528
6.200000 2.040000 3.800000 -58.310791 -0.909659 3400.975830
6.200000 2.040000 3.840000 -49.114799 -34.472076 3600.587402
6.200000 2.040000 3.880000 -19.133083 -51.714630 3040.478027
6.200000 2.040000 3.920000 12.275728 -43.707253 2061.017578
6.200000 2.040000 3.960000 27.472698 -19.187515 1122.909912
6.200000 2.040000 4.000000 22.378839 4.875322 524.581238
6.200000 2.040000 4.040000 5.572932 16.400434 300.031830
6.200000 2.040000 4.080000 -10.998489 13.790179 311.135803
6.200000 2.040000 4.120000 -19.695349 2.620973 394.776276
6.200000 2.040000 4.160000 -18.546492 -9.962698 443.227692
6.200000 2.040000 4.200000 -9.385588 -17.931408 409.624664
6.200000 2.080000 3.800000 -41.653419 -31.022871 2697.425781
6.200000 2.080000 3.840000 -21.481258 -51.589630 3122.934570
6.200000 2.080000 3.880000 7.870797 -52.937561 2864.334717
6.200000 2.080000 3.920000 29.505421 -34.753151 2078.351318
6.200000 2.080000 3.960000 32.619205 -9.070576 1146.287964
6.200000 2.080000 4.000000 18.824556 9.129065 437.703735
6.200000 2.080000 4.040000 -0.855590 11.565800 134.499756
6.200000 2.080000 4.080000 -14.099427 0.174764 198.824402
6.200000 2.080000 4.120000 -14.173779 -15.940233 454.987030
6.200000 2.080000 4.160000 -2.379165 -26.395950 702.406616
6.200000 2.080000 4.200000 13.626500 -24.837284 802.572205
6.200000 2.120000 3.800000 -12.912739 -34.987679 1390.876465
6.200000 2.120000 3.840000 4.252168 -43.801388 1936.642456
6.200000 2.120000 3.880000 25.036711 -38.653034 2120.894043
6.200000 2.120000 3.920000 37.563236 -20.315964 1823.735107
6.200000 2.120000 3.960000 34.171101 1.113666 1168.904297
6.200000 2.120000 4.000000 17.603008 12.686512 470.813477
6.200000 2.120000 4.040000 -0.166509 7.925307 62.838223
6.200000 2.120000 4.080000 -6.317811 -8.059968 104.877808
6.200000 2.120000 4.120000 3.341997 -22.088089 499.052612
6.200000 2.120000 4.160000 21.266132 -22.696892 967.397339
6.200000 2.120000 4.200000 34.040916 -8.593412 1232.630615
6.200000 2.160000 3.800000 1.998674 -17.220390 300.536530
6.200000 2.160000 3.840000 11.653327 -25.184139 770.040894
6.200000 2.160000 3.880000 27.549316 -22.442524 1262.631714
6.200000 2.160000 3.920000 37.497894 -6.797231 1452.294434
6.200000 2.160000 3.960000 32.173641 11.745599 1173.102295
6.200000 2.160000 4.000000 15.142736 18.902449 586.604980
6.200000 2.160000 4.040000 1.043467 9.650068 94.212639
6.200000 2.160000 4.080000 2.428991 -6.148389 43.702690
6.200000 2.160000 4.120000 17.772415 -12.344690 468.250122
6.200000 2.160000 4.160000 32.675720 -1.463446 1069.844360
6.200000 2.160000 4.200000 33.245392 18.648041 1453.005493
6.200000 2.200000 3.800000 -6.003290 -0.401830 36.200962
6.200000 2.200000 3.840000 3.529422 -14.769994 230.609528
6.200000 2.200000 3.880000 22.337864 -13.961174 693.894531
6.200000 2.200000 3.920000 32.715591 3.049547 1079.609619
6.200000 2.200000 3.960000 24.830948 21.148731 1063.844849
6.200000 2.200000 4.000000 7.070488 24.328377 641.861755
6.200000 2.200000 4.040000 -2.643018 12.218438 156.275787
6.200000 2.200000 4.080000 4.427687 0.232519 19.658480
6.200000 2.200000 4.120000 18.939062 3.142399 368.562744
6.200000 2.200000 4.160000 23.731480 19.752922 953.361023
6.200000 2.200000 4.200000 11.772983 34.806099 1350.067627
