#kx 	ky 	kz 	real 	imag 	intensity
6.800000 0.800000 -5.200000 -23.518854 6.104133 590.396912
6.800000 0.800000 -5.160000 -13.180862 -10.129237 276.336578
6.800000 0.800000 -5.120000 2.444141 -6.410274 47.065434
6.800000 0.800000 -5.080000 1.739202 9.255099 88.681686
6.800000 0.800000 -5.040000 -16.659340 13.673869 464.508301
6.800000 0.800000 -5.000000 -31.592827 -4.178164 1015.563721
6.800000 0.800000 -4.960000 -23.378754 -29.296865 1404.872437
6.800000 0.800000 -4.920000 3.022606 -36.539780 1344.291626
6.800000 0.800000 -4.880000 22.324474 -18.782841 851.177246
6.800000 0.800000 -4.840000 16.411854 4.489699 289.506348
6.800000 0.800000 -4.800000 -5.601141 8.240939 99.285858
6.800000 0.840000 -5.200000 -18.714901 -15.305085 584.493164
6.800000 0.840000 -5.160000 -0.756394 -23.878963 570.777039
6.800000 0.840000 -5.120000 13.209085 -14.563369 386.571655
6.800000 0.840000 -5.080000 10.795454 -1.362701 118.398781
6.800000 0.840000 -5.040000 -0.955231 -0.635691 1.316569
6.800000 0.840000 -5.000000 -4.931032 -12.665908 184.740295
6.800000 0.840000 -4.960000 5.774332 -22.276207 529.572327
6.800000 0.840000 -4.920000 20.102062 -17.220211 700.628540
6.800000 0.840000 -4.880000 22.373859 -2.746391 508.132263
6.800000 0.840000 -4.840000 11.019289 4.526436 141.913345
6.800000 0.840000 -4.800000 0.801962 -3.764210 14.812418
6.800000 0.880000 -5.200000 -2.384471 -24.117594 587.344055
6.800000 0.880000 -5.160000 16.810129 -23.702351 844.381897
6.800000 0.880000 -5.120000 27.870346 -10.602589 889.171021
6.800000 0.880000 -5.080000 25.818981 2.925694 675.179504
6.800000 0.880000 -5.040000 17.681555 7.818010 373.758667
6.800000 0.880000 -5.000000 12.753813 5.686560 194.996704
6.800000 0.880000 -4.960000 12.793276 3.700644 177.362671
6.800000 0.880000 -4.920000 12.841109 4.652850 186.543106
6.800000 0.880000 -4.880000 10.048568 4.513167 121.342392
6.800000 0.880000 -4.840000 8.557900 -0.285910 73.319405
6.800000 0.880000 -4.800000 14.002382 -5.877846 230.615784
6.800000 0.920000 -5.200000 11.249392 -18.619108 473.220032
6.800000 0.920000 -5.160000 27.539865 -11.487076 890.397095
6.800000 0.920000 -5.120000 34.820103 4.764481 1235.139893
6.800000 0.920000 -5.080000 30.029604 20.992603 1342.466553
6.800000 0.920000 -5.040000 17.201534 29.721390 1179.253784
6.800000 0.920000 -5.000000 3.193048 28.648849 830.952148
6.800000 0.920000 -4.960000 -6.220786 19.808340 431.068512
6.800000 0.920000 -4.920000 -7.636624 7.541647 115.194473
6.800000 0.920000 -4.880000 -0.369349 -2.521380 6.493776
6.800000 0.920000 -4.840000 12.455766 -4.732121 177.539078
6.800000 0.920000 -4.800000 23.759617 3.408663 576.138367
6.800000 0.960000 -5.200000 14.274218 -7.956632 267.061279
6.800000 0.960000 -5.160000 25.898285 3.411127 682.356995
6.800000 0.960000 -5.120000 26.991480 21.546940 1192.810547
6.800000 0.960000 -5.080000 14.888077 36.974747 1588.786621
6.800000 0.960000 -5.040000 -5.345009 40.608795 1677.643311
6.800000 0.960000 -5.000000 -23.152397 29.388317 1399.706665
6.800000 0.960000 -4.960000 -28.355614 8.876501 882.833130
6.800000 0.960000 -4.920000 -17.637882 -9.207027 395.864227
6.800000 0.960000 -4.880000 2.566852 -13.948241 201.142166
6.800000 0.960000 -4.840000 19.551546 -2.587749 388.959412
6.800000 0.960000 -4.800000 22.673235 17.186752 809.460022
6.800000 1.000000 -5.200000 9.333222 -1.399031 89.066330
6.800000 1.000000 -5.160000 14.771873 12.028142 362.884399
6.800000 1.000000 -5.120000 7.683473 27.440289 812.005188
6.800000 1.000000 -5.080000 -10.443895 33.982433 1263.880737
6.800000 1.000000 -5.040000 -29.651428 25.037170 1506.067139
6.800000 1.000000 -5.000000 -37.481384 3.875906 1419.876831
6.800000 1.000000 -4.960000 -27.724108 -17.327156 1068.856445
6.800000 1.000000 -4.920000 -5.556286 -25.276606 669.779114
6.800000 1.000000 -4.880000 15.304681 -14.921376 456.880737
6.800000 1.000000 -4.840000 21.974165 6.754561 528.488037
6.800000 1.000000 -4.800000 11.316312 25.708584 788.990173
6.800000 1.040000 -5.200000 3.224934 -0.864401 11.147388
6.800000 1.040000 -5.160000 1.154655 10.839398 118.825783
6.800000 1.040000 -5.120000 -11.348116 16.760878 409.706787
6.800000 1.040000 -5.080000 -25.858538 9.888062 766.437744
6.800000 1.040000 -5.040000 -31.141884 -7.399843 1024.574585
6.800000 1.040000 -5.000000 -21.725397 -24.566959 1075.528442
6.800000 1.040000 -4.960000 -2.153903 -30.389557 928.164429
6.800000 1.040000 -4.920000 16.117176 -20.849560 694.467529
6.800000 1.040000 -4.880000 22.587851 -1.616583 512.824341
6.800000 1.040000 -4.840000 14.340254 16.172672 467.198212
6.800000 1.040000 -4.800000 -2.931443 23.278591 550.486206
6.800000 1.080000 -5.200000 -0.959921 -3.097765 10.517599
6.800000 1.080000 -5.160000 -8.838515 1.305660 79.824104
6.800000 1.080000 -5.120000 -17.957874 -5.494518 352.674988
6.800000 1.080000 -5.080000 -17.489052 -19.782232 697.203613
6.800000 1.080000 -5.040000 -4.582489 -30.270912 937.327332
6.800000 1.080000 -5.000000 13.152093 -28.184628 967.350769
6.800000 1.080000 -4.960000 24.521494 -14.376282 807.981140
6.800000 1.080000 -4.920000 23.725887 2.536653 569.352356
6.800000 1.080000 -4.880000 13.289156 13.807070 367.236847
6.800000 1.080000 -4.840000 -0.134723 16.174088 261.619263
6.800000 1.080000 -4.800000 -11.341072 11.354799 257.551392
6.800000 1.120000 -5.200000 -4.505350 -6.283717 59.783279
6.800000 1.120000 -5.160000 -11.644805 -12.905547 302.154633
6.800000 1.120000 -5.120000 -7.626158 -27.222748 799.236267
6.800000 1.120000 -5.080000 10.507147 -34.627750 1309.481201
6.800000 1.120000 -5.040000 30.891315 -24.608700 1559.861572
6.800000 1.120000 -5.000000 37.787109 -1.819499 1431.176147
6.800000 1.120000 -4.960000 26.490618 18.091434 1029.052734
6.800000 1.120000 -4.920000 6.852813 23.152956 583.020447
6.800000 1.120000 -4.880000 -7.289904 14.810553 272.495178
6.800000 1.120000 -4.840000 -10.808508 3.564033 129.526184
6.800000 1.120000 -4.800000 -9.026511 -3.168045 91.514412
6.800000 1.160000 -5.200000 -7.839682 -12.182734 209.879608
6.800000 1.160000 -5.160000 -5.746546 -27.304190 778.541565
6.800000 1.160000 -5.120000 14.254683 -37.261063 1591.582764
6.800000 1.160000 -5.080000 40.028915 -25.831524 2269.581787
6.800000 1.160000 -5.040000 49.558670 4.575883 2477.000488
6.800000 1.160000 -5.000000 32.579041 32.891506 2143.245117
6.800000 1.160000 -4.960000 1.355866 38.632835 1494.334351
6.800000 1.160000 -4.920000 -20.838940 20.814001 867.484070
6.800000 1.160000 -4.880000 -21.422747 -2.828636 466.935272
6.800000 1.160000 -4.840000 -7.996975 -14.420952 271.915466
6.800000 1.160000 -4.800000 2.858680 -12.180984 156.548431
6.800000 1.200000 -5.200000 -7.560237 -21.785118 531.748535
6.800000 1.200000 -5.160000 8.051802 -36.700821 1411.781860
6.800000 1.200000 -5.120000 36.713284 -31.860708 2362.969971
6.800000 1.200000 -5.080000 54.259109 -1.632061 2946.714600
6.800000 1.200000 -5.040000 41.577515 34.694843 2932.421875
6.800000 1.200000 -5.000000 4.855742 49.038696 2428.371826
6.800000 1.200000 -4.960000 -28.526695 30.847736 1765.355225
6.800000 1.200000 -4.920000 -35.029602 -3.237832 1237.556519
6.800000 1.200000 -4.880000 -15.592933 -25.996376 918.951172
6.800000 1.200000 -4.840000 8.425048 -24.913637 691.670776
6.800000 1.200000 -4.800000 18.052418 -10.500711 436.154724
6.840000 0.800000 -5.200000 -4.778412 -1.239429 24.369411
6.840000 0.800000 -5.160000 3.532440 -0.089704 12.486180
6.840000 0.800000 -5.120000 2.628342 10.021877 107.346207
6.840000 0.800000 -5.080000 -11.491425 13.294010 308.783569
6.840000 0.800000 -5.040000 -24.398552 -0.965210 596.220947
6.840000 0.800000 -5.000000 -18.675549 -23.182758 886.216431
6.840000 0.800000 -4.960000 4.796104 -31.593353 1021.142578
6.840000 0.800000 -4.920000 24.812447 -16.178295 877.394775
6.840000 0.800000 -4.880000 21.412033 8.315984 527.630737
6.840000 0.800000 -4.840000 -1.830874 16.276684 268.282562
6.840000 0.800000 -4.800000 -20.021179 -1.690332 403.704865
6.840000 0.840000 -5.200000 2.342044 -8.795256 82.841690
6.840000 0.840000 -5.160000 13.294434 -5.692705 209.148849
6.840000 0.840000 -5.120000 16.041458 4.596806 278.458984
6.840000 0.840000 -5.080000 9.428507 10.822861 206.031067
6.840000 0.840000 -5.040000 2.878868 7.806637 69.231461
6.840000 0.840000 -5.000000 4.251286 2.137370 22.641781
6.840000 0.840000 -4.960000 10.009083 3.243122 110.699585
6.840000 0.840000 -4.920000 9.747501 10.773428 211.080536
6.840000 0.840000 -4.880000 -0.060582 13.952930 194.687943
6.840000 0.840000 -4.840000 -9.795938 4.453060 115.790154
6.840000 0.840000 -4.800000 -6.380289 -12.008435 184.910599
6.840000 0.880000 -5.200000 10.299154 -7.518870 162.605988
6.840000 0.880000 -5.160000 24.243511 -0.093149 587.756531
6.840000 0.880000 -5.120000 29.256426 17.117542 1148.948730
6.840000 0.880000 -5.080000 20.812246 33.980133 1587.799072
6.840000 0.880000 -5.040000 3.588947 41.288986 1717.660889
6.840000 0.880000 -5.000000 -13.628742 36.707302 1533.168701
6.840000 0.880000 -4.960000 -24.283854 23.879246 1159.923950
6.840000 0.880000 -4.920000 -26.024105 8.198166 744.463928
6.840000 0.880000 -4.880000 -19.117384 -5.563132 396.422791
6.840000 0.880000 -4.840000 -5.575846 -13.006210 200.251572
6.840000 0.880000 -4.800000 9.832161 -10.672765 210.579285
6.840000 0.920000 -5.200000 12.415423 -2.022846 158.234634
6.840000 0.920000 -5.160000 26.685722 13.260986 887.981567
6.840000 0.920000 -5.120000 25.250938 40.012280 2238.592285
6.840000 0.920000 -5.080000 1.962986 61.735718 3815.152100
6.840000 0.920000 -5.040000 -33.600704 61.901779 4960.837891
6.840000 0.920000 -5.000000 -61.622231 36.821503 5153.122559
6.840000 0.920000 -4.960000 -65.817734 -0.802792 4332.618652
6.840000 0.920000 -4.920000 -44.724331 -30.453421 2927.676514
6.840000 0.920000 -4.880000 -12.058018 -37.729187 1568.887329
6.840000 0.920000 -4.840000 13.496334 -23.008400 711.537476
6.840000 0.920000 -4.800000 20.688980 0.840993 428.741180
6.840000 0.960000 -5.200000 9.482484 1.055738 91.032089
6.840000 0.960000 -5.160000 17.567123 24.859966 926.621765
6.840000 0.960000 -5.120000 0.742167 53.779987 2892.837891
6.840000 0.960000 -5.080000 -39.445175 63.564529 5596.371094
6.840000 0.960000 -5.040000 -80.446968 38.999855 7992.703613
6.840000 0.960000 -5.000000 -94.093124 -11.108374 8976.911133
6.840000 0.960000 -4.960000 -68.819374 -57.993374 8099.337891
6.840000 0.960000 -4.920000 -19.654644 -73.977180 5858.928223
6.840000 0.960000 -4.880000 23.052584 -53.057671 3346.538086
6.840000 0.960000 -4.840000 36.569473 -13.816104 1528.211182
6.840000 0.960000 -4.800000 20.928495 16.820786 720.940735
6.840000 1.000000 -5.200000 6.506252 0.074251 42.336830
6.840000 1.000000 -5.160000 2.031910 26.718777 718.021667
6.840000 1.000000 -5.120000 -29.570349 43.873360 2799.277344
6.840000 1.000000 -5.080000 -71.980171 28.755993 6008.052246
6.840000 1.000000 -5.040000 -93.850174 -19.263332 9178.931641
6.840000 1.000000 -5.000000 -73.791061 -73.702271 10877.145508
6.840000 1.000000 -4.960000 -19.630798 -99.616180 10308.751953
6.840000 1.000000 -4.920000 35.939316 -80.898811 7836.251953
6.840000 1.000000 -4.880000 60.381001 -32.556450 4705.787598
6.840000 1.000000 -4.840000 45.337723 12.425233 2209.895508
6.840000 1.000000 -4.800000 9.620181 29.197075 945.017090
6.840000 1.040000 -5.200000 5.921037 -1.827261 38.397560
6.840000 1.040000 -5.160000 -11.214256 17.444599 430.073578
6.840000 1.040000 -5.120000 -44.834759 13.453988 2191.165527
6.840000 1.040000 -5.080000 -68.211624 -22.153896 5143.620605
6.840000 1.040000 -5.040000 -56.438343 -71.047775 8233.072266
6.840000 1.040000 -5.000000 -8.941399 -99.983772 10076.703125
6.840000 1.040000 -4.960000 47.376709 -87.034531 9819.562500
6.840000 1.040000 -4.920000 78.201286 -39.551422 7679.756348
6.840000 1.040000 -4.880000 67.962540 11.923202 4761.069336
6.840000 1.040000 -4.840000 29.663710 37.794643 2308.370605
6.840000 1.040000 -4.800000 -8.414739 30.232311 984.800415
6.840000 1.080000 -5.200000 5.663718 -2.430738 37.986191
6.840000 1.080000 -5.160000 -15.749812 1.728391 251.043915
6.840000 1.080000 -5.120000 -34.849506 -19.330420 1588.153198
6.840000 1.080000 -5.080000 -28.939045 -54.891869 3850.585449
6.840000 1.080000 -5.040000 6.854529 -78.279495 6174.663574
6.840000 1.080000 -5.000000 53.089752 -68.477890 7507.743164
6.840000 1.080000 -4.960000 80.487625 -27.935543 7258.652344
6.840000 1.080000 -4.920000 72.682739 19.158552 5649.831055
6.840000 1.080000 -4.880000 37.562820 45.922104 3519.805176
6.840000 1.080000 -4.840000 -1.211238 41.926804 1759.323853
6.840000 1.080000 -4.800000 -23.031601 17.062048 821.568115
6.840000 1.120000 -5.200000 3.639625 -3.734072 27.190163
6.840000 1.120000 -5.160000 -10.079859 -13.561893 285.528503
6.840000 1.120000 -5.120000 -6.903745 -36.095093 1350.517456
6.840000 1.120000 -5.080000 18.709312 -50.541130 2904.444092
6.840000 1.120000 -5.040000 51.820335 -39.724010 4263.344238
6.840000 1.120000 -5.000000 69.000801 -5.836037 4795.169434
6.840000 1.120000 -4.960000 57.844505 31.080536 4311.986328
6.840000 1.120000 -4.920000 26.097073 49.665867 3147.755371
6.840000 1.120000 -4.880000 -6.500538 42.934803 1885.654297
6.840000 1.120000 -4.840000 -24.106354 20.060600 983.543945
6.840000 1.120000 -4.800000 -23.689535 -4.276896 579.485901
6.840000 1.160000 -5.200000 2.059811 -8.650384 79.071960
6.840000 1.160000 -5.160000 3.134059 -22.770304 528.309082
6.840000 1.160000 -5.120000 21.917236 -31.196375 1453.579102
6.840000 1.160000 -5.080000 45.716949 -18.850044 2445.363770
6.840000 1.160000 -5.040000 53.790176 11.337811 3021.928955
6.840000 1.160000 -5.000000 36.745480 39.865170 2939.461914
6.840000 1.160000 -4.960000 5.037697 47.924919 2322.176270
6.840000 1.160000 -4.920000 -21.074877 32.994667 1532.798462
6.840000 1.160000 -4.880000 -28.928957 8.261155 905.131287
6.840000 1.160000 -4.840000 -20.995010 -11.249484 567.341370
6.840000 1.160000 -4.800000 -7.488273 -20.360149 470.609894
6.840000 1.200000 -5.200000 5.512741 -15.674568 276.082397
6.840000 1.200000 -5.160000 18.882832 -22.942038 882.898438
6.840000 1.200000 -5.120000 38.253929 -12.671814 1623.937866
6.840000 1.200000 -5.080000 43.755730 14.448460 2123.321777
6.840000 1.200000 -5.040000 24.809177 39.609535 2184.410645
6.840000 1.200000 -5.000000 -8.084553 42.702724 1888.882690
6.840000 1.200000 -4.960000 -32.159233 21.103983 1479.594360
6.840000 1.200000 -4.920000 -32.820789 -8.598402 1151.136719
6.840000 1.200000 -4.880000 -14.938433 -26.767790 939.671387
6.840000 1.200000 -4.840000 5.122078 -27.432188 778.760620
6.840000 1.200000 -4.800000 16.364765 -19.198317 636.380859
6.880000 0.800000 -5.200000 10.284473 12.817423 270.056732
6.880000 0.800000 -5.160000 3.140147 21.835449 486.647369
6.880000 0.800000 -5.120000 -13.286963 22.469234 681.409851
6.880000 0.800000 -5.080000 -26.913797 7.158756 775.600281
6.880000 0.800000 -5.040000 -22.860863 -15.676636 768.375916
6.880000 0.800000 -5.000000 -1.034363 -26.464336 701.430969
6.880000 0.800000 -4.960000 19.934280 -14.209616 599.288696
6.880000 0.800000 -4.920000 19.684963 9.718777 481.952393
6.880000 0.800000 -4.880000 -2.225828 20.634247 430.726471
6.880000 0.800000 -4.840000 -23.720551 5.149296 589.179749
6.880000 0.800000 -4.800000 -21.294155 -24.013519 1030.090088
6.880000 0.840000 -5.200000 7.402855 13.755047 244.003571
6.880000 0.840000 -5.160000 5.859587 18.471748 375.540222
6.880000 0.840000 -5.120000 0.311344 21.849218 477.485260
6.880000 0.840000 -5.080000 -6.050484 20.625546 462.021484
6.880000 0.840000 -5.040000 -9.034492 16.879494 366.539368
6.880000 0.840000 -5.000000 -9.522358 15.267456 323.770508
6.880000 0.840000 -4.960000 -12.724699 15.963882 416.763489
6.880000 0.840000 -4.920000 -20.548056 12.793510 585.896484
6.880000 0.840000 -4.880000 -26.492966 0.432713 702.064514
6.880000 0.840000 -4.840000 -20.749340 -16.984680 719.014526
6.880000 0.840000 -4.800000 -1.441210 -26.802275 720.439026
6.880000 0.880000 -5.200000 2.999031 12.983996 177.578354
6.880000 0.880000 -5.160000 9.179532 22.863321 606.995239
6.880000 0.880000 -5.120000 4.462574 40.244492 1639.533691
6.880000 0.880000 -5.080000 -15.511986 52.869217 3035.775879
6.880000 0.880000 -5.040000 -43.177719 48.974220 4262.790039
6.880000 0.880000 -5.000000 -64.072952 26.614632 4813.681641
6.880000 0.880000 -4.960000 -66.925735 -4.792164 4502.019043
6.880000 0.880000 -4.920000 -50.636925 -31.013641 3525.944092
6.880000 0.880000 -4.880000 -23.807278 -41.723049 2307.599365
6.880000 0.880000 -4.840000 1.341053 -35.349819 1251.408203
6.880000 0.880000 -4.800000 15.699241 -18.171970 576.686646
6.880000 0.920000 -5.200000 -0.523979 8.740973 76.679169
6.880000 0.920000 -5.160000 4.992009 31.414055 1011.763000
6.880000 0.920000 -5.120000 -15.688658 59.019180 3729.397705
6.880000 0.920000 -5.080000 -60.475456 64.743637 7849.019531
6.880000 0.920000 -5.040000 -103.718369 32.800308 11833.360352
6.880000 0.920000 -5.000000 -114.923645 -25.286190 13846.835938
6.880000 0.920000 -4.960000 -83.559174 -77.203903 12942.578125
6.880000 0.920000 -4.920000 -27.969490 -94.241150 9663.686523
6.880000 0.920000 -4.880000 19.303791 -72.372627 5610.433594
6.880000 0.920000 -4.840000 36.242691 -32.401245 2363.373535
6.880000 0.920000 -4.800000 24.855566 -1.064511 618.932312
6.880000 0.960000 -5.200000 0.071049 2.877708 8.286254
6.880000 0.960000 -5.160000 -7.814844 35.053226 1289.800415
6.880000 0.960000 -5.120000 -51.118839 54.402020 5572.715820
6.880000 0.960000 -5.080000 -107.650574 29.972536 12486.999023
6.880000 0.960000 -5.040000 -134.525665 -38.226574 19558.425781
6.880000 0.960000 -5.000000 -103.704102 -112.917366 23504.873047
6.880000 0.960000 -4.960000 -28.015579 -146.897583 22363.773438
6.880000 0.960000 -4.920000 47.137173 -120.805252 16815.822266
6.880000 0.960000 -4.880000 79.649109 -57.481796 9648.137695
6.880000 0.960000 -4.840000 62.001102 -0.971584 3845.080811
6.880000 0.960000 -4.800000 21.365576 19.355692 831.130615
6.880000 1.000000 -5.200000 4.640493 -0.309714 21.630102
6.880000 1.000000 -5.160000 -22.081898 27.655077 1252.413452
6.880000 1.000000 -5.120000 -75.619034 20.836977 6152.417969
6.880000 1.000000 -5.080000 -114.664551 -36.766850 14499.759766
6.880000 1.000000 -5.040000 -97.641083 -117.822159 23415.843750
6.880000 1.000000 -5.000000 -21.358438 -168.336044 28793.207031
6.880000 1.000000 -4.960000 71.308594 -151.157455 27933.492188
6.880000 1.000000 -4.920000 124.083267 -77.344559 21378.837891
6.880000 1.000000 -4.880000 111.641418 3.372135 12475.177734
6.880000 1.000000 -4.840000 56.153530 43.682182 5061.352051
6.880000 1.000000 -4.800000 3.558609 33.625565 1143.342285
6.880000 1.040000 -5.200000 9.043406 1.248454 83.341820
6.880000 1.040000 -5.160000 -28.567410 11.360092 945.148560
6.880000 1.040000 -5.120000 -69.241959 -22.802238 5314.390625
6.880000 1.040000 -5.080000 -69.550934 -90.943314 13108.019531
6.880000 1.040000 -5.040000 -10.747317 -146.881134 21689.572266
6.880000 1.040000 -5.000000 79.131760 -144.503784 27143.179688
6.880000 1.040000 -4.960000 143.909973 -77.776993 26759.339844
6.880000 1.040000 -4.920000 143.887329 12.288442 20854.568359
6.880000 1.040000 -4.880000 86.575867 70.643921 12485.944336
6.880000 1.040000 -4.840000 16.904461 71.010262 5328.217773
6.880000 1.040000 -4.800000 -21.685143 30.899761 1425.040649
6.880000 1.080000 -5.200000 9.430254 4.751194 111.503532
6.880000 1.080000 -5.160000 -23.232128 -5.525833 570.266602
6.880000 1.080000 -5.120000 -35.497665 -49.628292 3723.051514
6.880000 1.080000 -5.080000 -1.573509 -97.384201 9486.158203
6.880000 1.080000 -5.040000 67.794128 -106.218910 15878.500977
6.880000 1.080000 -5.000000 128.902161 -58.165539 19998.998047
6.880000 1.080000 -4.960000 139.200180 21.967682 19859.267578
6.880000 1.080000 -4.920000 91.926437 85.022293 15679.259766
6.880000 1.080000 -4.880000 20.395729 96.153854 9661.548828
6.880000 1.080000 -4.840000 -30.515160 59.359394 4454.712402
6.880000 1.080000 -4.800000 -38.515781 8.349936 1553.186890
6.880000 1.120000 -5.200000 6.671922 5.461918 74.347092
6.880000 1.120000 -5.160000 -9.421528 -15.086170 316.357727
6.880000 1.120000 -5.120000 3.310129 -47.068504 2226.401123
6.880000 1.120000 -5.080000 45.840981 -59.157166 5600.965820
6.880000 1.120000 -5.040000 90.726135 -30.897724 9185.900391
6.880000 1.120000 -5.000000 103.092300 27.000179 11357.032227
6.880000 1.120000 -4.960000 69.852402 79.138443 11142.250977
6.880000 1.120000 -4.920000 10.717999 93.271667 8814.478516
6.880000 1.120000 -4.880000 -38.145248 64.629425 5632.022461
6.880000 1.120000 -4.840000 -51.970131 16.274897 2965.766846
6.880000 1.120000 -4.800000 -32.331665 -21.782196 1519.800537
6.880000 1.160000 -5.200000 5.545789 2.239817 35.772556
6.880000 1.160000 -5.160000 5.730489 -14.611184 246.325195
6.880000 1.160000 -5.120000 26.085785 -24.199871 1266.102051
6.880000 1.160000 -5.080000 51.879875 -9.906031 2789.650879
6.880000 1.160000 -5.040000 59.443634 25.023590 4159.725586
6.880000 1.160000 -5.000000 37.097996 58.294239 4774.479492
6.880000 1.160000 -4.960000 -4.089771 66.623039 4455.355469
6.880000 1.160000 -4.920000 -39.268990 44.345940 3508.615967
6.880000 1.160000 -4.880000 -49.265831 6.266352 2466.389160
6.880000 1.160000 -4.840000 -32.937408 -25.642982 1742.435547
6.880000 1.160000 -4.800000 -3.714691 -37.977547 1456.093018
6.880000 1.200000 -5.200000 9.145210 -0.762559 84.216370
6.880000 1.200000 -5.160000 16.199993 -6.606323 306.083282
6.880000 1.200000 -5.120000 28.079912 0.112700 788.494141
6.880000 1.200000 -5.080000 29.922874 18.875416 1251.659668
6.880000 1.200000 -5.040000 13.880281 35.718979 1468.507690
6.880000 1.200000 -5.000000 -12.368130 35.576019 1418.623779
6.880000 1.200000 -4.960000 -31.746132 15.862116 1259.423584
6.880000 1.200000 -4.920000 -32.129364 -11.693359 1169.030640
6.880000 1.200000 -4.880000 -14.908390 -31.501884 1214.628784
6.880000 1.200000 -4.840000 8.814562 -35.688461 1351.362793
6.880000 1.200000 -4.800000 28.388393 -26.528069 1509.639282
6.920000 0.800000 -5.200000 4.641443 34.581322 1217.410767
6.920000 0.800000 -5.160000 -17.846373 35.155464 1554.399658
6.920000 0.800000 -5.120000 -36.680008 17.358776 1646.750122
6.920000 0.800000 -5.080000 -36.351700 -10.241140 1426.327026
6.920000 0.800000 -5.040000 -15.136749 -27.543051 987.740845
6.920000 0.800000 -5.000000 9.636494 -20.955196 531.982300
6.920000 0.800000 -4.960000 15.922939 1.720001 256.498383
6.920000 0.800000 -4.920000 -1.387909 16.610283 277.827789
6.920000 0.800000 -4.880000 -23.856344 6.423145 610.381958
6.920000 0.800000 -4.840000 -26.417408 -21.692053 1168.424561
6.920000 0.800000 -4.800000 -2.027516 -41.954884 1764.323120
6.920000 0.840000 -5.200000 -10.277731 31.157307 1076.409546
6.920000 0.840000 -5.160000 -19.989000 27.568413 1159.577515
6.920000 0.840000 -5.120000 -26.513741 20.630753 1128.606445
6.920000 0.840000 -5.080000 -28.820374 13.219740 1005.375488
6.920000 0.840000 -5.040000 -28.966850 8.156212 905.602234
6.920000 0.840000 -5.000000 -30.780220 4.665497 969.188782
6.920000 0.840000 -4.960000 -35.039433 -1.990486 1231.723877
6.920000 0.840000 -4.920000 -36.435818 -15.367947 1563.742676
6.920000 0.840000 -4.880000 -27.368053 -31.754154 1757.336670
6.920000 0.840000 -4.840000 -6.353803 -40.621780 1690.499878
6.920000 0.840000 -4.800000 17.603840 -33.212112 1412.939575
6.920000 0.880000 -5.200000 -19.115017 18.714750 715.625732
6.920000 0.880000 -5.160000 -20.059975 26.162857 1086.897705
6.920000 0.880000 -5.120000 -34.079056 36.124443 2466.357422
6.920000 0.880000 -5.080000 -60.412277 33.398441 4765.099121
6.920000 0.880000 -5.040000 -84.381737 8.985779 7201.021484
6.920000 0.880000 -5.000000 -88.346115 -30.363029 8726.949219
6.920000 0.880000 -4.960000 -65.899384 -65.821274 8675.167969
6.920000 0.880000 -4.920000 -27.045357 -80.057053 7140.583008
6.920000 0.880000 -4.880000 9.421177 -68.993736 4848.894531
6.920000 0.880000 -4.840000 29.033043 -42.707378 2666.837891
6.920000 0.880000 -4.800000 29.543612 -16.424400 1142.585938
6.920000 0.920000 -5.200000 -17.143509 4.505431 314.198822
6.920000 0.920000 -5.160000 -25.561169 27.175344 1391.872681
6.920000 0.920000 -5.120000 -63.290306 38.197891 5464.741699
6.920000 0.920000 -5.080000 -110.205482 10.879837 12263.619141
6.920000 0.920000 -5.040000 -128.545959 -53.187695 19352.996094
6.920000 0.920000 -5.000000 -95.234085 -119.846184 23432.638672
6.920000 0.920000 -4.960000 -23.797939 -148.043701 22483.279297
6.920000 0.920000 -4.920000 44.984398 -122.839333 17113.097656
6.920000 0.920000 -4.880000 75.418526 -65.922821 10033.772461
6.920000 0.920000 -4.840000 62.795261 -15.412760 4180.797852
6.920000 0.920000 -4.800000 31.122620 5.013369 993.751282
6.920000 0.960000 -5.200000 -6.951658 -3.177931 58.424797
6.920000 0.960000 -5.160000 -35.834301 22.175690 1775.858398
6.920000 0.960000 -5.120000 -91.828766 9.889225 8530.319336
6.920000 0.960000 -5.080000 -129.710800 -56.301720 19994.775391
6.920000 0.960000 -5.040000 -105.330711 -144.951294 32105.435547
6.920000 0.960000 -5.000000 -17.862686 -197.040024 39143.843750
6.920000 0.960000 -4.960000 83.963058 -174.479645 37492.941406
6.920000 0.960000 -4.920000 139.831085 -92.645523 28135.925781
6.920000 0.960000 -4.880000 125.816780 -6.686762 15874.575195
6.920000 0.960000 -4.840000 69.071724 34.768852 5979.775879
6.920000 0.960000 -4.800000 18.658390 25.402679 993.431641
6.920000 1.000000 -5.200000 3.669975 -1.277229 15.100033
6.920000 1.000000 -5.160000 -42.427544 7.929302 1862.970215
6.920000 1.000000 -5.120000 -91.760437 -37.767769 9846.381836
6.920000 1.000000 -5.080000 -89.451782 -125.606941 23778.724609
6.920000 1.000000 -5.040000 -11.961765 -196.689850 38829.980469
6.920000 1.000000 -5.000000 104.143074 -192.541290 47917.929688
6.920000 1.000000 -4.960000 186.873306 -106.827209 46333.687500
6.920000 1.000000 -4.920000 187.010025 6.762378 35018.480469
6.920000 1.000000 -4.880000 116.755753 78.720367 19828.800781
6.920000 1.000000 -4.840000 34.503571 78.983170 7428.837891
6.920000 1.000000 -4.800000 -7.142956 33.594070 1179.583374
6.920000 1.040000 -5.200000 8.090909 6.207697 103.998306
6.920000 1.040000 -5.160000 -37.793129 -9.428802 1517.222900
6.920000 1.040000 -5.120000 -56.718956 -74.198425 8722.446289
6.920000 1.040000 -5.080000 -8.823353 -147.204010 21746.873047
6.920000 1.040000 -5.040000 93.863289 -165.456024 36186.011719
6.920000 1.040000 -5.000000 188.379013 -99.141876 45315.765625
6.920000 1.040000 -4.960000 210.065399 17.829830 44445.375000
6.920000 1.040000 -4.920000 146.407257 112.806808 34160.460938
6.920000 1.040000 -4.880000 45.947281 133.107025 19828.632812
6.920000 1.040000 -4.840000 -24.683887 84.926224 7821.757812
6.920000 1.040000 -4.800000 -34.167587 19.493780 1547.431519
6.920000 1.080000 -5.200000 5.763340 12.431255 187.752182
6.920000 1.080000 -5.160000 -22.948868 -19.857504 920.970947
6.920000 1.080000 -5.120000 -8.150784 -76.773026 5960.532715
6.920000 1.080000 -5.080000 60.615692 -108.478325 15441.808594
6.920000 1.080000 -5.040000 144.253845 -73.505463 26212.224609
6.920000 1.080000 -5.000000 181.407776 20.346798 33322.773438
6.920000 1.080000 -4.960000 139.952423 116.711227 33208.191406
6.920000 1.080000 -4.920000 45.371017 155.066803 26104.242188
6.920000 1.080000 -4.880000 -40.466442 118.938171 15783.822266
6.920000 1.080000 -4.840000 -69.819969 44.788094 6880.801270
6.920000 1.080000 -4.800000 -42.694305 -13.281153 1999.192749
6.920000 1.120000 -5.200000 1.332972 13.814190 192.608658
6.920000 1.120000 -5.160000 -6.512024 -18.402124 381.044647
6.920000 1.120000 -5.120000 24.553568 -49.602432 3063.279053
6.920000 1.120000 -5.080000 80.726067 -42.382133 8312.943359
6.920000 1.120000 -5.040000 118.974083 14.204391 14356.596680
6.920000 1.120000 -5.000000 102.402832 89.275017 18456.369141
6.920000 1.120000 -4.960000 33.778763 132.365005 18661.498047
6.920000 1.120000 -4.920000 -44.534859 114.477158 15088.373047
6.920000 1.120000 -4.880000 -84.571136 50.819218 9734.870117
6.920000 1.120000 -4.840000 -69.559113 -14.195269 5039.976074
6.920000 1.120000 -4.800000 -21.635742 -43.695408 2377.394043
6.920000 1.160000 -5.200000 -0.730859 12.317456 152.253876
6.920000 1.160000 -5.160000 3.019173 -8.675220 84.374840
6.920000 1.160000 -5.120000 28.954399 -16.439491 1108.614136
6.920000 1.160000 -5.080000 55.950752 5.699585 3162.971924
6.920000 1.160000 -5.040000 55.787979 48.537979 5468.233887
6.920000 1.160000 -5.000000 19.074879 81.413223 6991.963867
6.920000 1.160000 -4.960000 -34.053059 77.210785 7121.116211
6.920000 1.160000 -4.920000 -69.084511 35.420364 6027.271484
6.920000 1.160000 -4.880000 -64.468201 -17.521568 4463.154297
6.920000 1.160000 -4.840000 -26.804020 -49.809704 3199.462158
6.920000 1.160000 -4.800000 17.676020 -47.491104 2567.846680
6.920000 1.200000 -5.200000 -0.501757 12.040386 145.222656
6.920000 1.200000 -5.160000 3.556552 1.520412 14.960715
6.920000 1.200000 -5.120000 15.563002 2.388298 247.910980
6.920000 1.200000 -5.080000 20.657547 16.898354 712.288574
6.920000 1.200000 -5.040000 8.477570 32.632179 1136.728271
6.920000 1.200000 -5.000000 -15.871052 33.006767 1341.336914
6.920000 1.200000 -4.960000 -34.890423 12.384964 1370.728882
6.920000 1.200000 -4.920000 -33.051094 -18.247677 1425.352539
6.920000 1.200000 -4.880000 -9.242290 -39.827374 1671.639648
6.920000 1.200000 -4.840000 23.131016 -39.600121 2103.213379
6.920000 1.200000 -4.800000 46.905979 -18.947821 2559.190918
6.960000 0.800000 -5.200000 -18.532040 42.439240 2144.525391
6.960000 0.800000 -5.160000 -43.371468 25.565533 2534.680664
6.960000 0.800000 -5.120000 -49.953018 -6.120707 2532.767090
6.960000 0.800000 -5.080000 -31.673470 -32.701477 2072.595215
6.960000 0.800000 -5.040000 -2.075680 -35.913387 1294.079834
6.960000 0.800000 -5.000000 15.064485 -16.814552 509.667847
6.960000 0.800000 -4.960000 7.520744 3.554939 69.199188
6.960000 0.800000 -4.920000 -13.037285 3.519604 182.358398
6.960000 0.800000 -4.880000 -21.732449 -17.981026 795.616577
6.960000 0.800000 -4.840000 -4.808076 -39.744640 1602.754028
6.960000 0.800000 -4.800000 26.430244 -38.715641 2197.458740
6.960000 0.840000 -5.200000 -36.100784 26.392309 1999.820557
6.960000 0.840000 -5.160000 -44.354145 12.125219 2114.311035
6.960000 0.840000 -5.120000 -44.724510 -2.661175 2007.363770
6.960000 0.840000 -5.080000 -39.729168 -13.460892 1759.602295
6.960000 0.840000 -5.040000 -34.289932 -19.573219 1558.910400
6.960000 0.840000 -5.000000 -31.224697 -24.842957 1592.154175
6.960000 0.840000 -4.960000 -27.782082 -33.557686 1897.962402
6.960000 0.840000 -4.920000 -17.743183 -44.594944 2303.529541
6.960000 0.840000 -4.880000 1.538403 -50.238701 2526.293701
6.960000 0.840000 -4.840000 23.945225 -42.361977 2367.910889
6.960000 0.840000 -4.800000 37.565422 -21.006134 1852.418579
6.960000 0.880000 -5.200000 -37.427658 3.779795 1415.116455
6.960000 0.880000 -5.160000 -42.251865 5.400730 1814.387939
6.960000 0.880000 -5.120000 -58.264561 1.964739 3398.619141
6.960000 0.880000 -5.080000 -76.143692 -18.780861 6150.582520
6.960000 0.880000 -5.040000 -78.122658 -55.428509 9175.468750
6.960000 0.880000 -5.000000 -53.668640 -90.991920 11159.852539
6.960000 0.880000 -4.960000 -9.880829 -105.292725 11184.188477
6.960000 0.880000 -4.920000 32.888226 -90.536102 9278.421875
6.960000 0.880000 -4.880000 55.983246 -56.563759 6333.582520
6.960000 0.880000 -4.840000 54.778389 -22.172735 3492.302002
6.960000 0.880000 -4.800000 38.800709 -1.220940 1506.985718
6.960000 0.920000 -5.200000 -24.041710 -11.450480 709.117310
6.960000 0.920000 -5.160000 -43.888481 0.705344 1926.696289
6.960000 0.920000 -5.120000 -81.231552 -14.995911 6823.442383
6.960000 0.920000 -5.080000 -101.879410 -68.887474 15124.898438
6.960000 0.920000 -5.040000 -74.415115 -135.327362 23851.103516
6.960000 0.920000 -5.000000 -1.345543 -169.956863 28887.146484
6.960000 0.920000 -4.960000 78.605286 -146.633102 27680.058594
6.960000 0.920000 -4.920000 120.742813 -79.901321 20963.048828
6.960000 0.920000 -4.880000 109.553070 -12.230835 12151.468750
6.960000 0.920000 -4.840000 67.178558 21.242155 4964.187500
6.960000 0.920000 -4.800000 29.937265 17.650532 1207.781128
6.960000 0.960000 -5.200000 -6.902882 -12.449160 202.631363
6.960000 0.960000 -5.160000 -46.678307 -9.171158 2262.974365
6.960000 0.960000 -5.120000 -86.410248 -55.638676 10562.393555
6.960000 0.960000 -5.080000 -75.971497 -137.432648 24659.400391
6.960000 0.960000 -5.040000 3.145687 -198.603607 39453.289062
6.960000 0.960000 -5.000000 113.371651 -187.021576 47830.203125
6.960000 0.960000 -4.960000 187.388504 -101.402870 45396.996094
6.960000 0.960000 -4.920000 183.101715 5.218822 33553.472656
6.960000 0.960000 -4.880000 116.564468 69.543938 18423.634766
6.960000 0.960000 -4.840000 43.535900 68.369324 6569.738770
6.960000 0.960000 -4.800000 9.645939 29.789066 980.432617
6.960000 1.000000 -5.200000 3.282248 -3.070028 20.198229
6.960000 1.000000 -5.160000 -42.335728 -23.753202 2356.528320
6.960000 1.000000 -5.120000 -56.813293 -95.187744 12288.457031
6.960000 1.000000 -5.080000 1.140730 -171.703323 29483.332031
6.960000 1.000000 -5.040000 115.461395 -185.702164 47816.625000
6.960000 1.000000 -5.000000 216.261398 -108.197678 58475.730469
6.960000 1.000000 -4.960000 235.376648 20.278744 55813.394531
6.960000 1.000000 -4.920000 163.907593 120.337646 41346.847656
6.960000 1.000000 -4.880000 57.925098 138.762192 22610.261719
6.960000 1.000000 -4.840000 -11.769428 87.857056 7857.381836
6.960000 1.000000 -4.800000 -17.212423 25.404667 941.664612
6.960000 1.040000 -5.200000 3.588806 7.659254 71.543701
6.960000 1.040000 -5.160000 -27.563387 -34.084682 1921.505859
6.960000 1.040000 -5.120000 -4.950396 -104.205498 10883.292969
6.960000 1.040000 -5.080000 83.536758 -141.307297 26946.142578
6.960000 1.040000 -5.040000 188.567474 -94.845963 44553.449219
6.960000 1.040000 -5.000000 234.003220 23.836832 55325.703125
6.960000 1.040000 -4.960000 181.680084 143.482376 53594.843750
6.960000 1.040000 -4.920000 65.811409 189.906815 40395.738281
6.960000 1.040000 -4.880000 -36.029655 146.149368 22657.775391
6.960000 1.040000 -4.840000 -67.786316 60.828537 8295.095703
6.960000 1.040000 -4.800000 -35.264801 0.340038 1243.721802
6.960000 1.080000 -5.200000 -1.730442 13.688594 190.372040
6.960000 1.080000 -5.160000 -9.318933 -32.072899 1115.513428
6.960000 1.080000 -5.120000 37.194038 -76.440277 7226.512207
6.960000 1.080000 -5.080000 119.960480 -66.481560 18810.314453
6.960000 1.080000 -5.040000 178.276352 14.924702 32005.203125
6.960000 1.080000 -5.000000 158.303253 124.797264 40634.277344
6.960000 1.080000 -4.960000 62.690521 190.579269 40250.558594
6.960000 1.080000 -4.920000 -48.091515 170.053589 31231.015625
6.960000 1.080000 -4.880000 -105.414490 85.410675 18407.199219
6.960000 1.080000 -4.840000 -87.113953 0.779493 7589.448242
6.960000 1.080000 -4.800000 -27.936024 -33.277554 1887.817139
6.960000 1.120000 -5.200000 -7.437935 15.044463 281.658752
6.960000 1.120000 -5.160000 1.241534 -19.409563 378.272552
6.960000 1.120000 -5.120000 46.952271 -33.960915 3357.859375
6.960000 1.120000 -5.080000 97.898712 1.622562 9586.791016
6.960000 1.120000 -5.040000 105.786064 76.574982 17054.419922
6.960000 1.120000 -5.000000 49.760822 140.893173 22327.025391
6.960000 1.120000 -4.960000 -40.465641 145.464722 22797.453125
6.960000 1.120000 -4.920000 -106.430237 84.470932 18462.734375
6.960000 1.120000 -4.880000 -108.652977 0.400993 11805.630859
6.960000 1.120000 -4.840000 -56.508568 -52.435398 5942.689453
6.960000 1.120000 -4.800000 5.291124 -50.937603 2622.635498
6.960000 1.160000 -5.200000 -12.024555 14.514008 355.246338
6.960000 1.160000 -5.160000 -0.595589 -6.325721 40.369469
6.960000 1.160000 -5.120000 29.204269 -5.535828 883.534729
6.960000 1.160000 -5.080000 48.971668 26.982605 3126.285400
6.960000 1.160000 -5.040000 32.048485 70.622314 6014.616699
6.960000 1.160000 -5.000000 -19.279533 88.584976 8218.998047
6.960000 1.160000 -4.960000 -71.610443 60.159531 8747.224609
6.960000 1.160000 -4.920000 -87.199982 0.498970 7604.085938
6.960000 1.160000 -4.880000 -55.381378 -51.092319 5677.522461
6.960000 1.160000 -4.840000 0.044754 -63.286709 4005.209473
6.960000 1.160000 -4.800000 42.537788 -35.647640 3080.217773
6.960000 1.200000 -5.200000 -16.830231 12.966395 451.384064
6.960000 1.200000 -5.160000 -9.229715 -1.872798 88.695015
6.960000 1.200000 -5.120000 7.296377 -1.594196 55.778584
6.960000 1.200000 -5.080000 14.335480 14.911527 427.859619
6.960000 1.200000 -5.040000 0.791882 31.280552 979.099976
6.960000 1.200000 -5.000000 -24.680874 28.179520 1403.230835
6.960000 1.200000 -4.960000 -39.841156 2.071991 1591.610840
6.960000 1.200000 -4.920000 -28.388277 -29.984695 1704.976318
6.960000 1.200000 -4.880000 5.396992 -44.215843 1984.168335
6.960000 1.200000 -4.840000 40.179779 -29.656065 2493.896973
6.960000 1.200000 -4.800000 55.004986 4.267548 3043.760498
7.000000 0.800000 -5.200000 -39.288208 28.165329 2336.849121
7.000000 0.800000 -5.160000 -52.473106 -1.046417 2754.521973
7.000000 0.800000 -5.120000 -41.569382 -33.416931 2844.704834
7.000000 0.800000 -5.080000 -11.579674 -48.385780 2475.272705
7.000000 0.800000 -5.040000 16.579395 -37.542343 1684.303833
7.000000 0.800000 -5.000000 23.695732 -13.720924 749.751465
7.000000 0.800000 -4.960000 10.137184 0.021835 102.762978
7.000000 0.800000 -4.920000 -4.451286 -7.799287 80.642838
7.000000 0.800000 -4.880000 -0.515865 -26.005493 676.551758
7.000000 0.800000 -4.840000 21.780777 -32.050114 1501.612061
7.000000 0.800000 -4.800000 42.551781 -14.787738 2029.331299
7.000000 0.840000 -5.200000 -48.100395 2.806013 2321.521729
7.000000 0.840000 -5.160000 -48.086388 -16.587179 2587.435303
7.000000 0.840000 -5.120000 -39.088417 -33.151875 2626.951172
7.000000 0.840000 -5.080000 -24.982134 -42.477066 2428.408203
7.000000 0.840000 -5.040000 -11.526333 -44.559448 2118.400879
7.000000 0.840000 -5.000000 -1.618340 -43.646812 1907.663208
7.000000 0.840000 -4.960000 7.112053 -43.479485 1941.046875
7.000000 0.840000 -4.920000 18.874565 -42.558708 2167.492920
7.000000 0.840000 -4.880000 33.383675 -35.158298 2350.575684
7.000000 0.840000 -4.840000 43.685379 -18.104156 2236.172852
7.000000 0.840000 -4.800000 41.666496 3.543264 1748.651611
7.000000 0.880000 -5.200000 -37.050884 -19.651915 1758.965820
7.000000 0.880000 -5.160000 -41.289978 -24.581728 2309.123535
7.000000 0.880000 -5.120000 -48.653748 -39.710251 3944.091309
7.000000 0.880000 -5.080000 -45.484314 -66.810005 6532.399414
7.000000 0.880000 -5.040000 -21.387390 -93.484329 9196.740234
7.000000 0.880000 -5.000000 19.382584 -101.966095 10772.769531
7.000000 0.880000 -4.960000 59.169003 -83.778763 10519.851562
7.000000 0.880000 -4.920000 79.758270 -46.942940 8565.021484
7.000000 0.880000 -4.880000 75.331284 -9.691395 5768.725586
7.000000 0.880000 -4.840000 54.735424 12.944941 3163.538086
7.000000 0.880000 -4.800000 32.697983 18.044006 1394.744263
7.000000 0.920000 -5.200000 -16.377783 -26.720587 982.221558
7.000000 0.920000 -5.160000 -37.064976 -30.658306 2313.744141
7.000000 0.920000 -5.120000 -53.769112 -65.060211 7123.948242
7.000000 0.920000 -5.080000 -35.399162 -117.100830 14965.705078
7.000000 0.920000 -5.040000 25.618916 -149.252609 22932.669922
7.000000 0.920000 -5.000000 100.798462 -130.623672 27222.873047
7.000000 0.920000 -4.960000 146.107513 -65.446960 25630.710938
7.000000 0.920000 -4.920000 137.717453 8.674843 19041.349609
7.000000 0.920000 -4.880000 90.069824 51.412186 10755.786133
7.000000 0.920000 -4.840000 40.668365 50.750328 4229.511719
7.000000 0.920000 -4.800000 17.573362 26.989288 1037.244751
7.000000 0.960000 -5.200000 -0.204916 -18.984528 360.454285
7.000000 0.960000 -5.160000 -31.247574 -39.564178 2541.735107
7.000000 0.960000 -5.120000 -33.769279 -97.658112 10677.470703
7.000000 0.960000 -5.080000 22.102980 -153.580414 24075.484375
7.000000 0.960000 -5.040000 118.222710 -154.059662 37710.988281
7.000000 0.960000 -5.000000 195.789780 -81.142204 44917.695312
7.000000 0.960000 -4.960000 202.800995 26.986000 41856.488281
7.000000 0.960000 -4.920000 138.267853 105.373993 30221.679688
7.000000 0.960000 -4.880000 51.670067 115.457016 16000.118164
7.000000 0.960000 -4.840000 -0.990633 72.872177 5311.335449
7.000000 0.960000 -4.800000 -2.264980 26.417475 703.013123
7.000000 1.000000 -5.200000 4.825677 -5.981474 59.065186
7.000000 1.000000 -5.160000 -17.943748 -47.209877 2550.750488
7.000000 1.000000 -5.120000 11.351627 -110.348328 12305.612305
7.000000 1.000000 -5.080000 99.677505 -137.024048 28711.195312
7.000000 1.000000 -5.040000 196.835938 -83.389839 45698.250000
7.000000 1.000000 -5.000000 231.910141 33.993690 54937.882812
7.000000 1.000000 -4.960000 174.498093 144.883331 51440.765625
7.000000 1.000000 -4.920000 62.909794 182.168579 37143.031250
7.000000 1.000000 -4.880000 -28.465515 136.654938 19484.857422
7.000000 1.000000 -4.840000 -51.767670 59.271957 6193.056641
7.000000 1.000000 -4.800000 -19.740208 11.489525 521.684998
7.000000 1.040000 -5.200000 1.429740 3.951980 17.662300
7.000000 1.040000 -5.160000 0.331621 -44.751965 2002.848267
7.000000 1.040000 -5.120000 56.263733 -87.177383 10765.503906
7.000000 1.040000 -5.080000 146.449036 -68.197067 26098.160156
7.000000 1.040000 -5.040000 204.510590 26.078342 42504.660156
7.000000 1.040000 -5.000000 175.727722 145.328476 52000.597656
7.000000 1.040000 -4.960000 68.602066 211.596619 49479.371094
7.000000 1.040000 -4.920000 -48.342251 184.502777 36378.246094
7.000000 1.040000 -4.880000 -103.601532 94.131622 19594.039062
7.000000 1.040000 -4.840000 -80.362007 11.310019 6585.968750
7.000000 1.040000 -4.800000 -22.177475 -14.662933 706.842041
7.000000 1.080000 -5.200000 -4.962894 8.965061 105.002640
7.000000 1.080000 -5.160000 12.566575 -29.966940 1055.936279
7.000000 1.080000 -5.120000 72.231720 -40.942005 6893.668945
7.000000 1.080000 -5.080000 133.355377 10.072083 17885.103516
7.000000 1.080000 -5.040000 137.811493 106.228249 30276.449219
7.000000 1.080000 -5.000000 63.784760 184.543976 38124.976562
7.000000 1.080000 -4.960000 -48.387653 186.928040 37283.457031
7.000000 1.080000 -4.920000 -126.515137 111.119873 28353.707031
7.000000 1.080000 -4.880000 -126.487450 12.731342 16161.162109
7.000000 1.080000 -4.840000 -65.993202 -43.486038 6246.138184
7.000000 1.080000 -4.800000 -2.343147 -36.379189 1328.935669
7.000000 1.120000 -5.200000 -12.182135 10.666758 262.184113
7.000000 1.120000 -5.160000 10.143089 -12.274609 253.548279
7.000000 1.120000 -5.120000 53.580956 -2.557045 2877.457275
7.000000 1.120000 -5.080000 77.991394 50.729435 8656.132812
7.000000 1.120000 -5.040000 47.898960 115.982498 15746.250000
7.000000 1.120000 -5.000000 -30.169941 141.033325 20800.623047
7.000000 1.120000 -4.960000 -106.796585 99.110207 21228.343750
7.000000 1.120000 -4.920000 -129.619202 15.012848 17026.521484
7.000000 1.120000 -4.880000 -87.495415 -54.785469 10656.895508
7.000000 1.120000 -4.840000 -17.543736 -69.635635 5156.904297
7.000000 1.120000 -4.800000 29.951950 -35.163364 2133.581543
7.000000 1.160000 -5.200000 -20.515459 8.881162 499.759094
7.000000 1.160000 -5.160000 -3.358506 -4.827042 34.579895
7.000000 1.160000 -5.120000 21.612478 6.946636 515.354980
7.000000 1.160000 -5.080000 25.360874 42.151268 2419.903320
7.000000 1.160000 -5.040000 -7.250381 71.654678 5186.960938
7.000000 1.160000 -5.000000 -58.391754 63.914719 7494.688477
7.000000 1.160000 -4.960000 -89.262177 15.631378 8212.076172
7.000000 1.160000 -4.920000 -73.666229 -42.172073 7205.197266
7.000000 1.160000 -4.880000 -21.391907 -69.736992 5320.861816
7.000000 1.160000 -4.840000 30.800064 -51.794781 3631.343262
7.000000 1.160000 -4.800000 51.002102 -7.452164 2656.749023
7.000000 1.200000 -5.200000 -28.161098 1.440673 795.123047
7.000000 1.200000 -5.160000 -14.754509 -11.739757 355.517426
7.000000 1.200000 -5.120000 2.955830 -6.738318 54.141861
7.000000 1.200000 -5.080000 6.141552 11.534662 170.767090
7.000000 1.200000 -5.040000 -10.637814 23.124123 647.888123
7.000000 1.200000 -5.000000 -32.062134 12.267021 1178.460327
7.000000 1.200000 -4.960000 -35.440353 -16.018440 1512.609131
7.000000 1.200000 -4.920000 -12.241310 -38.985882 1669.748535
7.000000 1.200000 -4.880000 23.244812 -36.272537 1856.018188
7.000000 1.200000 -4.840000 46.267464 -7.634705 2198.967041
7.000000 1.200000 -4.800000 42.455025 28.020176 2587.559326
7.040000 0.800000 -5.200000 -40.754078 4.284680 1679.253418
7.040000 0.800000 -5.160000 -38.812176 -24.154673 2089.833252
7.040000 0.800000 -5.120000 -16.524994 -46.356201 2421.972900
7.040000 0.800000 -5.080000 15.314653 -47.326504 2474.336426
7.040000 0.800000 -5.040000 36.741714 -26.968048 2077.229248
7.040000 0.800000 -5.000000 35.864117 -2.049284 1290.434448
7.040000 0.800000 -4.960000 20.042439 8.425022 472.680328
7.040000 0.800000 -4.920000 8.682858 0.900967 76.203751
7.040000 0.800000 -4.880000 13.961434 -10.030216 295.526886
7.040000 0.800000 -4.840000 28.837265 -7.194890 883.354248
7.040000 0.800000 -4.800000 34.821522 11.044348 1334.515991
7.040000 0.840000 -5.200000 -37.710297 -19.769394 1812.895508
7.040000 0.840000 -5.160000 -29.838470 -36.818291 2245.920898
7.040000 0.840000 -5.120000 -12.915140 -49.262554 2593.600098
7.040000 0.840000 -5.080000 8.613438 -51.031765 2678.432373
7.040000 0.840000 -5.040000 26.349796 -41.698784 2433.100342
7.040000 0.840000 -5.000000 34.864670 -27.625528 1978.714966
7.040000 0.840000 -4.960000 36.099606 -16.071140 1561.463135
7.040000 0.840000 -4.920000 36.055817 -8.439793 1371.252075
7.040000 0.840000 -4.880000 37.227890 -0.398537 1386.074585
7.040000 0.840000 -4.840000 35.600914 11.139963 1391.523804
7.040000 0.840000 -4.800000 26.041180 22.274410 1174.292480
7.040000 0.880000 -5.200000 -19.968304 -33.171738 1499.097290
7.040000 0.880000 -5.160000 -19.844404 -42.506161 2200.573975
7.040000 0.880000 -5.120000 -12.473761 -59.554726 3702.360107
7.040000 0.880000 -5.080000 10.083263 -74.651733 5674.553711
7.040000 0.880000 -5.040000 43.630539 -73.912720 7366.714355
7.040000 0.880000 -5.000000 73.178558 -51.700500 8028.042969
7.040000 0.880000 -4.960000 84.241699 -16.279160 7361.675293
7.040000 0.880000 -4.920000 73.572182 16.272408 5677.657227
7.040000 0.880000 -4.880000 50.252441 33.743080 3663.903320
7.040000 0.880000 -4.840000 27.519463 34.755219 1965.245972
7.040000 0.880000 -4.800000 13.622797 26.521217 888.955566
7.040000 0.920000 -5.200000 -1.079542 -30.911583 956.691345
7.040000 0.920000 -5.160000 -11.047322 -46.335052 2268.980225
7.040000 0.920000 -5.120000 -0.705408 -78.112038 6101.987793
7.040000 0.920000 -5.080000 41.600288 -100.457077 11822.208008
7.040000 0.920000 -5.040000 99.051712 -85.944504 17197.699219
7.040000 0.920000 -5.000000 136.517227 -31.713299 19642.685547
7.040000 0.920000 -4.960000 129.178040 34.760544 17895.261719
7.040000 0.920000 -4.920000 83.419548 76.820145 12860.155273
7.040000 0.920000 -4.880000 30.767826 77.564102 6962.849121
7.040000 0.920000 -4.840000 1.249794 50.511757 2552.999512
7.040000 0.920000 -4.800000 1.012547 24.075409 580.650574
7.040000 0.960000 -5.200000 9.086576 -19.546478 464.630676
7.040000 0.960000 -5.160000 0.701826 -49.445732 2445.373047
7.040000 0.960000 -5.120000 30.465799 -88.555321 8770.209961
7.040000 0.960000 -5.080000 97.165482 -95.533340 18567.750000
7.040000 0.960000 -5.040000 161.184280 -44.967064 28002.410156
7.040000 0.960000 -5.000000 174.472351 44.293381 32402.505859
7.040000 0.960000 -4.960000 122.620132 119.830185 29394.970703
7.040000 0.960000 -4.920000 39.054344 138.035233 20578.966797
7.040000 0.960000 -4.880000 -22.890860 99.354767 10395.361328
7.040000 0.960000 -4.840000 -34.083237 44.153107 3111.163818
7.040000 0.960000 -4.800000 -9.195822 14.794437 303.438538
7.040000 1.000000 -5.200000 10.084440 -7.869396 163.623337
7.040000 1.000000 -5.160000 16.662832 -45.863289 2381.091064
7.040000 1.000000 -5.120000 68.251328 -72.584579 9926.764648
7.040000 1.000000 -5.080000 141.103195 -45.680672 21996.835938
7.040000 1.000000 -5.040000 179.867737 39.756767 33933.003906
7.040000 1.000000 -5.000000 144.574677 137.372955 39773.164062
7.040000 1.000000 -4.960000 49.521698 183.992126 36305.500000
7.040000 1.000000 -4.920000 -45.139290 152.846527 25399.615234
7.040000 1.000000 -4.880000 -83.398361 75.596527 12670.121094
7.040000 1.000000 -4.840000 -58.563251 12.425549 3584.048828
7.040000 1.000000 -4.800000 -12.231349 -0.572340 149.933472
7.040000 1.040000 -5.200000 6.098650 0.614305 37.570900
7.040000 1.040000 -5.160000 29.120081 -30.723869 1791.935303
7.040000 1.040000 -5.120000 86.835793 -31.422764 8527.844727
7.040000 1.040000 -5.080000 138.575531 25.412474 19848.970703
7.040000 1.040000 -5.040000 132.377029 118.303276 31519.343750
7.040000 1.040000 -5.000000 54.256386 186.483231 37719.750000
7.040000 1.040000 -4.960000 -52.334068 179.714615 35036.199219
7.040000 1.040000 -4.920000 -119.616905 103.204895 24959.453125
7.040000 1.040000 -4.880000 -112.237778 13.762733 12786.731445
7.040000 1.040000 -4.840000 -54.436203 -29.992649 3862.859375
7.040000 1.040000 -4.800000 -3.030376 -15.943373 263.374329
7.040000 1.080000 -5.200000 -0.914666 6.279941 40.274265
7.040000 1.080000 -5.160000 27.529816 -9.775646 853.453979
7.040000 1.080000 -5.120000 71.561607 10.750740 5236.642090
7.040000 1.080000 -5.080000 88.846634 73.688461 13323.712891
7.040000 1.080000 -5.040000 46.620510 141.673767 22244.929688
7.040000 1.080000 -5.000000 -41.786354 160.757812 27589.173828
7.040000 1.080000 -4.960000 -120.961090 108.697914 26446.820312
7.040000 1.080000 -4.920000 -138.612122 18.163229 19543.222656
7.040000 1.080000 -4.880000 -90.376503 -49.778088 10645.769531
7.040000 1.080000 -4.840000 -21.303370 -57.768642 3791.049561
7.040000 1.080000 -4.800000 16.679495 -20.420286 695.193604
7.040000 1.120000 -5.200000 -11.334120 7.742596 188.410049
7.040000 1.120000 -5.160000 10.978140 2.663637 127.614517
7.040000 1.120000 -5.120000 34.484695 27.146584 1926.131226
7.040000 1.120000 -5.080000 27.250458 73.008820 6072.875000
7.040000 1.120000 -5.040000 -22.404648 103.602951 11235.539062
7.040000 1.120000 -5.000000 -87.477463 85.024704 14881.506836
7.040000 1.120000 -4.960000 -121.030899 20.257072 15058.827148
7.040000 1.120000 -4.920000 -97.114380 -49.012115 11833.390625
7.040000 1.120000 -4.880000 -34.487495 -77.163200 7143.546875
7.040000 1.120000 -4.840000 20.452341 -53.344337 3263.916748
7.040000 1.120000 -4.800000 34.773911 -7.168406 1260.610840
7.040000 1.160000 -5.200000 -22.582123 1.168791 511.318329
7.040000 1.160000 -5.160000 -7.713304 -2.966184 68.293297
7.040000 1.160000 -5.120000 4.261539 12.634277 177.785690
7.040000 1.160000 -5.080000 -6.461960 36.475830 1372.243164
7.040000 1.160000 -5.040000 -39.687828 42.373077 3370.601318
7.040000 1.160000 -5.000000 -70.307915 15.134918 5172.268555
7.040000 1.160000 -4.960000 -69.489456 -31.362129 5812.367676
7.040000 1.160000 -4.920000 -32.227859 -63.709660 5097.555664
7.040000 1.160000 -4.880000 16.484459 -58.236294 3663.203125
7.040000 1.160000 -4.840000 43.559509 -21.566246 2362.533936
7.040000 1.160000 -4.800000 36.174995 17.264521 1606.693848
7.040000 1.200000 -5.200000 -27.244114 -13.865671 934.498596
7.040000 1.200000 -5.160000 -12.664169 -20.837502 594.582642
7.040000 1.200000 -5.120000 0.034409 -12.800425 163.852066
7.040000 1.200000 -5.080000 -1.687197 0.685730 3.316858
7.040000 1.200000 -5.040000 -15.200967 3.310837 242.031036
7.040000 1.200000 -5.000000 -24.099529 -10.736832 696.066833
7.040000 1.200000 -4.960000 -14.467724 -29.447748 1076.484863
7.040000 1.200000 -4.920000 10.478622 -33.806717 1252.695679
7.040000 1.200000 -4.880000 32.474674 -16.017044 1311.150146
7.040000 1.200000 -4.840000 34.844124 13.194788 1388.215332
7.040000 1.200000 -4.800000 16.785927 34.846317 1496.033203
7.080000 0.800000 -5.200000 -24.908810 -9.145505 704.089050
7.080000 0.800000 -5.160000 -15.661562 -27.928112 1025.263916
7.080000 0.800000 -5.120000 7.929798 -38.350288 1533.626343
7.080000 0.800000 -5.080000 35.094284 -29.165712 2082.247559
7.080000 0.800000 -5.040000 48.322868 -3.173360 2345.169922
7.080000 0.800000 -5.000000 39.358543 22.532463 2056.806885
7.080000 0.800000 -4.960000 17.859844 31.260967 1296.222046
7.080000 0.800000 -4.920000 2.579433 22.133160 496.530243
7.080000 0.800000 -4.880000 3.247735 9.968184 109.912468
7.080000 0.800000 -4.840000 11.895044 9.290436 227.804276
7.080000 0.800000 -4.800000 12.800861 19.199020 532.464417
7.080000 0.840000 -5.200000 -16.695770 -24.377499 873.011230
7.080000 0.840000 -5.160000 -6.175764 -35.959545 1331.228882
7.080000 0.840000 -5.120000 14.446815 -41.225731 1908.271362
7.080000 0.840000 -5.080000 37.338852 -31.362303 2377.783936
7.080000 0.840000 -5.040000 49.148212 -8.374143 2485.673096
7.080000 0.840000 -5.000000 43.631958 14.878475 2125.116699
7.080000 0.840000 -4.960000 27.760479 26.176933 1455.875977
7.080000 0.840000 -4.920000 14.451614 24.776268 822.712646
7.080000 0.840000 -4.880000 9.829746 20.048191 498.553864
7.080000 0.840000 -4.840000 8.892889 19.862112 473.586975
7.080000 0.840000 -4.800000 3.872319 22.096569 503.253204
7.080000 0.880000 -5.200000 -1.771132 -28.956331 841.606018
7.080000 0.880000 -5.160000 4.089869 -38.851711 1526.182495
7.080000 0.880000 -5.120000 22.622751 -46.760803 2698.361572
7.080000 0.880000 -5.080000 48.768761 -39.790966 3961.712891
7.080000 0.880000 -5.040000 67.480400 -14.746475 4771.062988
7.080000 0.880000 -5.000000 66.668900 17.563114 4753.205078
7.080000 0.880000 -4.960000 47.439232 41.032166 3934.119141
7.080000 0.880000 -4.920000 22.174782 47.029121 2703.459229
7.080000 0.880000 -4.880000 3.567131 39.149864 1545.436279
7.080000 0.880000 -4.840000 -4.107369 27.164251 754.767029
7.080000 0.880000 -4.800000 -4.378710 18.045593 344.816528
7.080000 0.920000 -5.200000 10.498829 -23.800072 676.668823
7.080000 0.920000 -5.160000 15.006060 -39.059742 1750.845215
7.080000 0.920000 -5.120000 39.848152 -50.578087 4146.018066
7.080000 0.920000 -5.080000 75.795418 -38.592403 7234.318848
7.080000 0.920000 -5.040000 98.678185 1.039295 9738.463867
7.080000 0.920000 -5.000000 89.255356 50.012428 10467.761719
7.080000 0.920000 -4.960000 50.250233 80.835960 9059.539062
7.080000 0.920000 -4.920000 4.803118 78.582466 6198.273926
7.080000 0.920000 -4.880000 -22.137812 51.646130 3157.405518
7.080000 0.920000 -4.840000 -22.469881 22.797758 1024.633301
7.080000 0.920000 -4.800000 -7.876206 9.949008 161.017380
7.080000 0.960000 -5.200000 16.668350 -14.566771 490.024719
7.080000 0.960000 -5.160000 28.090279 -34.373306 1970.587891
7.080000 0.960000 -5.120000 63.928963 -40.349762 5715.015625
7.080000 0.960000 -5.080000 103.971222 -11.309788 10937.925781
7.080000 0.960000 -5.040000 115.021950 47.704201 15505.739258
7.080000 0.960000 -5.000000 79.776459 103.887070 17156.806641
7.080000 0.960000 -4.960000 14.826120 121.556564 14995.811523
7.080000 0.960000 -4.920000 -40.666336 91.972206 10112.637695
7.080000 0.960000 -4.880000 -56.592873 40.513809 4844.122070
7.080000 0.960000 -4.840000 -35.275497 4.400117 1263.721802
7.080000 0.960000 -4.800000 -5.809474 1.681195 36.576397
7.080000 1.000000 -5.200000 17.821978 -4.629133 339.051758
7.080000 1.000000 -5.160000 39.121868 -20.289513 1942.184814
7.080000 1.000000 -5.120000 78.973389 -10.573995 6348.605469
7.080000 1.000000 -5.080000 106.962921 37.446182 12843.283203
7.080000 1.000000 -5.040000 90.398834 103.157104 18813.337891
7.080000 1.000000 -5.000000 26.396996 143.305923 21233.388672
7.080000 1.000000 -4.960000 -49.584740 127.573593 18733.667969
7.080000 1.000000 -4.920000 -90.519028 66.500580 12616.021484
7.080000 1.000000 -4.880000 -76.997604 3.905087 5943.880371
7.080000 1.000000 -4.840000 -32.308304 -20.533543 1465.452881
7.080000 1.000000 -4.800000 0.755243 -3.812450 15.105167
7.080000 1.040000 -5.200000 14.040951 5.266956 224.889130
7.080000 1.040000 -5.160000 38.552048 0.995070 1487.250488
7.080000 1.040000 -5.120000 68.627373 25.973160 5384.321289
7.080000 1.040000 -5.080000 72.205475 79.438698 11524.136719
7.080000 1.040000 -5.040000 28.610607 129.185272 17507.400391
7.080000 1.040000 -5.000000 -45.921860 134.733490 20261.929688
7.080000 1.040000 -4.960000 -105.311737 84.340111 18203.816406
7.080000 1.040000 -4.920000 -111.146790 9.556546 12444.935547
7.080000 1.040000 -4.880000 -66.402580 -39.749611 5989.334473
7.080000 1.040000 -4.840000 -12.256235 -38.085037 1600.685425
7.080000 1.040000 -4.800000 9.782491 -4.205379 113.382347
7.080000 1.080000 -5.200000 3.772918 12.248063 164.249954
7.080000 1.080000 -5.160000 21.764534 17.239098 770.881470
7.080000 1.080000 -5.120000 34.337196 45.432869 3243.188477
7.080000 1.080000 -5.080000 17.014236 85.569199 7611.572266
7.080000 1.080000 -5.040000 -34.784786 105.144272 12265.299805
7.080000 1.080000 -5.000000 -92.979202 78.459557 14801.033203
7.080000 1.080000 -4.960000 -116.400391 14.382832 13755.916992
7.080000 1.080000 -4.920000 -87.232498 -46.195099 9743.496094
7.080000 1.080000 -4.880000 -28.797541 -64.398933 4976.520996
7.080000 1.080000 -4.840000 14.640579 -37.242626 1601.359741
7.080000 1.080000 -4.800000 17.510517 1.938464 310.375824
7.080000 1.120000 -5.200000 -10.823675 10.232525 221.856506
7.080000 1.120000 -5.160000 -2.182204 15.447939 243.400833
7.080000 1.120000 -5.120000 -1.734867 34.186729 1171.742188
7.080000 1.120000 -5.080000 -23.433006 52.755951 3332.296143
7.080000 1.120000 -5.040000 -61.265747 47.775036 6035.945801
7.080000 1.120000 -5.000000 -88.180031 10.368057 7883.214355
7.080000 1.120000 -4.960000 -78.855705 -39.815628 7803.506348
7.080000 1.120000 -4.920000 -35.144588 -68.339348 5905.408691
7.080000 1.120000 -4.880000 12.737186 -56.479511 3352.171143
7.080000 1.120000 -4.840000 32.597908 -18.411900 1401.621704
7.080000 1.120000 -4.800000 18.767628 12.829784 516.827209
7.080000 1.160000 -5.200000 -20.823547 -3.692494 447.254639
7.080000 1.160000 -5.160000 -15.361898 -4.241709 253.980026
7.080000 1.160000 -5.120000 -14.867033 2.989070 229.963211
7.080000 1.160000 -5.080000 -26.203653 7.650608 745.163269
7.080000 1.160000 -5.040000 -41.661667 -2.988293 1744.624390
7.080000 1.160000 -5.000000 -43.695492 -28.136971 2700.985107
7.080000 1.160000 -4.960000 -22.719875 -50.189545 3035.183105
7.080000 1.160000 -4.920000 10.707542 -49.844307 2599.106201
7.080000 1.160000 -4.880000 33.554600 -25.104221 1756.133057
7.080000 1.160000 -4.840000 31.258701 5.928644 1012.255188
7.080000 1.160000 -4.800000 10.622063 21.999752 596.817322
7.080000 1.200000 -5.200000 -16.478123 -22.580843 781.422974
7.080000 1.200000 -5.160000 -7.062645 -25.754133 713.156372
7.080000 1.200000 -5.120000 -0.021485 -21.803255 475.382385
7.080000 1.200000 -5.080000 0.492948 -17.224451 296.924713
7.080000 1.200000 -5.040000 -1.080401 -18.306355 336.289886
7.080000 1.200000 -5.000000 3.109264 -23.129911 544.660339
7.080000 1.200000 -4.960000 14.566357 -22.919117 737.464722
7.080000 1.200000 -4.920000 25.328386 -11.755116 779.709900
7.080000 1.200000 -4.880000 25.500040 6.109661 687.579956
7.080000 1.200000 -4.840000 13.325315 19.665911 564.312073
7.080000 1.200000 -4.800000 -3.170356 21.601852 476.691162
7.120000 0.800000 -5.200000 -8.974585 -4.045105 96.906044
7.120000 0.800000 -5.160000 -2.271060 -14.905787 227.340179
7.120000 0.800000 -5.120000 17.169586 -18.925726 652.977783
7.120000 0.800000 -5.080000 38.065128 -4.162477 1466.280151
7.120000 0.800000 -5.040000 41.896919 24.998575 2380.280518
7.120000 0.800000 -5.000000 21.905355 48.636448 2845.348633
7.120000 0.800000 -4.960000 -8.182706 49.412502 2508.552246
7.120000 0.800000 -4.920000 -26.275387 29.478512 1559.378662
7.120000 0.800000 -4.880000 -22.924587 7.961380 588.920227
7.120000 0.800000 -4.840000 -9.094823 1.333164 84.493134
7.120000 0.800000 -4.800000 -2.682478 7.617308 65.219063
7.120000 0.840000 -5.200000 -4.422470 -12.112419 166.268936
7.120000 0.840000 -5.160000 4.573498 -20.535755 442.634125
7.120000 0.840000 -5.120000 24.592756 -18.900017 962.014282
7.120000 0.840000 -5.080000 41.024910 1.312423 1684.765625
7.120000 0.840000 -5.040000 37.466946 30.594044 2339.767578
7.120000 0.840000 -5.000000 13.326214 48.603672 2539.904785
7.120000 0.840000 -4.960000 -14.243893 43.587711 2102.777100
7.120000 0.840000 -4.920000 -26.639166 23.406704 1257.518921
7.120000 0.840000 -4.880000 -21.013966 6.512136 483.994659
7.120000 0.840000 -4.840000 -10.336954 3.096359 116.440063
7.120000 0.840000 -4.800000 -7.306245 6.936161 101.491547
7.120000 0.880000 -5.200000 3.729215 -15.316648 248.506729
7.120000 0.880000 -5.160000 13.873426 -22.421438 695.192871
7.120000 0.880000 -5.120000 33.249096 -17.170380 1400.324219
7.120000 0.880000 -5.080000 46.004021 5.595779 2147.682617
7.120000 0.880000 -5.040000 38.416786 34.138371 2641.277832
7.120000 0.880000 -5.000000 12.809130 49.814716 2645.579590
7.120000 0.880000 -4.960000 -14.307401 44.007137 2141.329834
7.120000 0.880000 -4.920000 -27.380596 24.751347 1362.326172
7.120000 0.880000 -4.880000 -24.399256 7.422890 650.422974
7.120000 0.880000 -4.840000 -15.033943 0.462690 226.233536
7.120000 0.880000 -4.800000 -8.622739 0.874100 75.115677
7.120000 0.920000 -5.200000 12.538453 -13.555325 340.959625
7.120000 0.920000 -5.160000 25.158585 -19.159401 1000.037048
7.120000 0.920000 -5.120000 44.481228 -9.898253 2076.554932
7.120000 0.920000 -5.080000 54.049500 16.399904 3190.305176
7.120000 0.920000 -5.040000 41.646210 46.378201 3885.344238
7.120000 0.920000 -5.000000 10.842645 61.304214 3875.769775
7.120000 0.920000 -4.960000 -21.181993 52.338524 3187.997803
7.120000 0.920000 -4.920000 -37.252274 27.121479 2123.306641
7.120000 0.920000 -4.880000 -32.755188 2.611197 1079.720703
7.120000 0.920000 -4.840000 -16.869524 -8.316247 353.740814
7.120000 0.920000 -4.800000 -3.270450 -4.763229 33.384193
7.120000 0.960000 -5.200000 20.057537 -6.561240 445.354645
7.120000 0.960000 -5.160000 35.154495 -7.549881 1292.839233
7.120000 0.960000 -5.120000 52.283669 7.949052 2796.769531
7.120000 0.960000 -5.080000 54.970757 38.529491 4506.305664
7.120000 0.960000 -5.040000 32.974564 68.027847 5715.109863
7.120000 0.960000 -5.000000 -6.664217 76.298279 5865.838867
7.120000 0.960000 -4.960000 -42.347912 55.613628 4886.221191
7.120000 0.960000 -4.920000 -53.736046 18.331505 3223.606934
7.120000 0.960000 -4.880000 -37.748390 -11.867146 1565.770020
7.120000 0.960000 -4.840000 -10.716803 -18.407619 453.690308
7.120000 0.960000 -4.800000 5.397095 -4.229384 47.016327
7.120000 1.000000 -5.200000 22.550051 5.584315 539.689392
7.120000 1.000000 -5.160000 35.908539 11.736792 1427.175537
7.120000 1.000000 -5.120000 45.381786 32.584419 3121.250977
7.120000 1.000000 -5.080000 36.414291 62.637589 5249.468262
7.120000 1.000000 -5.040000 3.465905 83.234184 6939.941895
7.120000 1.000000 -5.000000 -40.057343 75.653244 7328.004395
7.120000 1.000000 -4.960000 -68.224182 38.771881 6157.797852
7.120000 1.000000 -4.920000 -62.923698 -6.017133 3995.597656
7.120000 1.000000 -4.880000 -30.498205 -30.320107 1849.449341
7.120000 1.000000 -4.840000 2.245613 -22.430265 508.159607
7.120000 1.000000 -4.800000 10.881052 2.635497 125.343132
7.120000 1.040000 -5.200000 15.424314 18.564339 582.544189
7.120000 1.040000 -5.160000 21.232327 29.241558 1305.880371
7.120000 1.040000 -5.120000 19.463661 48.804024 2760.666992
7.120000 1.040000 -5.080000 0.013687 69.099152 4774.692871
7.120000 1.040000 -5.040000 -36.001320 72.516190 6554.692871
7.120000 1.040000 -5.000000 -70.035927 47.137039 7126.931641
7.120000 1.040000 -4.960000 -77.932510 2.020505 6077.558594
7.120000 1.040000 -4.920000 -51.822868 -35.312836 3932.605957
7.120000 1.040000 -4.880000 -10.446991 -40.986916 1789.066895
7.120000 1.040000 -4.840000 15.221552 -16.755598 512.445679
7.120000 1.040000 -4.800000 9.631238 10.764876 208.643311
7.120000 1.080000 -5.200000 -0.835938 23.450516 550.625488
7.120000 1.080000 -5.160000 -4.000286 31.452255 1005.246704
7.120000 1.080000 -5.120000 -13.445748 41.562950 1908.267090
7.120000 1.080000 -5.080000 -33.979534 46.292320 3297.587891
7.120000 1.080000 -5.040000 -59.622787 33.599129 4683.778320
7.120000 1.080000 -5.000000 -72.648392 1.096914 5278.992188
7.120000 1.080000 -4.960000 -58.232872 -35.218094 4631.381348
7.120000 1.080000 -4.920000 -21.486332 -50.978230 3060.442139
7.120000 1.080000 -4.880000 12.790176 -35.607155 1431.458130
7.120000 1.080000 -4.840000 21.101780 -4.297126 463.750427
7.120000 1.080000 -4.800000 3.534913 14.837516 232.647476
7.120000 1.120000 -5.200000 -16.804195 13.776186 472.164276
7.120000 1.120000 -5.160000 -23.520880 13.535213 736.433838
7.120000 1.120000 -5.120000 -31.394865 11.937603 1128.143921
7.120000 1.120000 -5.080000 -41.815613 5.059269 1774.141724
7.120000 1.120000 -5.040000 -48.785072 -11.882313 2521.172852
7.120000 1.120000 -5.000000 -41.677612 -34.753109 2944.801758
7.120000 1.120000 -4.960000 -17.391417 -48.990662 2702.546387
7.120000 1.120000 -4.920000 11.774872 -41.755867 1882.200073
7.120000 1.120000 -4.880000 26.218399 -16.350567 954.745483
7.120000 1.120000 -4.840000 17.383432 7.963217 365.596558
7.120000 1.120000 -4.800000 -2.795310 13.317291 185.164017
7.120000 1.160000 -5.200000 -19.576805 -5.947899 418.628815
7.120000 1.160000 -5.160000 -22.267878 -12.865422 661.377441
7.120000 1.160000 -5.120000 -21.429773 -20.066866 861.914307
7.120000 1.160000 -5.080000 -18.001036 -27.419867 1075.886353
7.120000 1.160000 -5.040000 -10.183397 -34.769112 1312.592651
7.120000 1.160000 -5.000000 3.756091 -37.923447 1452.296143
7.120000 1.160000 -4.960000 19.835524 -30.869934 1346.400879
7.120000 1.160000 -4.920000 28.479252 -13.334917 988.887817
7.120000 1.160000 -4.880000 22.849504 5.514338 552.507812
7.120000 1.160000 -4.840000 7.081436 13.721590 238.428772
7.120000 1.160000 -4.800000 -5.994769 8.145764 102.290733
7.120000 1.200000 -5.200000 -4.774152 -20.762997 453.894531
7.120000 1.200000 -5.160000 -1.191000 -27.294533 746.409973
7.120000 1.200000 -5.120000 7.226820 -31.488382 1043.745117
7.120000 1.200000 -5.080000 18.329468 -30.509703 1266.811401
7.120000 1.200000 -5.040000 28.745008 -23.067640 1358.391602
7.120000 1.200000 -5.000000 34.355240 -9.916799 1278.625366
7.120000 1.200000 -4.960000 31.645351 5.174501 1028.203735
7.120000 1.200000 -4.920000 20.535925 15.968243 676.708984
7.120000 1.200000 -4.880000 6.166677 17.476246 343.447083
7.120000 1.200000 -4.840000 -3.738592 10.510902 124.456146
7.120000 1.200000 -4.800000 -5.129539 1.960997 30.157684
7.160000 0.800000 -5.200000 -7.622877 9.577744 149.841431
7.160000 0.800000 -5.160000 -6.014644 -1.372268 38.059055
7.160000 0.800000 -5.120000 10.518503 -4.044024 126.993034
7.160000 0.800000 -5.080000 25.475794 13.962386 843.964294
7.160000 0.800000 -5.040000 18.186012 42.546139 2140.905029
7.160000 0.800000 -5.000000 -12.824865 56.526318 3359.701660
7.160000 0.800000 -4.960000 -45.402020 40.775383 3723.975098
7.160000 0.800000 -4.920000 -54.432465 6.450867 3004.507080
7.160000 0.800000 -4.880000 -36.244450 -19.640577 1699.412476
7.160000 0.800000 -4.840000 -10.851867 -21.464230 578.476196
7.160000 0.800000 -4.800000 -0.043075 -7.861248 61.801067
7.160000 0.840000 -5.200000 -9.351490 1.117150 88.698387
7.160000 0.840000 -5.160000 -1.530437 -8.004898 66.420631
7.160000 0.840000 -5.120000 15.433143 -1.788523 241.380707
7.160000 0.840000 -5.080000 20.746090 22.217747 924.028503
7.160000 0.840000 -5.040000 1.434877 45.116425 2037.550659
7.160000 0.840000 -5.000000 -31.820450 44.734165 3013.686523
7.160000 0.840000 -4.960000 -53.565449 18.613647 3215.725098
7.160000 0.840000 -4.920000 -48.284702 -12.916828 2498.257080
7.160000 0.840000 -4.880000 -24.771851 -26.982204 1341.683960
7.160000 0.840000 -4.840000 -5.239934 -19.849644 421.465271
7.160000 0.840000 -4.800000 -1.946193 -7.275456 56.719925
7.160000 0.880000 -5.200000 -3.678511 -6.939027 61.681541
7.160000 0.880000 -5.160000 7.972930 -10.209198 167.795334
7.160000 0.880000 -5.120000 19.677843 3.063281 396.601196
7.160000 0.880000 -5.080000 14.466715 25.637838 866.584595
7.160000 0.880000 -5.040000 -9.842038 37.812683 1526.664673
7.160000 0.880000 -5.000000 -36.790390 26.907913 2077.568604
7.160000 0.880000 -4.960000 -46.621624 0.073397 2173.581299
7.160000 0.880000 -4.920000 -34.700512 -22.869648 1727.146240
7.160000 0.880000 -4.880000 -14.075491 -28.385347 1003.847412
7.160000 0.880000 -4.840000 -0.857812 -19.924690 397.729126
7.160000 0.880000 -4.800000 0.863862 -10.512499 111.258888
7.160000 0.920000 -5.200000 8.108168 -8.215771 133.241272
7.160000 0.920000 -5.160000 18.741341 -3.697715 364.910950
7.160000 0.920000 -5.120000 21.953817 12.165230 629.962891
7.160000 0.920000 -5.080000 9.576319 28.170132 885.262207
7.160000 0.920000 -5.040000 -13.204187 30.584332 1109.751831
7.160000 0.920000 -5.000000 -31.807320 15.688678 1257.840210
7.160000 0.920000 -4.960000 -34.775913 -7.110693 1259.926147
7.160000 0.920000 -4.920000 -22.606779 -23.842999 1079.555054
7.160000 0.920000 -4.880000 -5.465449 -27.124435 765.606140
7.160000 0.920000 -4.840000 6.355951 -19.754223 430.627411
7.160000 0.920000 -4.800000 9.311004 -9.453257 176.058838
7.160000 0.960000 -5.200000 18.713495 1.550390 352.598633
7.160000 0.960000 -5.160000 22.674192 12.012447 658.417908
7.160000 0.960000 -5.120000 17.061684 25.128578 922.546509
7.160000 0.960000 -5.080000 1.879121 32.485371 1058.830444
7.160000 0.960000 -5.040000 -16.361191 28.110039 1057.862793
7.160000 0.960000 -5.000000 -28.510174 12.467328 968.264282
7.160000 0.960000 -4.960000 -28.170965 -7.515733 850.089539
7.160000 0.960000 -4.920000 -15.524346 -22.162001 732.159607
7.160000 0.960000 -4.880000 2.367599 -24.444809 603.154236
7.160000 0.960000 -4.840000 15.214367 -14.410146 439.129272
7.160000 0.960000 -4.800000 15.760361 0.181632 248.421967
7.160000 1.000000 -5.200000 18.404379 18.636112 686.025879
7.160000 1.000000 -5.160000 12.350430 29.221718 1006.441895
7.160000 1.000000 -5.120000 0.540589 34.646400 1200.665283
7.160000 1.000000 -5.080000 -13.310258 32.962120 1263.664307
7.160000 1.000000 -5.040000 -25.559275 23.618298 1211.100586
7.160000 1.000000 -5.000000 -31.587498 7.406179 1052.621460
7.160000 1.000000 -4.960000 -26.511177 -10.999278 823.826660
7.160000 1.000000 -4.920000 -9.954419 -22.486332 604.725586
7.160000 1.000000 -4.880000 9.846285 -19.189636 465.191467
7.160000 1.000000 -4.840000 19.653309 -2.967012 395.055725
7.160000 1.000000 -4.800000 12.329653 12.967677 320.180969
7.160000 1.040000 -5.200000 3.731497 31.231451 989.327576
7.160000 1.040000 -5.160000 -10.545588 34.797890 1322.102661
7.160000 1.040000 -5.120000 -23.114475 29.654572 1413.672607
7.160000 1.040000 -5.080000 -31.135759 19.946953 1367.316406
7.160000 1.040000 -5.040000 -34.858185 7.520409 1271.649536
7.160000 1.040000 -5.000000 -32.420494 -7.327074 1104.774414
7.160000 1.040000 -4.960000 -20.402248 -20.345699 830.199219
7.160000 1.040000 -4.920000 -0.871542 -22.882284 524.358521
7.160000 1.040000 -4.880000 15.083904 -10.409619 335.884338
7.160000 1.040000 -4.840000 15.309438 9.012259 315.599701
7.160000 1.040000 -4.800000 -0.036029 18.646961 347.710480
7.160000 1.080000 -5.200000 -16.764919 28.206079 1076.645508
7.160000 1.080000 -5.160000 -32.592476 20.853374 1497.132812
7.160000 1.080000 -5.120000 -39.246948 6.319479 1580.258789
7.160000 1.080000 -5.080000 -37.113930 -7.595901 1435.141479
7.160000 1.080000 -5.040000 -29.897158 -18.282410 1228.086548
7.160000 1.080000 -5.000000 -18.547583 -25.642067 1001.528442
7.160000 1.080000 -4.960000 -3.072838 -26.671638 720.818604
7.160000 1.080000 -4.920000 11.449178 -17.111435 423.884888
7.160000 1.080000 -4.880000 15.426377 0.581494 238.311249
7.160000 1.080000 -4.840000 4.608132 14.410551 228.898865
7.160000 1.080000 -4.800000 -11.711217 12.499416 293.388000
7.160000 1.120000 -5.200000 -27.573908 10.100771 862.345947
7.160000 1.120000 -5.160000 -37.548832 -5.897363 1444.693726
7.160000 1.120000 -5.120000 -33.814953 -24.197197 1728.955322
7.160000 1.120000 -5.080000 -20.192871 -35.550156 1671.565674
7.160000 1.120000 -5.040000 -3.753983 -37.282951 1404.110840
7.160000 1.120000 -5.000000 10.630788 -30.790077 1061.042480
7.160000 1.120000 -4.960000 19.737844 -17.883238 709.392700
7.160000 1.120000 -4.920000 19.925016 -1.766047 400.125214
7.160000 1.120000 -4.880000 9.676305 10.514452 204.184570
7.160000 1.120000 -4.840000 -5.384355 11.190548 154.219635
7.160000 1.120000 -4.800000 -13.542576 0.071527 183.406479
7.160000 1.160000 -5.200000 -19.592947 -8.996805 464.826080
7.160000 1.160000 -5.160000 -20.822659 -26.888508 1156.574951
7.160000 1.160000 -5.120000 -7.471412 -41.790340 1802.254517
7.160000 1.160000 -5.080000 13.741609 -44.071770 2131.152832
7.160000 1.160000 -5.040000 32.013523 -32.111515 2056.015137
7.160000 1.160000 -5.000000 39.041183 -11.678083 1660.591675
7.160000 1.160000 -4.960000 32.427731 8.018842 1115.859619
7.160000 1.160000 -4.920000 16.120722 18.484196 601.543213
7.160000 1.160000 -4.880000 -1.076212 15.772709 249.936584
7.160000 1.160000 -4.840000 -9.533771 3.394257 102.413765
7.160000 1.160000 -4.800000 -5.156252 -8.466968 98.276474
7.160000 1.200000 -5.200000 0.314555 -12.698527 161.351532
7.160000 1.200000 -5.160000 4.492249 -26.746452 735.553040
7.160000 1.200000 -5.120000 21.990604 -34.314354 1661.061523
7.160000 1.200000 -5.080000 43.413414 -25.696957 2545.058105
7.160000 1.200000 -5.040000 54.449699 -2.092690 2969.149170
7.160000 1.200000 -5.000000 46.360664 24.219048 2735.873535
7.160000 1.200000 -4.960000 22.857815 38.140743 1977.196045
7.160000 1.200000 -4.920000 -1.986052 32.548206 1063.330200
7.160000 1.200000 -4.880000 -13.707058 13.594923 372.705383
7.160000 1.200000 -4.840000 -8.065834 -3.871790 80.048431
7.160000 1.200000 -4.800000 6.003162 -7.815506 97.120102
7.200000 0.800000 -5.200000 -19.758297 15.319030 625.062988
7.200000 0.800000 -5.160000 -17.734406 -0.730578 315.042877
7.200000 0.800000 -5.120000 -0.702651 -2.276339 5.675436
7.200000 0.800000 -5.080000 7.888375 17.646500 373.625427
7.200000 0.800000 -5.040000 -9.792000 39.670689 1669.646851
7.200000 0.800000 -5.000000 -44.264015 37.071678 3333.612305
7.200000 0.800000 -4.960000 -65.882088 4.636110 4361.943359
7.200000 0.800000 -4.920000 -54.383488 -34.009254 4114.193359
7.200000 0.800000 -4.880000 -19.528769 -49.285484 2810.431885
7.200000 0.800000 -4.840000 9.314300 -34.621246 1285.386963
7.200000 0.800000 -4.800000 13.146744 -10.775604 288.950500
7.200000 0.840000 -5.200000 -22.955025 1.054574 528.045288
7.200000 0.840000 -5.160000 -12.782513 -9.759449 258.639465
7.200000 0.840000 -5.120000 0.954103 -1.360702 2.761820
7.200000 0.840000 -5.080000 -3.294156 19.022207 372.695831
7.200000 0.840000 -5.040000 -28.885347 27.321974 1580.853516
7.200000 0.840000 -5.000000 -54.885727 8.244165 3080.409424
7.200000 0.840000 -4.960000 -56.506432 -27.138489 3929.474365
7.200000 0.840000 -4.920000 -30.499731 -51.382675 3570.412842
7.200000 0.840000 -4.880000 1.708830 -47.839947 2291.580566
7.200000 0.840000 -4.840000 16.258413 -25.901129 935.204468
7.200000 0.840000 -4.800000 10.010948 -8.742044 176.642426
7.200000 0.880000 -5.200000 -12.765762 -10.935741 282.555115
7.200000 0.880000 -5.160000 -1.336372 -11.412853 132.039108
7.200000 0.880000 -5.120000 2.159348 1.538388 7.029425
7.200000 0.880000 -5.080000 -11.752611 12.735670 300.321167
7.200000 0.880000 -5.040000 -33.391693 5.698555 1147.478638
7.200000 0.880000 -5.000000 -42.551735 -19.206186 2179.527832
7.200000 0.880000 -4.960000 -28.860806 -43.903240 2760.440674
7.200000 0.880000 -4.920000 -2.179105 -50.116196 2516.381592
7.200000 0.880000 -4.880000 17.697289 -36.581993 1651.436279
7.200000 0.880000 -4.840000 20.389635 -18.130989 744.469971
7.200000 0.880000 -4.800000 12.673726 -8.960018 240.905273
7.200000 0.920000 -5.200000 4.278870 -9.320808 105.186203
7.200000 0.920000 -5.160000 7.916113 -1.487088 64.876274
7.200000 0.920000 -5.120000 0.252099 6.968524 48.623886
7.200000 0.920000 -5.080000 -14.421381 4.645961 229.561172
7.200000 0.920000 -5.040000 -23.412651 -10.744141 663.588745
7.200000 0.920000 -5.000000 -17.684280 -29.438400 1179.353149
7.200000 0.920000 -4.960000 -0.275271 -38.582718 1488.701904
7.200000 0.920000 -4.920000 17.159142 -33.592129 1422.867310
7.200000 0.920000 -4.880000 25.252068 -20.632839 1063.380981
7.200000 0.920000 -4.840000 23.755711 -9.061435 646.443420
7.200000 0.920000 -4.800000 18.446327 -2.947311 348.953644
7.200000 0.960000 -5.200000 13.624378 7.147860 236.715576
7.200000 0.960000 -5.160000 4.763814 14.689356 238.471100
7.200000 0.960000 -5.120000 -8.223316 11.536125 200.705109
7.200000 0.960000 -5.080000 -14.843644 -1.468739 222.490967
7.200000 0.960000 -5.040000 -10.075764 -15.543536 343.122528
7.200000 0.960000 -5.000000 2.212635 -22.320929 503.119598
7.200000 0.960000 -4.960000 14.344850 -20.207439 614.115295
7.200000 0.960000 -4.920000 21.738426 -13.105036 644.301147
7.200000 0.960000 -4.880000 24.382067 -4.891436 618.411316
7.200000 0.960000 -4.840000 23.229935 3.111765 549.312988
7.200000 0.960000 -4.800000 17.790867 9.686916 410.351318
7.200000 1.000000 -5.200000 5.165791 26.184013 712.287903
7.200000 1.000000 -5.160000 -12.835207 23.938408 737.789917
7.200000 1.000000 -5.120000 -22.166857 8.102741 557.023926
7.200000 1.000000 -5.080000 -16.466244 -8.481807 343.078217
7.200000 1.000000 -5.040000 -2.439861 -14.875200 227.224503
7.200000 1.000000 -5.000000 9.151711 -11.074258 206.393005
7.200000 1.000000 -4.960000 14.227023 -4.233017 220.326614
7.200000 1.000000 -4.920000 16.025040 1.235866 258.329285
7.200000 1.000000 -4.880000 17.155024 6.990520 343.162201
7.200000 1.000000 -4.840000 14.834070 14.562157 432.106049
7.200000 1.000000 -4.800000 5.959940 19.331991 409.246765
7.200000 1.040000 -5.200000 -16.350224 31.544254 1262.369751
7.200000 1.040000 -5.160000 -34.305222 15.615032 1420.677490
7.200000 1.040000 -5.120000 -32.965572 -7.888171 1148.952271
7.200000 1.040000 -5.080000 -15.762312 -21.004854 689.654358
7.200000 1.040000 -5.040000 2.239338 -17.932465 326.587921
7.200000 1.040000 -5.000000 10.491092 -6.875556 157.336273
7.200000 1.040000 -4.960000 10.566441 2.180717 116.405190
7.200000 1.040000 -4.920000 8.985419 7.614403 138.716888
7.200000 1.040000 -4.880000 6.891933 13.164181 220.794403
7.200000 1.040000 -4.840000 0.380267 18.251614 333.265991
7.200000 1.040000 -4.800000 -10.039486 16.299320 366.459106
7.200000 1.080000 -5.200000 -34.090469 17.879095 1481.822266
7.200000 1.080000 -5.160000 -43.375393 -7.849978 1943.046875
7.200000 1.080000 -5.120000 -29.542419 -31.294641 1852.109131
7.200000 1.080000 -5.080000 -4.588216 -36.381599 1344.672485
7.200000 1.080000 -5.040000 13.809930 -24.029335 768.123108
7.200000 1.080000 -5.000000 18.131493 -6.761334 374.466675
7.200000 1.080000 -4.960000 13.007352 5.494941 199.385590
7.200000 1.080000 -4.920000 5.322668 11.718711 165.658981
7.200000 1.080000 -4.880000 -3.104575 14.101547 208.492020
7.200000 1.080000 -4.840000 -12.212129 11.431686 279.819550
7.200000 1.080000 -4.800000 -17.365202 1.810483 304.828094
7.200000 1.120000 -5.200000 -33.938919 -3.437585 1163.667236
7.200000 1.120000 -5.160000 -31.881069 -30.900379 1971.236084
7.200000 1.120000 -5.120000 -8.733241 -48.018440 2382.040039
7.200000 1.120000 -5.080000 19.362314 -43.107334 2233.141602
7.200000 1.120000 -5.040000 35.134239 -21.537231 1698.267090
7.200000 1.120000 -5.000000 32.921471 2.132098 1088.369141
7.200000 1.120000 -4.960000 18.658373 16.642757 625.116272
7.200000 1.120000 -4.920000 1.641873 19.076176 366.596222
7.200000 1.120000 -4.880000 -11.300331 11.831779 267.688507
7.200000 1.120000 -4.840000 -15.891348 -0.750539 253.098251
7.200000 1.120000 -4.800000 -10.075687 -12.185427 250.004089
7.200000 1.160000 -5.200000 -17.762165 -14.132599 515.224854
7.200000 1.160000 -5.160000 -7.971952 -37.130356 1442.215332
7.200000 1.160000 -5.120000 19.033693 -45.570503 2438.952148
7.200000 1.160000 -5.080000 45.715229 -30.792046 3038.032227
7.200000 1.160000 -5.040000 54.772469 -0.896358 3000.826660
7.200000 1.160000 -5.000000 41.418503 26.501820 2417.838867
7.200000 1.160000 -4.960000 14.966334 37.034363 1595.535278
7.200000 1.160000 -4.920000 -8.942537 27.878050 857.154663
7.200000 1.160000 -4.880000 -18.300058 7.616914 392.909546
7.200000 1.160000 -4.840000 -10.953944 -10.029095 220.571625
7.200000 1.160000 -4.800000 5.017589 -14.380503 231.975052
7.200000 1.200000 -5.200000 -2.038797 -5.871200 38.627682
7.200000 1.200000 -5.160000 9.898360 -23.617290 655.753967
7.200000 1.200000 -5.120000 36.246696 -24.762707 1927.014648
7.200000 1.200000 -5.080000 57.650322 -2.235135 3328.555420
7.200000 1.200000 -5.040000 55.934631 32.218636 4166.723633
7.200000 1.200000 -5.000000 29.121391 56.307213 4018.557617
7.200000 1.200000 -4.960000 -6.350304 54.358173 2995.137451
7.200000 1.200000 -4.920000 -28.043304 29.364529 1648.702393
7.200000 1.200000 -4.880000 -24.559261 0.309278 603.252930
7.200000 1.200000 -4.840000 -3.536593 -12.871429 178.181183
7.200000 1.200000 -4.800000 15.479786 -4.496890 259.845795
