#kx 	ky 	kz 	real 	imag 	intensity
8.800000 2.800000 -1.200000 -22.270884 10.108425 598.172485
8.800000 2.800000 -1.160000 -22.703053 -1.111026 516.662964
8.800000 2.800000 -1.120000 -19.711821 -7.596415 446.261383
8.800000 2.800000 -1.080000 -18.207373 -12.588388 489.975952
8.800000 2.800000 -1.040000 -15.293314 -20.524876 655.155945
8.800000 2.800000 -1.000000 -5.032681 -28.246799 823.209534
8.800000 2.800000 -0.960000 11.250667 -26.737597 841.476562
8.800000 2.800000 -0.920000 22.717945 -12.259529 666.401123
8.800000 2.800000 -0.880000 19.229141 6.557473 412.760345
8.800000 2.800000 -0.840000 2.984484 15.436970 247.207184
8.800000 2.800000 -0.800000 -12.371653 8.661856 228.085526
8.800000 2.840000 -1.200000 -20.784014 -13.062139 602.594666
8.800000 2.840000 -1.160000 -12.906361 -22.822680 687.448853
8.800000 2.840000 -1.120000 -3.113731 -26.291008 700.912415
8.800000 2.840000 -1.080000 5.354611 -25.694298 688.868835
8.800000 2.840000 -1.040000 12.621891 -22.714495 675.260376
8.800000 2.840000 -1.000000 18.461370 -16.700294 619.722046
8.800000 2.840000 -0.960000 20.148811 -7.841384 467.461914
8.800000 2.840000 -0.920000 15.564781 -0.060726 242.266113
8.800000 2.840000 -0.880000 7.457010 1.607026 58.189533
8.800000 2.840000 -0.840000 2.388460 -3.173820 15.777878
8.800000 2.840000 -0.800000 4.082105 -8.436798 87.843147
8.800000 2.880000 -1.200000 -3.814451 -27.164013 752.433655
8.800000 2.880000 -1.160000 10.264507 -30.385622 1028.646118
8.800000 2.880000 -1.120000 23.605536 -25.265415 1195.562500
8.800000 2.880000 -1.080000 31.446697 -13.721491 1177.174072
8.800000 2.880000 -1.040000 30.642803 -0.328290 939.089172
8.800000 2.880000 -1.000000 21.626186 8.496382 539.880432
8.800000 2.880000 -0.960000 9.976114 7.709806 158.963974
8.800000 2.880000 -0.920000 4.267666 -1.732847 21.215731
8.800000 2.880000 -0.880000 9.626904 -11.631722 227.974243
8.800000 2.880000 -0.840000 22.086666 -12.086466 633.903503
8.800000 2.880000 -0.800000 30.291832 -0.498249 917.843323
8.800000 2.920000 -1.200000 16.422867 -24.441059 867.075928
8.800000 2.920000 -1.160000 31.001785 -18.075550 1287.836182
8.800000 2.920000 -1.120000 39.846851 -3.241535 1598.279175
8.800000 2.920000 -1.080000 37.148735 14.987305 1604.647827
8.800000 2.920000 -1.040000 22.072987 26.759775 1203.302246
8.800000 2.920000 -1.000000 2.936912 23.270487 550.140991
8.800000 2.920000 -0.960000 -6.062718 5.550839 67.568375
8.800000 2.920000 -0.920000 3.976009 -12.907450 182.410919
8.800000 2.920000 -0.880000 26.922482 -15.290771 958.627686
8.800000 2.920000 -0.840000 44.108315 3.683012 1959.108032
8.800000 2.920000 -0.800000 39.449253 31.132195 2525.457031
8.800000 2.960000 -1.200000 26.916843 -8.813745 802.198608
8.800000 2.960000 -1.160000 34.697746 5.117905 1230.126587
8.800000 2.960000 -1.120000 32.162964 22.904510 1559.072876
8.800000 2.960000 -1.080000 16.936832 35.789253 1567.726929
8.800000 2.960000 -1.040000 -4.585500 33.551285 1146.715576
8.800000 2.960000 -1.000000 -17.496525 14.232652 508.696777
8.800000 2.960000 -0.960000 -9.061410 -9.587334 174.026123
8.800000 2.960000 -0.920000 17.942379 -17.531311 629.275818
8.800000 2.960000 -0.880000 43.407463 1.391211 1886.143311
8.800000 2.960000 -0.840000 44.802917 36.629192 3348.999023
8.800000 2.960000 -0.800000 17.072001 62.369995 4181.469727
8.800000 3.000000 -1.200000 22.309258 8.329874 567.089783
8.800000 3.000000 -1.160000 19.215729 22.156384 860.149536
8.800000 3.000000 -1.120000 6.707412 31.993223 1068.555664
8.800000 3.000000 -1.080000 -11.177425 30.392487 1048.638062
8.800000 3.000000 -1.040000 -23.432549 14.357334 755.217407
8.800000 3.000000 -1.000000 -18.148167 -7.844472 390.891693
8.800000 3.000000 -0.960000 5.773085 -18.639187 380.747803
8.800000 3.000000 -0.920000 32.831032 -4.489053 1098.028320
8.800000 3.000000 -0.880000 40.221573 29.956604 2515.173096
8.800000 3.000000 -0.840000 16.850706 61.736961 4095.398682
8.800000 3.000000 -0.800000 -25.076544 66.712952 5079.450684
8.800000 3.040000 -1.200000 6.792159 16.265173 310.689270
8.800000 3.040000 -1.160000 -3.771163 20.869133 449.742401
8.800000 3.040000 -1.120000 -15.715563 16.747219 527.448242
8.800000 3.040000 -1.080000 -22.128349 3.907304 504.930878
8.800000 3.040000 -1.040000 -16.337250 -11.807586 406.324829
8.800000 3.040000 -1.000000 2.257913 -19.092579 369.624756
8.800000 3.040000 -0.960000 23.691866 -8.088754 626.732422
8.800000 3.040000 -0.920000 31.255547 19.790653 1368.579102
8.800000 3.040000 -0.880000 13.831323 48.734467 2566.353760
8.800000 3.040000 -0.840000 -22.990437 57.990047 3891.405762
8.800000 3.040000 -0.800000 -58.312782 37.970894 4842.169434
8.800000 3.080000 -1.200000 -10.022451 10.736303 215.717743
8.800000 3.080000 -1.160000 -18.094395 2.471804 333.516907
8.800000 3.080000 -1.120000 -17.505611 -10.526249 417.248352
8.800000 3.080000 -1.080000 -6.689835 -20.480125 464.189423
8.800000 3.080000 -1.040000 10.055994 -20.163214 507.678192
8.800000 3.080000 -1.000000 23.926428 -6.725462 617.705750
8.800000 3.080000 -0.960000 25.328169 15.644905 886.279175
8.800000 3.080000 -0.920000 9.422398 36.055321 1388.767822
8.800000 3.080000 -0.880000 -19.323177 41.860382 2125.676758
8.800000 3.080000 -0.840000 -47.668983 26.517620 2975.516113
8.800000 3.080000 -0.800000 -60.694736 -4.930127 3708.157227
8.800000 3.120000 -1.200000 -19.023958 -5.069189 387.607666
8.800000 3.120000 -1.160000 -14.859172 -20.658772 647.579834
8.800000 3.120000 -1.120000 1.698502 -29.489586 872.520569
8.800000 3.120000 -1.080000 21.549324 -23.326195 1008.484741
8.800000 3.120000 -1.040000 32.184776 -3.783921 1050.177979
8.800000 3.120000 -1.000000 26.384888 18.787685 1049.139404
8.800000 3.120000 -0.960000 6.488891 32.330643 1087.376221
8.800000 3.120000 -0.920000 -18.004028 30.163252 1233.966797
8.800000 3.120000 -0.880000 -36.473053 13.489077 1512.238770
8.800000 3.120000 -0.840000 -42.130970 -10.821542 1892.124390
8.800000 3.120000 -0.800000 -33.684654 -34.169540 2302.213379
8.800000 3.160000 -1.200000 -15.875055 -23.292383 794.552490
8.800000 3.160000 -1.160000 2.609103 -35.000252 1231.824951
8.800000 3.160000 -1.120000 27.052454 -28.901062 1567.106689
8.800000 3.160000 -1.080000 40.715427 -5.274381 1685.565063
8.800000 3.160000 -1.040000 33.050903 21.876961 1570.963623
8.800000 3.160000 -1.000000 8.422853 35.413269 1325.044067
8.800000 3.160000 -0.960000 -17.674503 28.072615 1100.459717
8.800000 3.160000 -0.920000 -30.920612 6.534623 998.785583
8.800000 3.160000 -0.880000 -27.670879 -15.916821 1019.022705
8.800000 3.160000 -0.840000 -14.157518 -30.005463 1100.763062
8.800000 3.160000 -0.800000 1.518940 -34.698250 1206.275635
8.800000 3.200000 -1.200000 -2.446659 -35.641514 1276.303589
8.800000 3.200000 -1.160000 23.369406 -34.920235 1765.551880
8.800000 3.200000 -1.120000 42.903488 -13.500356 2022.968994
8.800000 3.200000 -1.080000 40.737518 17.033413 1949.682617
8.800000 3.200000 -1.040000 16.774216 36.336014 1601.680176
8.800000 3.200000 -1.000000 -12.645370 31.764397 1168.882202
8.800000 3.200000 -0.960000 -27.970604 8.438568 853.564087
8.800000 3.200000 -0.920000 -21.854179 -16.117544 737.380371
8.800000 3.200000 -0.880000 -2.896305 -27.141026 745.023865
8.800000 3.200000 -0.840000 14.371696 -23.094137 739.884827
8.800000 3.200000 -0.800000 22.245476 -12.899734 661.264343
8.840000 2.800000 -1.200000 -17.319466 13.128946 472.333130
8.840000 2.800000 -1.160000 -23.464874 3.415715 562.267456
8.840000 2.800000 -1.120000 -24.091019 -9.210438 665.209351
8.840000 2.800000 -1.080000 -17.334448 -21.808304 776.085205
8.840000 2.800000 -1.040000 -2.978540 -29.104185 855.925293
8.840000 2.800000 -1.000000 14.166645 -25.428860 847.320740
8.840000 2.800000 -0.960000 24.657333 -10.497719 718.186157
8.840000 2.800000 -0.920000 21.167213 7.353319 502.122253
8.840000 2.800000 -0.880000 5.980820 16.101498 295.028442
8.840000 2.800000 -0.840000 -9.370836 10.201185 191.876740
8.840000 2.800000 -0.800000 -13.778770 -4.104860 206.704391
8.840000 2.840000 -1.200000 -14.794718 -5.082761 244.718124
8.840000 2.840000 -1.160000 -8.908433 -15.707515 326.086182
8.840000 2.840000 -1.120000 3.365644 -20.063465 413.870178
8.840000 2.840000 -1.080000 15.700470 -15.144169 475.850616
8.840000 2.840000 -1.040000 21.414421 -3.450923 470.486298
8.840000 2.840000 -1.000000 17.582476 8.331959 378.565002
8.840000 2.840000 -0.960000 7.127281 13.335485 228.633316
8.840000 2.840000 -0.920000 -2.779587 9.096777 90.477455
8.840000 2.840000 -0.880000 -5.602243 -0.468454 31.604582
8.840000 2.840000 -0.840000 -0.423934 -7.872414 62.154617
8.840000 2.840000 -0.800000 7.298707 -8.163479 119.913513
8.840000 2.880000 -1.200000 -0.821239 -14.065256 198.505875
8.840000 2.880000 -1.160000 14.908102 -15.018732 447.813843
8.840000 2.880000 -1.120000 28.392490 -1.768654 809.261597
8.840000 2.880000 -1.080000 27.459805 19.575745 1137.250732
8.840000 2.880000 -1.040000 9.499752 34.093410 1252.605835
8.840000 2.880000 -1.000000 -14.253489 29.780268 1090.026245
8.840000 2.880000 -0.960000 -26.466434 8.483860 772.448059
8.840000 2.880000 -0.920000 -17.910175 -14.287340 524.902466
8.840000 2.880000 -0.880000 4.315870 -21.675074 488.435547
8.840000 2.880000 -0.840000 22.495928 -9.592289 598.078796
8.840000 2.880000 -0.800000 23.384794 10.067079 648.194641
8.840000 2.920000 -1.200000 12.960722 -9.153907 251.774323
8.840000 2.920000 -1.160000 27.528168 4.901112 781.820862
8.840000 2.920000 -1.120000 26.229015 30.926443 1644.406128
8.840000 2.920000 -1.080000 1.721899 50.570145 2560.304443
8.840000 2.920000 -1.040000 -33.650608 44.525177 3114.854736
8.840000 2.920000 -1.000000 -54.209621 11.191339 3063.929199
8.840000 2.920000 -0.960000 -41.960453 -27.981379 2543.637207
8.840000 2.920000 -0.920000 -3.829590 -44.219391 1970.020264
8.840000 2.920000 -0.880000 32.111134 -25.737925 1693.565674
8.840000 2.920000 -0.840000 39.765259 11.623322 1716.377319
8.840000 2.920000 -0.800000 16.914017 38.045639 1733.554688
8.840000 2.960000 -1.200000 16.160950 3.660037 274.572174
8.840000 2.960000 -1.160000 17.630466 26.636669 1020.345459
8.840000 2.960000 -1.120000 -4.139326 48.209187 2341.259766
8.840000 2.960000 -1.080000 -42.196175 45.968037 3893.577637
8.840000 2.960000 -1.040000 -70.190773 11.129971 5050.621094
8.840000 2.960000 -1.000000 -62.256691 -37.985096 5318.763184
8.840000 2.960000 -0.960000 -17.631395 -66.395721 4719.257812
8.840000 2.960000 -0.920000 34.195877 -51.117630 3782.370117
8.840000 2.960000 -0.880000 55.836739 -2.461318 3123.799561
8.840000 2.960000 -0.840000 33.269497 43.093674 2963.924072
8.840000 2.960000 -0.800000 -12.714976 53.360561 3009.020264
8.840000 3.000000 -1.200000 7.041898 13.024171 219.217361
8.840000 3.000000 -1.160000 -7.003783 30.858011 1001.269836
8.840000 3.000000 -1.120000 -37.899921 32.505203 2492.992188
8.840000 3.000000 -1.080000 -65.993240 4.921633 4379.330566
8.840000 3.000000 -1.040000 -64.687256 -42.096455 5956.552246
8.840000 3.000000 -1.000000 -24.690878 -77.115173 6556.389648
8.840000 3.000000 -0.960000 32.218796 -70.726669 6040.312500
8.840000 3.000000 -0.920000 66.545700 -22.467854 4933.134766
8.840000 3.000000 -0.880000 52.903755 35.079903 4029.406982
8.840000 3.000000 -0.840000 2.075560 61.463726 3782.097412
8.840000 3.000000 -0.800000 -47.794357 41.270432 3987.549072
8.840000 3.040000 -1.200000 -7.037509 10.702462 164.069229
8.840000 3.040000 -1.160000 -26.358559 12.673355 855.387573
8.840000 3.040000 -1.120000 -46.621071 -5.453199 2203.261475
8.840000 3.040000 -1.080000 -47.886574 -40.800556 3957.809570
8.840000 3.040000 -1.040000 -18.171783 -71.876450 5496.437988
8.840000 3.040000 -1.000000 31.127689 -72.125320 6170.995117
8.840000 3.040000 -0.960000 68.394173 -33.255138 5783.666992
8.840000 3.040000 -0.920000 65.150696 23.167543 4781.348145
8.840000 3.040000 -0.880000 20.663733 59.399597 3955.302002
8.840000 3.040000 -0.840000 -35.251434 50.980869 3841.712646
8.840000 3.040000 -0.800000 -65.404205 6.137378 4315.377441
8.840000 3.080000 -1.200000 -15.402527 -3.097632 246.833160
8.840000 3.080000 -1.160000 -25.067072 -15.084480 855.899658
8.840000 3.080000 -1.120000 -23.172512 -36.901466 1898.683594
8.840000 3.080000 -1.080000 -1.933480 -56.200966 3162.286865
8.840000 3.080000 -1.040000 33.143684 -55.752586 4206.854492
8.840000 3.080000 -1.000000 62.072853 -27.388458 4603.166504
8.840000 3.080000 -0.960000 62.881645 17.313078 4253.843750
8.840000 3.080000 -0.920000 29.701145 51.436890 3527.911621
8.840000 3.080000 -0.880000 -19.497093 51.607285 3043.448486
8.840000 3.080000 -0.840000 -54.284744 16.419659 3216.438721
8.840000 3.080000 -0.800000 -54.061592 -31.856911 3937.518555
8.840000 3.120000 -1.200000 -11.268913 -20.499744 547.227905
8.840000 3.120000 -1.160000 -4.029914 -33.442734 1134.656616
8.840000 3.120000 -1.120000 14.029726 -40.694725 1852.893921
8.840000 3.120000 -1.080000 36.868000 -33.851299 2505.159912
8.840000 3.120000 -1.040000 52.420788 -10.872385 2866.147705
8.840000 3.120000 -1.000000 49.066372 19.999756 2807.499023
8.840000 3.120000 -0.960000 24.159176 42.775528 2413.411621
8.840000 3.120000 -0.920000 -11.715160 42.976044 1984.185303
8.840000 3.120000 -0.880000 -39.498878 17.882671 1879.951294
8.840000 3.120000 -0.840000 -43.365494 -20.222315 2289.508057
8.840000 3.120000 -0.800000 -21.163385 -51.322243 3081.861572
8.840000 3.160000 -1.200000 4.240299 -31.434675 1006.118958
8.840000 3.160000 -1.160000 22.442791 -32.324165 1548.530518
8.840000 3.160000 -1.120000 39.525990 -19.457581 1940.901245
8.840000 3.160000 -1.080000 45.112167 3.375815 2046.503784
8.840000 3.160000 -1.040000 34.489304 25.670233 1848.472900
8.840000 3.160000 -1.000000 11.671381 36.424587 1462.971680
8.840000 3.160000 -0.960000 -13.001045 30.270947 1085.357422
8.840000 3.160000 -0.920000 -28.446995 9.875636 906.759705
8.840000 3.160000 -0.880000 -28.021324 -15.949757 1039.589355
8.840000 3.160000 -0.840000 -11.939059 -36.551445 1478.549316
8.840000 3.160000 -0.800000 13.362772 -43.863373 2102.559082
8.840000 3.200000 -1.200000 23.233868 -29.935165 1435.926758
8.840000 3.200000 -1.160000 39.423904 -16.135700 1814.605103
8.840000 3.200000 -1.120000 42.463951 7.222701 1855.354492
8.840000 3.200000 -1.080000 28.481659 27.284548 1555.651367
8.840000 3.200000 -1.040000 4.912724 32.527409 1082.167236
8.840000 3.200000 -1.000000 -14.990516 20.991737 665.368591
8.840000 3.200000 -0.960000 -21.578442 0.625505 466.020416
8.840000 3.200000 -0.920000 -14.133934 -17.560781 508.149139
8.840000 3.200000 -0.880000 1.294276 -26.714968 715.364685
8.840000 3.200000 -0.840000 17.784672 -26.068388 995.855408
8.840000 3.200000 -0.800000 31.144938 -17.980759 1293.314819
8.880000 2.800000 -1.200000 -20.123226 21.836941 881.796265
8.880000 2.800000 -1.160000 -31.164736 6.136833 1008.901489
8.880000 2.800000 -1.120000 -28.183887 -14.439922 1002.842896
8.880000 2.800000 -1.080000 -11.318466 -27.843065 903.343933
8.880000 2.800000 -1.040000 9.913624 -25.723265 759.966309
8.880000 2.800000 -1.000000 22.492863 -9.837992 602.714966
8.880000 2.800000 -0.960000 19.245226 8.498436 442.602142
8.880000 2.800000 -0.920000 4.429605 16.587011 294.750336
8.880000 2.800000 -0.880000 -9.578314 10.074912 193.247955
8.880000 2.800000 -0.840000 -12.363238 -4.037531 169.151306
8.880000 2.800000 -0.800000 -3.627941 -14.038780 210.249313
8.880000 2.840000 -1.200000 -20.531755 5.471486 451.490143
8.880000 2.840000 -1.160000 -14.134626 -7.729370 259.530823
8.880000 2.840000 -1.120000 0.376228 -10.000410 100.149750
8.880000 2.840000 -1.080000 10.330379 0.671065 107.167068
8.880000 2.840000 -1.040000 6.893074 14.920494 270.135620
8.880000 2.840000 -1.000000 -7.240288 20.141773 458.112793
8.880000 2.840000 -0.960000 -20.263588 11.366402 539.808105
8.880000 2.840000 -0.920000 -21.498877 -4.727196 484.548065
8.880000 2.840000 -0.880000 -10.298506 -15.971800 361.157593
8.880000 2.840000 -0.840000 4.200437 -15.298357 251.683411
8.880000 2.840000 -0.800000 11.792191 -6.120731 176.519104
8.880000 2.880000 -1.200000 -11.247820 -3.754871 140.612503
8.880000 2.880000 -1.160000 3.943525 -0.258036 15.617974
8.880000 2.880000 -1.120000 8.581211 19.147480 440.263153
8.880000 2.880000 -1.080000 -8.796284 37.543514 1486.890137
8.880000 2.880000 -1.040000 -39.170853 34.490540 2723.953125
8.880000 2.880000 -1.000000 -58.816536 5.928432 3494.531250
8.880000 2.880000 -0.960000 -50.022556 -30.001160 3402.325684
8.880000 2.880000 -0.920000 -17.513603 -47.734142 2585.274658
8.880000 2.880000 -0.880000 15.242903 -36.361443 1554.500610
8.880000 2.880000 -0.840000 26.545855 -8.385912 775.005859
8.880000 2.880000 -0.800000 14.570719 12.657156 372.509460
8.880000 2.920000 -1.200000 -2.185527 -2.631862 11.703223
8.880000 2.920000 -1.160000 4.213970 18.575558 362.808868
8.880000 2.920000 -1.120000 -16.738920 42.479050 2084.661133
8.880000 2.920000 -1.080000 -58.625347 40.240501 5056.229492
8.880000 2.920000 -1.040000 -90.054932 0.163479 8109.917480
8.880000 2.920000 -1.000000 -80.770493 -56.477936 9713.629883
8.880000 2.920000 -0.960000 -30.549692 -90.105133 9052.218750
8.880000 2.920000 -0.920000 27.541700 -76.472946 6606.656738
8.880000 2.920000 -0.880000 54.372910 -28.113865 3746.802734
8.880000 2.920000 -0.840000 37.659340 17.019987 1707.905762
8.880000 2.920000 -0.800000 0.085268 28.916250 836.156799
8.880000 2.960000 -1.200000 -0.932957 2.838370 8.926754
8.880000 2.960000 -1.160000 -14.558624 27.387148 962.009399
8.880000 2.960000 -1.120000 -55.448784 31.919479 4093.420898
8.880000 2.960000 -1.080000 -95.098930 -5.486252 9073.905273
8.880000 2.960000 -1.040000 -94.236732 -71.585434 14005.035156
8.880000 2.960000 -1.000000 -39.718452 -122.023346 16467.251953
8.880000 2.960000 -0.960000 38.099350 -117.216324 15191.227539
8.880000 2.960000 -0.920000 87.261192 -58.130424 10993.662109
8.880000 2.960000 -0.880000 77.455124 12.626352 6158.721191
8.880000 2.960000 -0.840000 24.738001 46.732365 2795.882568
8.880000 2.960000 -0.800000 -25.006409 29.977524 1523.972412
8.880000 3.000000 -1.200000 -6.563095 3.563062 55.769627
8.880000 3.000000 -1.160000 -34.733467 13.797108 1396.773926
8.880000 3.000000 -1.120000 -72.088348 -10.328690 5303.411621
8.880000 3.000000 -1.080000 -81.104996 -68.915489 11327.365234
8.880000 3.000000 -1.040000 -36.922104 -125.944008 17225.134766
8.880000 3.000000 -1.000000 43.856152 -134.992676 20146.384766
8.880000 3.000000 -0.960000 109.943985 -80.565262 18578.441406
8.880000 3.000000 -0.920000 116.063667 4.090814 13487.508789
8.880000 3.000000 -0.880000 61.517578 62.118217 7643.084961
8.880000 3.000000 -0.840000 -9.556709 59.681774 3653.244873
8.880000 3.000000 -0.800000 -46.660988 11.482407 2309.093506
8.880000 3.040000 -1.200000 -11.071939 -4.462509 142.501831
8.880000 3.040000 -1.160000 -36.310402 -14.048361 1515.801758
8.880000 3.040000 -1.120000 -48.946396 -53.066925 5211.848633
8.880000 3.040000 -1.080000 -21.914639 -101.451797 10772.717773
8.880000 3.040000 -1.040000 43.780769 -119.341179 16159.073242
8.880000 3.040000 -1.000000 110.815872 -80.776421 18804.988281
8.880000 3.040000 -0.960000 131.731842 -1.309920 17354.994141
8.880000 3.040000 -0.920000 89.026451 69.162506 12709.161133
8.880000 3.040000 -0.880000 12.156041 85.362900 7434.594238
8.880000 3.040000 -0.840000 -45.806740 43.139397 3959.264893
8.880000 3.040000 -0.800000 -51.182602 -19.684544 3007.139893
8.880000 3.080000 -1.200000 -6.596503 -16.742723 323.832642
8.880000 3.080000 -1.160000 -14.906563 -35.253773 1465.034058
8.880000 3.080000 -1.120000 -1.705752 -64.708107 4190.048828
8.880000 3.080000 -1.080000 40.022556 -80.621948 8101.703613
8.880000 3.080000 -1.040000 91.250610 -58.682793 11770.343750
8.880000 3.080000 -1.000000 116.075813 0.474403 13473.819336
8.880000 3.080000 -0.960000 90.427010 64.719025 12365.595703
8.880000 3.080000 -0.920000 25.387524 92.280609 9160.237305
8.880000 3.080000 -0.880000 -38.019661 65.169174 5692.516113
8.880000 3.080000 -0.840000 -60.183937 4.209248 3639.823975
8.880000 3.080000 -0.800000 -33.098549 -48.266415 3425.160645
8.880000 3.120000 -1.200000 7.839994 -24.012871 638.083496
8.880000 3.120000 -1.160000 15.417948 -34.733269 1444.113037
8.880000 3.120000 -1.120000 36.451294 -40.481533 2967.451172
8.880000 3.120000 -1.080000 64.440292 -27.644308 4916.758789
8.880000 3.120000 -1.040000 80.647888 7.890816 6566.347168
8.880000 3.120000 -1.000000 66.993256 51.554245 7145.936523
8.880000 3.120000 -0.960000 23.214220 76.494614 6390.325684
8.880000 3.120000 -0.920000 -28.020765 63.411098 4806.130859
8.880000 3.120000 -0.880000 -55.440575 17.536119 3381.172607
8.880000 3.120000 -0.840000 -42.451515 -33.217995 2905.566406
8.880000 3.120000 -0.800000 0.518665 -58.616272 3436.136475
8.880000 3.160000 -1.200000 25.359371 -19.617874 1027.958740
8.880000 3.160000 -1.160000 35.529022 -14.803118 1481.443726
8.880000 3.160000 -1.120000 44.655426 -2.833713 2002.136963
8.880000 3.160000 -1.080000 46.841232 16.296421 2459.674316
8.880000 3.160000 -1.040000 35.923752 37.123981 2668.706055
8.880000 3.160000 -1.000000 11.089069 48.841747 2508.483887
8.880000 3.160000 -0.960000 -18.828697 41.288765 2059.281982
8.880000 3.160000 -0.920000 -37.949226 13.632711 1625.994629
8.880000 3.160000 -0.880000 -33.255135 -21.798954 1581.098389
8.880000 3.160000 -0.840000 -4.794704 -45.657619 2107.607422
8.880000 3.160000 -0.800000 32.776623 -44.292042 3036.091797
8.880000 3.200000 -1.200000 36.330894 -4.615670 1341.238281
8.880000 3.200000 -1.160000 36.811516 9.513264 1445.589844
8.880000 3.200000 -1.120000 28.842175 22.097618 1320.175781
8.880000 3.200000 -1.080000 15.174620 28.314377 1031.973022
8.880000 3.200000 -1.040000 0.363495 26.279484 690.743408
8.880000 3.200000 -1.000000 -11.301136 16.557465 401.865295
8.880000 3.200000 -0.960000 -16.120020 1.238462 261.388824
8.880000 3.200000 -0.920000 -11.010738 -15.677301 367.014160
8.880000 3.200000 -0.880000 4.792696 -27.731058 791.981506
8.880000 3.200000 -0.840000 27.100147 -27.913219 1513.565796
8.880000 3.200000 -0.800000 46.707741 -13.242669 2356.981445
8.920000 2.800000 -1.200000 -32.921883 25.836813 1751.391235
8.920000 2.800000 -1.160000 -41.696480 0.712513 1739.104126
8.920000 2.800000 -1.120000 -29.397915 -23.035904 1394.890381
8.920000 2.800000 -1.080000 -4.798088 -29.853855 914.274353
8.920000 2.800000 -1.040000 14.554199 -17.215115 508.184875
8.920000 2.800000 -1.000000 16.430355 2.675179 277.113159
8.920000 2.800000 -0.960000 3.399818 13.469036 192.973694
8.920000 2.800000 -0.920000 -10.491795 8.255041 178.223450
8.920000 2.800000 -0.880000 -12.516716 -5.712460 189.300385
8.920000 2.800000 -0.840000 -1.822598 -14.902384 225.402908
8.920000 2.800000 -0.800000 11.556849 -12.019298 278.024292
8.920000 2.840000 -1.200000 -35.766472 6.860630 1326.308716
8.920000 2.840000 -1.160000 -26.402609 -7.818925 758.233337
8.920000 2.840000 -1.120000 -12.410511 -7.473522 209.874313
8.920000 2.840000 -1.080000 -8.586338 3.461533 85.707413
8.920000 2.840000 -1.040000 -18.539488 10.335335 450.531769
8.920000 2.840000 -1.000000 -31.552259 2.682877 1002.742920
8.920000 2.840000 -0.960000 -33.069439 -15.715237 1340.556396
8.920000 2.840000 -0.920000 -18.519802 -30.476421 1271.795288
8.920000 2.840000 -0.880000 2.632498 -30.040489 909.361023
8.920000 2.840000 -0.840000 16.022646 -15.856848 508.164795
8.920000 2.840000 -0.800000 15.392885 0.027343 236.941666
8.920000 2.880000 -1.200000 -28.057980 -6.821735 833.786316
8.920000 2.880000 -1.160000 -17.314676 -0.289118 299.881592
8.920000 2.880000 -1.120000 -24.637646 14.879158 828.402954
8.920000 2.880000 -1.080000 -50.180389 15.423878 2755.967529
8.920000 2.880000 -1.040000 -71.964539 -11.367317 5308.110840
8.920000 2.880000 -1.000000 -65.672676 -52.499397 7069.086914
8.920000 2.880000 -0.960000 -28.495049 -78.814331 7023.666504
8.920000 2.880000 -0.920000 16.520081 -70.798302 5285.312500
8.920000 2.880000 -0.880000 40.287392 -35.984970 2917.992188
8.920000 2.880000 -0.840000 32.671150 -1.393907 1069.347046
8.920000 2.880000 -0.800000 9.132509 11.068579 205.916168
8.920000 2.920000 -1.200000 -18.042925 -11.853071 466.042450
8.920000 2.920000 -1.160000 -24.518124 7.670591 659.976318
8.920000 2.920000 -1.120000 -57.980957 11.875305 3502.814209
8.920000 2.920000 -1.080000 -92.128632 -22.366440 8987.942383
8.920000 2.920000 -1.040000 -89.134384 -83.497383 14916.751953
8.920000 2.920000 -1.000000 -36.457298 -129.782349 18172.593750
8.920000 2.920000 -0.960000 37.153435 -124.716888 16934.679688
8.920000 2.920000 -0.920000 83.966949 -70.348663 11999.382812
8.920000 2.920000 -0.880000 77.897415 -6.145788 6105.777832
8.920000 2.920000 -0.840000 35.132393 25.713196 1895.453491
8.920000 2.920000 -0.800000 -3.790277 15.406960 251.740631
8.920000 2.960000 -1.200000 -11.571098 -12.464332 289.249878
8.920000 2.960000 -1.160000 -38.666756 -0.053921 1495.120972
8.920000 2.960000 -1.120000 -78.631104 -25.823259 6849.691406
8.920000 2.960000 -1.080000 -87.356628 -91.101212 15930.611328
8.920000 2.960000 -1.040000 -36.215679 -154.402985 25151.857422
8.920000 2.960000 -1.000000 55.015270 -163.556030 29777.253906
8.920000 2.960000 -0.960000 128.776932 -103.177216 27229.035156
8.920000 2.960000 -0.920000 137.305450 -11.615864 18987.714844
8.920000 2.960000 -0.880000 83.169312 50.524681 9469.877930
8.920000 2.960000 -0.840000 14.654907 51.296955 2846.144043
8.920000 2.960000 -0.800000 -18.562626 10.235509 449.336731
8.920000 3.000000 -1.200000 -7.540315 -14.337046 262.407227
8.920000 3.000000 -1.160000 -40.625168 -22.762512 2168.536133
8.920000 3.000000 -1.120000 -59.802322 -72.936996 8896.123047
8.920000 3.000000 -1.080000 -25.793409 -138.207535 19766.623047
8.920000 3.000000 -1.040000 60.863400 -163.905716 30569.437500
8.920000 3.000000 -1.000000 150.090118 -115.454956 35856.890625
8.920000 3.000000 -0.960000 180.261047 -14.339704 32699.671875
8.920000 3.000000 -0.920000 131.183289 75.184067 22861.699219
8.920000 3.000000 -0.880000 42.056038 98.841583 11538.368164
8.920000 3.000000 -0.840000 -23.017063 56.036179 3669.838379
8.920000 3.000000 -0.800000 -29.099846 -5.408545 876.053406
8.920000 3.040000 -1.200000 -0.812510 -18.045057 326.284271
8.920000 3.040000 -1.160000 -21.093060 -42.895638 2284.952881
8.920000 3.040000 -1.120000 -8.469826 -92.238297 8579.641602
8.920000 3.040000 -1.080000 53.528496 -125.136314 18524.398438
8.920000 3.040000 -1.040000 136.154053 -99.022552 28343.390625
8.920000 3.040000 -1.000000 181.730896 -12.353537 33178.726562
8.920000 3.040000 -0.960000 151.802841 85.743561 30396.062500
8.920000 3.040000 -0.920000 63.065666 132.531754 21541.945312
8.920000 3.040000 -0.880000 -24.300888 103.373260 11276.564453
8.920000 3.040000 -0.840000 -56.396416 30.383881 4103.735840
8.920000 3.040000 -0.800000 -27.553242 -28.392645 1565.323486
8.920000 3.080000 -1.200000 10.980165 -18.501986 462.887451
8.920000 3.080000 -1.160000 9.767691 -42.799103 1927.171021
8.920000 3.080000 -1.120000 40.672173 -68.811455 6389.241699
8.920000 3.080000 -1.080000 97.349243 -62.068306 13329.349609
8.920000 3.080000 -1.040000 141.837036 -5.790543 20151.275391
8.920000 3.080000 -1.000000 133.243057 76.104698 23545.638672
8.920000 3.080000 -0.960000 65.652512 131.960266 21723.763672
8.920000 3.080000 -0.920000 -21.446041 123.640114 15746.810547
8.920000 3.080000 -0.880000 -72.860741 59.177788 8810.698242
8.920000 3.080000 -0.840000 -61.816982 -13.902840 4014.628418
8.920000 3.080000 -0.800000 -8.595792 -48.436356 2419.968262
8.920000 3.120000 -1.200000 23.749191 -10.506877 674.418579
8.920000 3.120000 -1.160000 31.706615 -21.063618 1448.985474
8.920000 3.120000 -1.120000 56.947845 -21.986595 3726.467529
8.920000 3.120000 -1.080000 84.797363 3.932693 7206.059082
8.920000 3.120000 -1.040000 87.721634 53.612473 10569.381836
8.920000 3.120000 -1.000000 49.669056 98.652908 12199.412109
8.920000 3.120000 -0.960000 -14.735123 105.236290 11291.800781
8.920000 3.120000 -0.920000 -66.800507 63.326767 8472.586914
8.920000 3.120000 -0.880000 -73.274780 -1.960629 5373.037598
8.920000 3.120000 -0.840000 -33.056046 -48.859440 3479.947021
8.920000 3.120000 -0.800000 23.040096 -51.458435 3178.816406
8.920000 3.160000 -1.200000 29.901596 5.345398 922.678772
8.920000 3.160000 -1.160000 32.482155 7.228417 1107.340332
8.920000 3.160000 -1.120000 38.971760 14.919128 1741.378540
8.920000 3.160000 -1.080000 40.465706 33.039406 2729.075684
8.920000 3.160000 -1.040000 25.485817 54.616840 3632.526123
8.920000 3.160000 -1.000000 -6.981369 62.589874 3966.231934
8.920000 3.160000 -0.960000 -41.163673 43.621723 3597.302734
8.920000 3.160000 -0.920000 -53.772236 2.500980 2897.708252
8.920000 3.160000 -0.880000 -32.782970 -37.549221 2484.666992
8.920000 3.160000 -0.840000 10.978568 -51.208622 2742.852051
8.920000 3.160000 -0.800000 50.893394 -30.493795 3520.009277
8.920000 3.200000 -1.200000 24.925789 22.091984 1109.350708
8.920000 3.200000 -1.160000 16.780899 24.940098 903.607056
8.920000 3.200000 -1.120000 10.288541 24.538139 707.974365
8.920000 3.200000 -1.080000 5.023918 24.081989 605.181946
8.920000 3.200000 -1.040000 -2.323238 23.198383 543.562439
8.920000 3.200000 -1.000000 -12.076935 16.980862 434.202026
8.920000 3.200000 -0.960000 -17.843348 1.788597 321.584106
8.920000 3.200000 -0.920000 -10.617617 -17.854706 431.524292
8.920000 3.200000 -0.880000 11.894527 -29.447577 1008.639587
8.920000 3.200000 -0.840000 39.926220 -21.661053 2063.304199
8.920000 3.200000 -0.800000 56.904671 5.235039 3265.547119
8.960000 2.800000 -1.200000 -47.397221 17.599138 2556.226318
8.960000 2.800000 -1.160000 -46.848774 -12.923809 2361.832520
8.960000 2.800000 -1.120000 -25.454731 -32.807518 1724.276611
8.960000 2.800000 -1.080000 0.657330 -30.829273 950.876160
8.960000 2.800000 -1.040000 13.483594 -13.131332 354.239197
8.960000 2.800000 -1.000000 8.004765 2.982071 72.969002
8.960000 2.800000 -0.960000 -4.897217 4.668468 45.777328
8.960000 2.800000 -0.920000 -9.740143 -5.818240 128.722305
8.960000 2.800000 -0.880000 -0.921898 -14.985799 225.424072
8.960000 2.800000 -0.840000 13.219141 -11.901070 316.381134
8.960000 2.800000 -0.800000 19.810968 1.778601 395.637878
8.960000 2.840000 -1.200000 -48.973763 -5.819771 2432.299072
8.960000 2.840000 -1.160000 -36.230389 -19.733259 1702.042603
8.960000 2.840000 -1.120000 -23.968176 -19.389618 950.430725
8.960000 2.840000 -1.080000 -22.337233 -14.207901 700.816406
8.960000 2.840000 -1.040000 -27.942869 -16.701759 1059.752686
8.960000 2.840000 -1.000000 -28.285889 -29.414795 1665.321655
8.960000 2.840000 -0.960000 -15.063908 -42.174965 2005.648926
8.960000 2.840000 -0.920000 6.892540 -42.120937 1821.680420
8.960000 2.840000 -0.880000 23.679953 -26.334209 1254.230713
8.960000 2.840000 -0.840000 25.109550 -4.761496 653.161316
8.960000 2.840000 -0.800000 13.611831 9.076500 267.664795
8.960000 2.880000 -1.200000 -37.856064 -24.006052 2009.372070
8.960000 2.880000 -1.160000 -32.506054 -19.386797 1432.491455
8.960000 2.880000 -1.120000 -43.672283 -17.633583 2218.211426
8.960000 2.880000 -1.080000 -58.501579 -35.996689 4718.196289
8.960000 2.880000 -1.040000 -53.488632 -70.745239 7865.922363
8.960000 2.880000 -1.000000 -18.821236 -97.409386 9842.828125
8.960000 2.880000 -0.960000 29.236336 -92.555710 9421.323242
8.960000 2.880000 -0.920000 60.946728 -56.089333 6860.516602
8.960000 2.880000 -0.880000 58.882881 -12.127083 3614.259766
8.960000 2.880000 -0.840000 32.145958 12.278278 1184.118774
8.960000 2.880000 -0.800000 6.038539 9.837833 133.246918
8.960000 2.920000 -1.200000 -21.511332 -32.325790 1507.694092
8.960000 2.920000 -1.160000 -35.586777 -24.596525 1871.407715
8.960000 2.920000 -1.120000 -61.080727 -44.581955 5718.405762
8.960000 2.920000 -1.080000 -62.737274 -94.522736 12870.513672
8.960000 2.920000 -1.040000 -17.803722 -141.366714 20301.521484
8.960000 2.920000 -1.000000 57.002903 -143.934448 23966.457031
8.960000 2.920000 -0.960000 115.412872 -91.639580 21717.943359
8.960000 2.920000 -0.920000 120.818489 -16.610065 14873.001953
8.960000 2.920000 -0.880000 77.637451 33.402954 7143.331055
8.960000 2.920000 -0.840000 25.045153 35.557053 1891.563599
8.960000 2.920000 -0.800000 0.404010 7.539995 57.014751
8.960000 2.960000 -1.200000 -6.066375 -32.572659 1097.778931
8.960000 2.960000 -1.160000 -33.066246 -39.797756 2677.238037
8.960000 2.960000 -1.120000 -47.426483 -86.476883 9727.522461
8.960000 2.960000 -1.080000 -10.902084 -146.205811 21494.994141
8.960000 2.960000 -1.040000 74.343658 -165.993103 33080.691406
8.960000 2.960000 -1.000000 158.589462 -114.808403 38331.585938
8.960000 2.960000 -0.960000 184.232025 -16.478617 34212.980469
8.960000 2.960000 -0.920000 136.219147 67.120140 23060.769531
8.960000 2.960000 -0.880000 54.834187 88.267265 10797.898438
8.960000 2.960000 -0.840000 -1.209150 51.629452 2667.062500
8.960000 2.960000 -0.800000 -5.186305 3.618937 39.994461
8.960000 3.000000 -1.200000 6.933012 -28.032362 833.879944
8.960000 3.000000 -1.160000 -14.889811 -54.256340 3165.457031
8.960000 3.000000 -1.120000 0.551323 -108.817627 11841.580078
8.960000 3.000000 -1.080000 71.835426 -143.760437 25827.390625
8.960000 3.000000 -1.040000 164.423126 -111.317581 39426.570312
8.960000 3.000000 -1.000000 213.057709 -12.746895 45556.070312
8.960000 3.000000 -0.960000 178.109558 94.837677 40717.199219
8.960000 3.000000 -0.920000 82.563156 144.138031 27592.445312
8.960000 3.000000 -0.880000 -6.918959 114.117477 13070.670898
8.960000 3.000000 -0.840000 -37.317078 44.177658 3344.229980
8.960000 3.000000 -0.800000 -10.480711 -5.548948 140.636139
8.960000 3.040000 -1.200000 17.852886 -19.391155 694.742432
8.960000 3.040000 -1.160000 13.639168 -52.240078 2915.052490
8.960000 3.040000 -1.120000 54.127182 -88.895523 10832.166016
8.960000 3.040000 -1.080000 130.200546 -81.099976 23529.386719
8.960000 3.040000 -1.040000 189.508881 -7.107803 35964.136719
8.960000 3.040000 -1.000000 178.776871 99.174973 41796.843750
8.960000 3.040000 -0.960000 93.767975 170.221054 37767.640625
8.960000 3.040000 -0.920000 -12.308870 161.083405 26099.371094
8.960000 3.040000 -0.880000 -72.346024 87.426483 12877.337891
8.960000 3.040000 -0.840000 -60.581703 9.528971 3760.944092
8.960000 3.040000 -0.800000 -8.291585 -21.385565 526.092773
8.960000 3.080000 -1.200000 24.914062 -5.828134 654.677673
8.960000 3.080000 -1.160000 34.832268 -29.575829 2088.016602
8.960000 3.080000 -1.120000 77.771164 -37.877987 7483.095703
8.960000 3.080000 -1.080000 127.556564 0.137756 16270.695312
8.960000 3.080000 -1.040000 137.333694 78.628120 25042.923828
8.960000 3.080000 -1.000000 82.248131 150.555984 29431.859375
8.960000 3.080000 -0.960000 -12.425907 164.094406 27081.376953
8.960000 3.080000 -0.920000 -87.661705 107.975296 19343.238281
8.960000 3.080000 -0.880000 -98.855225 22.605400 10283.359375
8.960000 3.080000 -0.840000 -51.382030 -34.314850 3817.622070
8.960000 3.080000 -0.800000 8.768341 -35.180820 1314.573975
8.960000 3.120000 -1.200000 24.197275 10.849885 703.228149
8.960000 3.120000 -1.160000 34.739532 0.895616 1207.637207
8.960000 3.120000 -1.120000 60.624416 9.628374 3768.025391
8.960000 3.120000 -1.080000 76.192154 48.412117 8148.977539
8.960000 3.120000 -1.040000 53.760986 98.789848 12649.677734
8.960000 3.120000 -1.000000 -7.212555 122.544098 15069.076172
8.960000 3.120000 -0.960000 -72.830261 94.338409 14203.982422
8.960000 3.120000 -0.920000 -99.849899 26.865105 10691.735352
8.960000 3.120000 -0.880000 -71.725098 -36.814850 6499.822754
8.960000 3.120000 -0.840000 -12.138477 -57.970631 3507.936523
8.960000 3.120000 -0.800000 36.229069 -32.177841 2347.958984
8.960000 3.160000 -1.200000 13.922579 24.782593 808.015076
8.960000 3.160000 -1.160000 15.802240 20.578255 673.175354
8.960000 3.160000 -1.120000 23.331171 26.947163 1270.493164
8.960000 3.160000 -1.080000 21.149597 46.027779 2565.861816
8.960000 3.160000 -1.040000 -2.113228 62.982510 3971.262451
8.960000 3.160000 -1.000000 -38.834251 56.993256 4756.330078
8.960000 3.160000 -0.960000 -64.317307 21.631302 4604.628906
8.960000 3.160000 -0.920000 -56.595360 -25.235683 3839.874512
8.960000 3.160000 -0.880000 -16.587742 -53.408680 3127.640137
8.960000 3.160000 -0.840000 30.741711 -44.527920 2927.788330
8.960000 3.160000 -0.800000 55.968975 -6.619534 3176.344238
8.960000 3.200000 -1.200000 -2.082082 29.770939 890.643860
8.960000 3.200000 -1.160000 -6.450730 21.266701 493.884460
8.960000 3.200000 -1.120000 -4.289761 15.970131 273.447113
8.960000 3.200000 -1.080000 -2.915443 17.052183 299.276764
8.960000 3.200000 -1.040000 -8.563866 18.657059 421.425659
8.960000 3.200000 -1.000000 -18.037582 11.499084 457.583313
8.960000 3.200000 -0.960000 -19.743750 -6.217361 428.471222
8.960000 3.200000 -0.920000 -4.606579 -23.861092 590.572266
8.960000 3.200000 -0.880000 23.241180 -25.803827 1205.989990
8.960000 3.200000 -0.840000 47.158737 -5.296242 2251.996826
8.960000 3.200000 -0.800000 50.536850 28.219805 3350.330566
9.000000 2.800000 -1.200000 -52.430580 0.354445 2749.091553
9.000000 2.800000 -1.160000 -41.630665 -27.737026 2502.455078
9.000000 2.800000 -1.120000 -15.979855 -40.055340 1859.786011
9.000000 2.800000 -1.080000 7.603737 -32.021801 1083.212524
9.000000 2.800000 -1.040000 15.865047 -13.973568 446.960327
9.000000 2.800000 -1.000000 9.607994 -1.540386 94.686340
9.000000 2.800000 -0.960000 1.249214 -1.781276 4.733479
9.000000 2.800000 -0.920000 2.034916 -8.087885 69.554764
9.000000 2.800000 -0.880000 11.385190 -8.283548 198.239731
9.000000 2.800000 -0.840000 18.544380 2.503656 350.162354
9.000000 2.800000 -0.800000 14.231224 17.086983 494.492706
9.000000 2.840000 -1.200000 -49.308247 -25.715151 3092.572266
9.000000 2.840000 -1.160000 -34.371094 -37.564621 2592.472656
9.000000 2.840000 -1.120000 -21.291153 -39.426193 2007.737915
9.000000 2.840000 -1.080000 -13.905505 -38.796318 1698.517334
9.000000 2.840000 -1.040000 -7.855610 -41.080402 1749.310059
9.000000 2.840000 -1.000000 2.951920 -43.957764 1940.998901
9.000000 2.840000 -0.960000 18.487270 -40.165276 1955.028564
9.000000 2.840000 -0.920000 31.212189 -25.718748 1635.654785
9.000000 2.840000 -0.880000 32.608109 -5.247684 1090.826904
9.000000 2.840000 -0.840000 21.252266 10.924384 571.000977
9.000000 2.840000 -0.800000 4.618573 15.308136 255.670242
9.000000 2.880000 -1.200000 -31.734447 -44.744492 3009.144775
9.000000 2.880000 -1.160000 -27.658525 -45.912647 2872.965332
9.000000 2.880000 -1.120000 -29.562233 -55.690315 3975.336670
9.000000 2.880000 -1.080000 -21.555698 -76.799866 6362.867188
9.000000 2.880000 -1.040000 7.206299 -94.115112 8909.584961
9.000000 2.880000 -1.000000 48.149559 -87.972878 10057.607422
9.000000 2.880000 -0.960000 77.868324 -53.994743 8978.908203
9.000000 2.880000 -0.920000 78.042725 -9.464191 6180.237793
9.000000 2.880000 -0.880000 51.544365 20.424572 3073.984619
9.000000 2.880000 -0.840000 19.374706 23.438833 924.758179
9.000000 2.880000 -0.800000 1.873559 8.640909 78.175537
9.000000 2.920000 -1.200000 -7.728439 -50.508808 2610.868408
9.000000 2.920000 -1.160000 -17.322758 -56.217842 3460.523682
9.000000 2.920000 -1.120000 -18.497028 -85.594101 7668.490234
9.000000 2.920000 -1.080000 13.641384 -120.264801 14649.708984
9.000000 2.920000 -1.040000 75.353287 -124.744850 21239.394531
9.000000 2.920000 -1.000000 131.164291 -80.662239 23710.468750
9.000000 2.920000 -0.960000 142.963928 -7.800133 20499.527344
9.000000 2.920000 -0.920000 104.123795 50.226395 13364.455078
9.000000 2.920000 -0.880000 45.359276 62.850967 6007.708008
9.000000 2.920000 -0.840000 6.889639 36.807106 1402.230225
9.000000 2.920000 -0.800000 4.202005 5.583087 48.827713
9.000000 2.960000 -1.200000 14.321764 -43.284214 2078.636230
9.000000 2.960000 -1.160000 2.333313 -63.288013 4010.816895
9.000000 2.960000 -1.120000 21.048008 -104.308311 11323.242188
9.000000 2.960000 -1.080000 83.912476 -125.731560 22849.728516
9.000000 2.960000 -1.040000 159.410263 -89.853149 33485.222656
9.000000 2.960000 -1.000000 193.300415 -2.208824 37369.929688
9.000000 2.960000 -0.960000 156.911240 86.710266 32139.806641
9.000000 2.960000 -0.920000 74.700180 122.992340 20707.232422
9.000000 2.960000 -0.880000 3.340168 95.052353 9046.106445
9.000000 2.960000 -0.840000 -17.609163 40.026817 1912.228760
9.000000 2.960000 -0.800000 3.899461 6.338650 55.384277
9.000000 3.000000 -1.200000 28.952877 -26.865868 1560.043945
9.000000 3.000000 -1.160000 28.087107 -56.604595 3992.965576
9.000000 3.000000 -1.120000 70.518066 -88.014847 12719.411133
9.000000 3.000000 -1.080000 144.719803 -73.840851 26396.292969
9.000000 3.000000 -1.040000 197.740891 3.743450 39115.472656
9.000000 3.000000 -1.000000 180.191467 107.392349 44002.082031
9.000000 3.000000 -0.960000 93.899185 171.280334 38154.007812
9.000000 3.000000 -0.920000 -5.738642 157.446075 24822.199219
9.000000 3.000000 -0.880000 -56.878799 88.010818 10981.101562
9.000000 3.000000 -0.840000 -42.987759 22.425932 2350.869873
9.000000 3.000000 -0.800000 -0.410443 3.168699 10.209119
9.000000 3.040000 -1.200000 33.237152 -6.008994 1140.816284
9.000000 3.040000 -1.160000 46.353088 -32.370979 3196.489258
9.000000 3.040000 -1.120000 97.003998 -38.933521 10925.594727
9.000000 3.040000 -1.080000 152.324921 8.600086 23276.841797
9.000000 3.040000 -1.040000 158.670212 99.433731 35063.304688
9.000000 3.040000 -1.000000 92.324379 177.548218 40047.160156
9.000000 3.040000 -0.960000 -12.736181 187.598267 35355.320312
9.000000 3.040000 -0.920000 -90.186539 124.375954 23602.990234
9.000000 3.040000 -0.880000 -97.578690 37.615997 10936.563477
9.000000 3.040000 -0.840000 -49.935364 -12.803455 2657.468994
9.000000 3.040000 -0.800000 0.057078 -7.498034 56.223778
9.000000 3.080000 -1.200000 26.092178 13.644886 866.984680
9.000000 3.080000 -1.160000 44.270084 -0.934278 1960.713257
9.000000 3.080000 -1.120000 82.600708 13.603788 7007.939941
9.000000 3.080000 -1.080000 102.908340 69.846313 15468.634766
9.000000 3.080000 -1.040000 69.384605 138.114502 23889.839844
9.000000 3.080000 -1.000000 -12.946899 166.606415 27925.320312
9.000000 3.080000 -0.960000 -95.491158 127.434875 25358.208984
9.000000 3.080000 -0.920000 -125.386551 44.235516 17678.568359
9.000000 3.080000 -0.880000 -90.576508 -26.814650 8923.128906
9.000000 3.080000 -0.840000 -27.723263 -45.055645 2798.590332
9.000000 3.080000 -0.800000 13.407622 -16.645494 456.836823
9.000000 3.120000 -1.200000 9.601043 25.651566 750.182861
9.000000 3.120000 -1.160000 22.533123 19.813698 900.324219
9.000000 3.120000 -1.120000 40.564255 38.176445 3102.899658
9.000000 3.120000 -1.080000 34.837051 77.568733 7230.528320
9.000000 3.120000 -1.040000 -8.866520 107.419861 11617.641602
9.000000 3.120000 -1.000000 -70.567810 95.283646 14058.789062
9.000000 3.120000 -0.960000 -108.740997 38.695915 13321.978516
9.000000 3.120000 -0.920000 -95.676147 -28.567085 9970.002930
9.000000 3.120000 -0.880000 -42.168171 -63.774281 5845.313477
9.000000 3.120000 -0.840000 12.278333 -50.725513 2723.835205
9.000000 3.120000 -0.800000 33.893246 -10.231054 1253.426514
9.000000 3.160000 -1.200000 -9.684833 25.528748 745.512939
9.000000 3.160000 -1.160000 -3.850819 19.570000 397.813690
9.000000 3.160000 -1.120000 2.355919 27.734585 774.757568
9.000000 3.160000 -1.080000 -6.988071 43.283348 1922.281372
9.000000 3.160000 -1.040000 -34.015312 46.486519 3318.037842
9.000000 3.160000 -1.000000 -60.815811 23.488815 4250.287598
9.000000 3.160000 -0.960000 -63.424553 -17.696716 4335.847656
9.000000 3.160000 -0.920000 -33.887741 -50.925255 3741.760742
9.000000 3.160000 -0.880000 10.849720 -53.321621 2960.911621
9.000000 3.160000 -0.840000 42.289619 -24.532757 2390.268066
9.000000 3.160000 -0.800000 43.499023 13.987834 2087.824463
9.000000 3.200000 -1.200000 -23.130215 14.656185 749.810608
9.000000 3.200000 -1.160000 -18.413412 4.169114 356.435242
9.000000 3.200000 -1.120000 -10.707626 1.966523 118.520470
9.000000 3.200000 -1.080000 -8.496004 5.380257 101.129242
9.000000 3.200000 -1.040000 -13.330424 5.361412 206.444946
9.000000 3.200000 -1.000000 -17.225906 -3.992744 312.673859
9.000000 3.200000 -0.960000 -10.019997 -18.005909 424.613098
9.000000 3.200000 -0.920000 9.877991 -24.050459 675.999268
9.000000 3.200000 -0.880000 31.881721 -12.599075 1175.180908
9.000000 3.200000 -0.840000 40.856491 13.406937 1848.998779
9.000000 3.200000 -0.800000 29.341921 39.780033 2443.399414
9.040000 2.800000 -1.200000 -44.735558 -14.779274 2219.697021
9.040000 2.800000 -1.160000 -28.858940 -35.513710 2094.062012
9.040000 2.800000 -1.120000 -3.477993 -41.354950 1722.328369
9.040000 2.800000 -1.080000 17.858419 -30.057356 1222.367798
9.040000 2.800000 -1.040000 24.890301 -10.754618 735.188904
9.040000 2.800000 -1.000000 18.679802 3.544774 361.500427
9.040000 2.800000 -0.960000 9.556488 6.968300 139.883667
9.040000 2.800000 -0.920000 6.627998 4.767754 66.661835
9.040000 2.800000 -0.880000 9.228943 6.337124 125.332520
9.040000 2.800000 -0.840000 8.850998 14.524765 289.308960
9.040000 2.800000 -0.800000 -0.653499 22.400192 502.195679
9.040000 2.840000 -1.200000 -36.163319 -40.035767 2910.648193
9.040000 2.840000 -1.160000 -20.116808 -49.898464 2894.542725
9.040000 2.840000 -1.120000 -2.475359 -52.122219 2722.853271
9.040000 2.840000 -1.080000 13.665413 -47.468498 2440.001709
9.040000 2.840000 -1.040000 26.106007 -37.459000 2084.700195
9.040000 2.840000 -1.000000 33.403847 -23.978436 1690.782471
9.040000 2.840000 -0.960000 34.700089 -9.120834 1287.285767
9.040000 2.840000 -0.920000 29.683685 4.679756 903.021301
9.040000 2.840000 -0.880000 19.036804 14.519319 573.210510
9.040000 2.840000 -0.840000 5.254601 17.630558 338.447418
9.040000 2.840000 -0.800000 -7.304216 13.064477 224.032135
9.040000 2.880000 -1.200000 -12.782674 -55.512531 3245.037842
9.040000 2.880000 -1.160000 -4.132035 -61.035881 3742.452393
9.040000 2.880000 -1.120000 9.212090 -69.976624 4981.590820
9.040000 2.880000 -1.080000 33.398777 -74.176163 6617.581055
9.040000 2.880000 -1.040000 62.813896 -61.808693 7765.899902
9.040000 2.880000 -1.000000 81.813568 -30.506699 7624.118652
9.040000 2.880000 -0.960000 77.601669 7.285904 6075.103516
9.040000 2.880000 -0.920000 51.984818 32.788422 3777.501709
9.040000 2.880000 -0.880000 20.626156 35.567314 1690.472168
9.040000 2.880000 -0.840000 0.454460 20.944881 438.894592
9.040000 2.880000 -0.800000 -2.967141 3.838591 23.538704
9.040000 2.920000 -1.200000 15.670868 -54.008686 3162.514404
9.040000 2.920000 -1.160000 18.995253 -64.100708 4469.720703
9.040000 2.920000 -1.120000 39.673332 -80.858498 8112.069824
9.040000 2.920000 -1.080000 81.368401 -80.962547 13175.750000
9.040000 2.920000 -1.040000 122.454132 -46.563908 17163.212891
9.040000 2.920000 -1.000000 132.294891 13.237888 17677.179688
9.040000 2.920000 -0.960000 99.469101 65.725533 14213.947266
9.040000 2.920000 -0.920000 44.041328 81.316261 8551.972656
9.040000 2.920000 -0.880000 1.109631 58.496643 3423.088379
9.040000 2.920000 -0.840000 -8.826002 23.147680 613.713440
9.040000 2.920000 -0.800000 5.414394 3.761534 43.464802
9.040000 2.960000 -1.200000 37.748871 -36.292366 2742.113281
9.040000 2.960000 -1.160000 44.050373 -52.846539 4733.191895
9.040000 2.960000 -1.120000 79.035980 -66.437149 10660.580078
9.040000 2.960000 -1.080000 131.013657 -44.950752 19185.148438
9.040000 2.960000 -1.040000 160.825821 19.468044 26243.949219
9.040000 2.960000 -1.000000 136.614807 95.220848 27730.615234
9.040000 2.960000 -0.960000 66.284973 134.809082 22567.185547
9.040000 2.960000 -0.920000 -5.964685 116.271591 13554.660156
9.040000 2.960000 -0.880000 -37.360107 62.231926 5268.589844
9.040000 2.960000 -0.840000 -22.389229 17.898220 821.623840
9.040000 2.960000 -0.800000 7.338672 10.005898 153.974106
9.040000 3.000000 -1.200000 45.268471 -9.602385 2141.440186
9.040000 3.000000 -1.160000 59.636906 -26.251373 4245.695312
9.040000 3.000000 -1.120000 102.470032 -23.858315 11069.326172
9.040000 3.000000 -1.080000 143.850449 23.799187 21259.351562
9.040000 3.000000 -1.040000 139.596161 102.956528 30087.134766
9.040000 3.000000 -1.000000 75.058304 163.952332 32514.117188
9.040000 3.000000 -0.960000 -15.216019 163.422211 26938.345703
9.040000 3.000000 -0.920000 -74.510864 104.389397 16449.015625
9.040000 3.000000 -0.880000 -73.096207 34.018066 6500.284668
9.040000 3.000000 -0.840000 -31.855999 0.600426 1015.165222
9.040000 3.000000 -0.800000 1.829644 12.029358 148.053040
9.040000 3.040000 -1.200000 35.948898 15.601307 1535.723999
9.040000 3.040000 -1.160000 55.149513 6.025797 3077.779053
9.040000 3.040000 -1.120000 90.751022 26.236338 8924.093750
9.040000 3.040000 -1.080000 104.235832 85.152229 18116.011719
9.040000 3.040000 -1.040000 63.539669 149.888992 26504.000000
9.040000 3.040000 -1.000000 -20.416750 170.220306 29391.796875
9.040000 3.040000 -0.960000 -96.681396 125.060135 24987.328125
9.040000 3.040000 -0.920000 -117.359894 44.653919 15767.317383
9.040000 3.040000 -0.880000 -79.708580 -15.264957 6586.476562
9.040000 3.040000 -0.840000 -25.873325 -22.826792 1190.491455
9.040000 3.040000 -0.800000 -1.291824 5.369971 30.505402
9.040000 3.080000 -1.200000 14.284183 29.400070 1068.401978
9.040000 3.080000 -1.160000 30.916161 27.433449 1708.403076
9.040000 3.080000 -1.120000 49.085484 54.188942 5345.826172
9.040000 3.080000 -1.080000 35.833511 101.399689 11565.937500
9.040000 3.080000 -1.040000 -20.086681 131.301422 17643.537109
9.040000 3.080000 -1.000000 -90.011734 110.242538 20255.529297
9.040000 3.080000 -0.960000 -126.550262 43.227573 17883.591797
9.040000 3.080000 -0.920000 -105.814362 -26.689774 11909.022461
9.040000 3.080000 -0.880000 -49.118431 -55.629662 5507.279297
9.040000 3.080000 -0.840000 -2.375648 -36.691063 1351.877808
9.040000 3.080000 -0.800000 6.041274 -1.660394 39.253902
9.040000 3.120000 -1.200000 -9.599108 26.712599 805.705811
9.040000 3.120000 -1.160000 0.858822 26.726519 715.044373
9.040000 3.120000 -1.120000 4.627630 46.052681 2142.264404
9.040000 3.120000 -1.080000 -17.545090 68.998489 5068.621582
9.040000 3.120000 -1.040000 -60.894691 67.353119 8244.605469
9.040000 3.120000 -1.000000 -95.695404 28.780334 9985.917969
9.040000 3.120000 -0.960000 -92.829704 -27.364460 9366.166992
9.040000 3.120000 -0.920000 -51.505634 -64.600082 6826.000977
9.040000 3.120000 -0.880000 -1.104935 -61.232727 3750.667725
9.040000 3.120000 -0.840000 25.151899 -28.423450 1440.510498
9.040000 3.120000 -0.800000 18.613344 2.732735 353.924408
9.040000 3.160000 -1.200000 -24.339622 10.686803 706.625000
9.040000 3.160000 -1.160000 -17.141726 7.785291 354.449493
9.040000 3.160000 -1.120000 -16.161919 14.817259 480.758789
9.040000 3.160000 -1.080000 -28.681236 19.252537 1193.273560
9.040000 3.160000 -1.040000 -46.060715 7.349037 2175.597656
9.040000 3.160000 -1.000000 -50.091888 -20.298302 2921.218262
9.040000 3.160000 -0.960000 -30.509968 -46.481552 3091.392822
9.040000 3.160000 -0.920000 3.768982 -51.831676 2700.728027
9.040000 3.160000 -0.880000 31.353775 -32.215996 2020.929565
9.040000 3.160000 -0.840000 36.636986 -2.124099 1346.780518
9.040000 3.160000 -0.800000 21.920929 18.755362 832.290710
9.040000 3.200000 -1.200000 -24.073284 -8.159167 646.095032
9.040000 3.200000 -1.160000 -15.537496 -13.284281 417.885895
9.040000 3.200000 -1.120000 -8.766823 -12.737675 239.105530
9.040000 3.200000 -1.080000 -6.272326 -11.418663 169.727936
9.040000 3.200000 -1.040000 -4.910888 -13.480854 205.850250
9.040000 3.200000 -1.000000 0.546936 -17.740700 315.031555
9.040000 3.200000 -0.960000 11.612743 -18.382862 472.785431
9.040000 3.200000 -0.920000 23.614113 -10.417295 666.146362
9.040000 3.200000 -0.880000 29.004061 5.335985 869.708252
9.040000 3.200000 -0.840000 23.291958 22.161402 1033.643066
9.040000 3.200000 -0.800000 8.430843 32.134827 1103.726196
9.080000 2.800000 -1.200000 -31.599371 -19.265390 1369.675537
9.080000 2.800000 -1.160000 -16.539665 -33.779221 1414.596313
9.080000 2.800000 -1.120000 7.477516 -35.831924 1339.839966
9.080000 2.800000 -1.080000 27.829670 -20.677633 1202.055054
9.080000 2.800000 -1.040000 32.122936 3.549269 1044.480347
9.080000 2.800000 -1.000000 19.684174 21.617260 854.772583
9.080000 2.800000 -0.960000 2.264742 24.585823 609.591736
9.080000 2.800000 -0.920000 -7.396345 17.131636 348.198883
9.080000 2.800000 -0.880000 -7.430375 11.125265 178.981995
9.080000 2.800000 -0.840000 -6.693396 12.401608 198.601440
9.080000 2.800000 -0.800000 -13.184837 15.087035 401.458557
9.080000 2.840000 -1.200000 -19.351444 -41.174000 2069.776611
9.080000 2.840000 -1.160000 -2.391336 -49.394363 2445.521729
9.080000 2.840000 -1.120000 20.104969 -46.948292 2608.351807
9.080000 2.840000 -1.080000 38.567440 -30.505356 2418.024170
9.080000 2.840000 -1.040000 43.328129 -6.268713 1916.623535
9.080000 2.840000 -1.000000 33.128273 13.940304 1291.814453
9.080000 2.840000 -0.960000 16.036797 22.165745 748.499084
9.080000 2.840000 -0.920000 1.851089 19.771042 394.320648
9.080000 2.840000 -0.880000 -5.898640 13.699893 222.481018
9.080000 2.840000 -0.840000 -10.247353 8.383841 175.297012
9.080000 2.840000 -0.800000 -14.296283 2.509079 210.679169
9.080000 2.880000 -1.200000 6.625489 -50.812141 2625.770996
9.080000 2.880000 -1.160000 21.866343 -54.919155 3494.250488
9.080000 2.880000 -1.120000 43.642181 -51.173492 4523.366211
9.080000 2.880000 -1.080000 64.302811 -32.803017 5210.889648
9.080000 2.880000 -1.040000 71.476341 -2.435192 5114.797363
9.080000 2.880000 -1.000000 58.649784 27.135921 4176.155273
9.080000 2.880000 -0.960000 31.698605 41.934216 2763.279785
9.080000 2.880000 -0.920000 4.908482 37.334076 1417.926392
9.080000 2.880000 -0.880000 -9.759714 20.609058 519.985291
9.080000 2.880000 -0.840000 -10.369843 3.882125 122.604530
9.080000 2.880000 -0.800000 -3.619710 -5.279755 40.978111
9.080000 2.920000 -1.200000 34.471451 -41.105476 2877.940918
9.080000 2.920000 -1.160000 48.113792 -43.844189 4237.250000
9.080000 2.920000 -1.120000 72.041092 -37.677479 6609.511230
9.080000 2.920000 -1.080000 94.794937 -11.152182 9110.451172
9.080000 2.920000 -1.040000 96.800980 31.473539 10361.013672
9.080000 2.920000 -1.000000 68.833275 68.853470 9478.820312
9.080000 2.920000 -0.960000 23.400856 78.862961 6766.966797
9.080000 2.920000 -0.920000 -13.431694 57.785278 3519.548828
9.080000 2.920000 -0.880000 -23.183168 23.812878 1104.512451
9.080000 2.920000 -0.840000 -9.278096 1.134731 87.370682
9.080000 2.920000 -0.800000 8.521633 -0.244864 72.678192
9.080000 2.960000 -1.200000 50.371529 -15.167868 2767.355225
9.080000 2.960000 -1.160000 63.965351 -16.623512 4367.907227
9.080000 2.960000 -1.120000 89.019356 -3.499592 7936.692871
9.080000 2.960000 -1.080000 105.589203 35.238762 12390.850586
9.080000 2.960000 -1.040000 89.628693 85.750908 15386.521484
9.080000 2.960000 -1.000000 38.865612 116.045952 14977.199219
9.080000 2.960000 -0.960000 -19.573866 103.785316 11154.527344
9.080000 2.960000 -0.920000 -50.250546 58.258156 5919.129883
9.080000 2.960000 -0.880000 -40.174675 13.576287 1798.320068
9.080000 2.960000 -0.840000 -9.201878 -1.483510 86.875359
9.080000 2.960000 -0.800000 10.198365 12.133785 251.235397
9.080000 3.000000 -1.200000 46.126480 15.073444 2354.860840
9.080000 3.000000 -1.160000 59.231689 16.485607 3780.168213
9.080000 3.000000 -1.120000 79.001770 38.322311 7709.879395
9.080000 3.000000 -1.080000 78.829056 83.404053 13170.255859
9.080000 3.000000 -1.040000 39.661732 125.670906 17366.230469
9.080000 3.000000 -1.000000 -25.256229 130.396820 17641.207031
9.080000 3.000000 -0.960000 -76.331619 88.066757 13582.269531
9.080000 3.000000 -0.920000 -81.764511 26.954573 7411.983887
9.080000 3.000000 -0.880000 -46.854511 -10.687338 2309.564453
9.080000 3.000000 -0.840000 -8.395346 -6.619919 114.305153
9.080000 3.000000 -0.800000 0.820652 18.875572 356.960693
9.080000 3.040000 -1.200000 23.854912 34.958076 1791.124023
9.080000 3.040000 -1.160000 33.943237 39.166920 2686.190918
9.080000 3.040000 -1.120000 42.073608 64.417480 5919.800293
9.080000 3.040000 -1.080000 22.962637 101.723770 10875.007812
9.080000 3.040000 -1.040000 -28.751213 119.375946 15077.248047
9.080000 3.040000 -1.000000 -85.450302 92.791901 15912.090820
9.080000 3.040000 -0.960000 -107.916931 32.264874 12687.086914
9.080000 3.040000 -0.920000 -82.006012 -22.158466 7215.983398
9.080000 3.040000 -0.880000 -33.190170 -36.270283 2417.120850
9.080000 3.040000 -0.840000 -2.691381 -12.777414 170.505844
9.080000 3.040000 -0.800000 -8.554939 13.769873 262.796387
9.080000 3.080000 -1.200000 -4.560680 35.091335 1252.201660
9.080000 3.080000 -1.160000 1.052019 39.260155 1542.466431
9.080000 3.080000 -1.120000 -2.065208 58.690628 3448.854980
9.080000 3.080000 -1.080000 -29.708172 76.671066 6761.028320
9.080000 3.080000 -1.040000 -73.145912 67.243683 9872.037109
9.080000 3.080000 -1.000000 -101.637207 23.560690 10885.228516
9.080000 3.080000 -0.960000 -90.468521 -30.065239 9088.471680
9.080000 3.080000 -0.920000 -46.551868 -57.832516 5511.676270
9.080000 3.080000 -0.880000 -3.830482 -45.635685 2097.288330
9.080000 3.080000 -0.840000 8.352672 -13.857131 261.787201
9.080000 3.080000 -0.800000 -7.844917 3.789076 75.899826
9.080000 3.120000 -1.200000 -23.806736 17.186211 862.126526
9.080000 3.120000 -1.160000 -20.890751 18.386349 774.481323
9.080000 3.120000 -1.120000 -27.601118 26.520565 1465.162109
9.080000 3.120000 -1.080000 -48.059353 25.873077 2979.117676
9.080000 3.120000 -1.040000 -67.818878 3.824219 4614.024902
9.080000 3.120000 -1.000000 -65.947311 -32.433613 5400.987305
9.080000 3.120000 -0.960000 -36.859936 -59.003338 4840.048828
9.080000 3.120000 -0.920000 1.484091 -57.052765 3257.220703
9.080000 3.120000 -0.880000 23.086470 -31.297655 1512.528320
9.080000 3.120000 -0.840000 18.121725 -5.555344 359.258759
9.080000 3.120000 -0.800000 0.959515 0.572820 1.248791
9.080000 3.160000 -1.200000 -24.476400 -6.390755 639.935913
9.080000 3.160000 -1.160000 -21.038706 -8.078221 507.884796
9.080000 3.160000 -1.120000 -22.897881 -8.707819 600.139038
9.080000 3.160000 -1.080000 -27.256226 -16.039289 1000.160645
9.080000 3.160000 -1.040000 -24.500648 -30.633236 1538.677002
9.080000 3.160000 -1.000000 -8.783295 -42.805542 1909.460693
9.080000 3.160000 -0.960000 13.922203 -41.186626 1890.166016
9.080000 3.160000 -0.920000 29.797466 -24.458881 1486.125854
9.080000 3.160000 -0.880000 29.797712 -3.639894 901.152527
9.080000 3.160000 -0.840000 17.969601 7.965366 386.353607
9.080000 3.160000 -0.800000 6.782375 6.900104 93.612045
9.080000 3.200000 -1.200000 -9.559862 -20.487030 511.109375
9.080000 3.200000 -1.160000 -4.553450 -22.515812 527.695679
9.080000 3.200000 -1.120000 1.027736 -24.791107 615.655212
9.080000 3.200000 -1.080000 9.440199 -25.988918 764.541260
9.080000 3.200000 -1.040000 20.061651 -22.441372 906.085022
9.080000 3.200000 -1.000000 28.375223 -12.342923 957.500977
9.080000 3.200000 -0.960000 29.575188 1.209084 876.153564
9.080000 3.200000 -0.920000 23.218100 12.123251 686.053345
9.080000 3.200000 -0.880000 13.837615 16.492527 463.483032
9.080000 3.200000 -0.840000 6.643146 15.638184 288.684174
9.080000 3.200000 -0.800000 2.883416 13.808186 198.980072
9.120000 2.800000 -1.200000 -23.474335 -14.503050 761.382812
9.120000 2.800000 -1.160000 -10.934708 -27.202135 859.523987
9.120000 2.800000 -1.120000 12.722511 -26.219646 849.332153
9.120000 2.800000 -1.080000 30.247190 -5.098464 940.886841
9.120000 2.800000 -1.040000 25.788961 23.576807 1220.936401
9.120000 2.800000 -1.000000 1.634150 38.666637 1497.779297
9.120000 2.800000 -0.960000 -23.079121 30.709768 1475.735596
9.120000 2.800000 -0.920000 -30.944962 10.544619 1068.779663
9.120000 2.800000 -0.880000 -22.549002 -2.861400 516.645081
9.120000 2.800000 -0.840000 -13.359063 -2.062154 182.717041
9.120000 2.800000 -0.800000 -15.324813 2.881972 243.155640
9.120000 2.840000 -1.200000 -10.084961 -32.663574 1168.615479
9.120000 2.840000 -1.160000 7.854347 -39.040260 1585.832764
9.120000 2.840000 -1.120000 30.677546 -28.510513 1753.961182
9.120000 2.840000 -1.080000 40.780968 -1.435822 1665.148804
9.120000 2.840000 -1.040000 28.112904 25.841789 1458.133423
9.120000 2.840000 -1.000000 0.900828 35.246582 1243.133057
9.120000 2.840000 -0.960000 -21.625465 23.487015 1019.300659
9.120000 2.840000 -0.920000 -27.035624 3.802715 745.385559
9.120000 2.840000 -0.880000 -19.493212 -8.330375 449.380432
9.120000 2.840000 -0.840000 -12.155228 -9.795621 243.703735
9.120000 2.840000 -0.800000 -11.674714 -9.629196 229.020370
9.120000 2.880000 -1.200000 15.298761 -37.026432 1605.008789
9.120000 2.880000 -1.160000 33.483925 -35.072365 2351.244141
9.120000 2.880000 -1.120000 50.702694 -17.695532 2883.895020
9.120000 2.880000 -1.080000 52.835709 10.893793 2910.286865
9.120000 2.880000 -1.040000 34.482815 35.199360 2428.059570
9.120000 2.880000 -1.000000 5.215664 40.847435 1695.716064
9.120000 2.880000 -0.960000 -17.808472 26.620457 1025.790405
9.120000 2.880000 -0.920000 -23.809177 4.590099 587.945984
9.120000 2.880000 -0.880000 -15.535233 -11.138620 365.412354
9.120000 2.880000 -0.840000 -3.834759 -15.547888 256.442200
9.120000 2.880000 -0.800000 3.443706 -13.522985 194.730255
9.120000 2.920000 -1.200000 38.959209 -21.433744 1977.225342
9.120000 2.920000 -1.160000 52.437012 -12.823810 2914.090332
9.120000 2.920000 -1.120000 62.113937 7.511280 3914.560547
9.120000 2.920000 -1.080000 56.895332 35.199791 4476.104004
9.120000 2.920000 -1.040000 32.725002 56.173973 4226.440918
9.120000 2.920000 -1.000000 -0.738953 56.713509 3216.968262
9.120000 2.920000 -0.960000 -25.380611 35.531975 1906.696655
9.120000 2.920000 -0.920000 -28.413059 6.264905 846.550964
9.120000 2.920000 -0.880000 -12.469645 -12.892757 321.715210
9.120000 2.920000 -0.840000 7.324679 -13.411902 233.530045
9.120000 2.920000 -0.800000 16.556917 -1.808788 277.403229
9.120000 2.960000 -1.200000 46.084438 7.787848 2184.426025
9.120000 2.960000 -1.160000 52.163681 18.950111 3080.156250
9.120000 2.960000 -1.120000 54.090950 38.754150 4427.714844
9.120000 2.960000 -1.080000 41.198715 63.198730 5691.413574
9.120000 2.960000 -1.040000 10.196074 77.219742 6066.848633
9.120000 2.960000 -1.000000 -26.153942 66.671722 5129.147461
9.120000 2.960000 -0.960000 -46.031254 33.696575 3254.335449
9.120000 2.960000 -0.920000 -37.188717 -1.274267 1384.624390
9.120000 2.960000 -0.880000 -9.293809 -15.522445 327.321167
9.120000 2.960000 -0.840000 13.546864 -3.945113 199.081436
9.120000 2.960000 -0.800000 14.263521 16.710880 482.701538
9.120000 3.000000 -1.200000 30.934345 34.614609 2155.104980
9.120000 3.000000 -1.160000 29.917198 43.737217 2807.982910
9.120000 3.000000 -1.120000 24.847469 59.598541 4169.382812
9.120000 3.000000 -1.080000 4.954496 76.326309 5850.252441
9.120000 3.000000 -1.040000 -29.264584 77.151535 6808.775391
9.120000 3.000000 -1.000000 -59.536823 51.490204 6195.874512
9.120000 3.000000 -0.960000 -63.669498 10.274199 4159.364258
9.120000 3.000000 -0.920000 -37.844551 -19.439285 1810.095947
9.120000 3.000000 -0.880000 -3.491298 -18.378788 349.968994
9.120000 3.000000 -0.840000 11.078133 5.868851 157.168427
9.120000 3.000000 -0.800000 -2.542753 25.427181 653.007141
9.120000 3.040000 -1.200000 1.749250 43.347225 1882.041870
9.120000 3.040000 -1.160000 -3.504017 47.164093 2236.729736
9.120000 3.040000 -1.120000 -13.051189 55.676586 3270.215820
9.120000 3.040000 -1.080000 -34.958363 59.966526 4818.071289
9.120000 3.040000 -1.040000 -62.355652 45.325508 5942.628906
9.120000 3.040000 -1.000000 -74.768776 10.307195 5696.607910
9.120000 3.040000 -0.960000 -57.968937 -25.454662 4008.337402
9.120000 3.040000 -0.920000 -21.793507 -36.763206 1826.490234
9.120000 3.040000 -0.880000 5.531965 -17.964407 353.322540
9.120000 3.040000 -0.840000 3.727510 9.342377 101.174332
9.120000 3.040000 -0.800000 -18.947861 16.472729 630.372192
9.120000 3.080000 -1.200000 -23.832878 29.477953 1436.955811
9.120000 3.080000 -1.160000 -29.316641 27.329140 1606.347412
9.120000 3.080000 -1.120000 -38.521187 26.819090 2203.145508
9.120000 3.080000 -1.080000 -53.646797 18.683540 3227.053467
9.120000 3.080000 -1.040000 -63.786327 -4.155306 4085.962158
9.120000 3.080000 -1.000000 -54.339012 -33.390137 4067.629395
9.120000 3.080000 -0.960000 -24.898464 -48.826069 3003.918701
9.120000 3.080000 -0.920000 5.415496 -37.950165 1469.542603
9.120000 3.080000 -0.880000 14.229082 -11.076580 325.157410
9.120000 3.080000 -0.840000 -1.439466 6.302209 41.789906
9.120000 3.080000 -0.800000 -20.668037 -1.597219 429.718903
9.120000 3.120000 -1.200000 -30.616798 3.425020 949.119141
9.120000 3.120000 -1.160000 -33.285599 -2.654374 1114.976685
9.120000 3.120000 -1.120000 -36.844593 -10.143385 1460.412354
9.120000 3.120000 -1.080000 -38.180279 -23.495743 2009.783569
9.120000 3.120000 -1.040000 -29.247692 -40.357533 2484.157959
9.120000 3.120000 -1.000000 -7.634086 -49.473549 2505.911377
9.120000 3.120000 -0.960000 16.343693 -40.866901 1937.219971
9.120000 3.120000 -0.920000 26.488045 -18.295784 1036.352295
9.120000 3.120000 -0.880000 16.632065 1.061392 277.752136
9.120000 3.120000 -0.840000 -1.309624 2.059620 5.957148
9.120000 3.120000 -0.800000 -7.588623 -12.843535 222.543594
9.120000 3.160000 -1.200000 -16.777122 -16.516544 554.268066
9.120000 3.160000 -1.160000 -16.194176 -23.446556 811.992310
9.120000 3.160000 -1.120000 -11.649923 -32.705162 1205.348389
9.120000 3.160000 -1.080000 0.326921 -40.741962 1660.014404
9.120000 3.160000 -1.040000 18.537994 -40.343716 1971.272583
9.120000 3.160000 -1.000000 34.520096 -27.118162 1927.031738
9.120000 3.160000 -0.960000 37.956306 -6.005678 1476.749268
9.120000 3.160000 -0.920000 26.410288 10.326165 804.132996
9.120000 3.160000 -0.880000 9.428047 11.825701 228.735275
9.120000 3.160000 -0.840000 1.204517 0.754236 2.019733
9.120000 3.160000 -0.800000 7.677692 -9.589500 150.905472
9.120000 3.200000 -1.200000 4.794915 -17.634090 333.952362
9.120000 3.200000 -1.160000 6.765470 -23.809601 612.668701
9.120000 3.200000 -1.120000 17.568367 -29.874937 1201.159424
9.120000 3.200000 -1.080000 34.985767 -26.037640 1901.962646
9.120000 3.200000 -1.040000 47.807480 -8.247908 2353.583252
9.120000 3.200000 -1.000000 45.013477 15.571650 2268.689453
9.120000 3.200000 -0.960000 26.720221 30.635115 1652.480469
9.120000 3.200000 -0.920000 5.595065 28.100033 820.916565
9.120000 3.200000 -0.880000 -3.768063 13.337040 192.074936
9.120000 3.200000 -0.840000 2.229454 1.078575 6.133788
9.120000 3.200000 -0.800000 13.610229 1.805917 188.499664
9.160000 2.800000 -1.200000 -24.438894 -9.302137 683.789368
9.160000 2.800000 -1.160000 -11.930092 -22.876776 665.673950
9.160000 2.800000 -1.120000 11.221586 -17.628830 436.699646
9.160000 2.800000 -1.080000 21.377977 8.533439 529.837463
9.160000 2.800000 -1.040000 4.433032 34.492294 1209.370117
9.160000 2.800000 -1.000000 -27.841507 36.403603 2100.371826
9.160000 2.800000 -0.960000 -48.482342 12.209057 2499.598389
9.160000 2.800000 -0.920000 -42.220997 -16.271334 2047.368896
9.160000 2.800000 -0.880000 -19.882862 -25.986540 1070.628418
9.160000 2.800000 -0.840000 -5.237713 -15.615940 271.291229
9.160000 2.800000 -0.800000 -9.159933 -4.398354 103.249886
9.160000 2.840000 -1.200000 -11.498930 -24.999712 757.210999
9.160000 2.840000 -1.160000 7.049397 -29.188698 901.674072
9.160000 2.840000 -1.120000 24.633755 -12.361703 759.633606
9.160000 2.840000 -1.080000 21.205566 15.842676 700.666443
9.160000 2.840000 -1.040000 -5.148716 31.793066 1037.308350
9.160000 2.840000 -1.000000 -34.599815 21.018785 1638.936523
9.160000 2.840000 -0.960000 -44.365566 -7.336194 2022.123169
9.160000 2.840000 -0.920000 -30.356127 -29.997240 1821.328857
9.160000 2.840000 -0.880000 -9.155522 -32.650330 1149.867676
9.160000 2.840000 -0.840000 0.799208 -22.128563 490.312042
9.160000 2.840000 -0.800000 -2.142149 -15.729401 252.002853
9.160000 2.880000 -1.200000 11.994144 -26.090816 824.590210
9.160000 2.880000 -1.160000 27.801422 -18.740683 1124.132324
9.160000 2.880000 -1.120000 33.319885 2.843481 1118.300049
9.160000 2.880000 -1.080000 18.710850 24.120735 931.905762
9.160000 2.880000 -1.040000 -8.769641 27.685104 843.371643
9.160000 2.880000 -1.000000 -29.996147 9.562846 991.216919
9.160000 2.880000 -0.960000 -30.844213 -16.912638 1237.402832
9.160000 2.880000 -0.920000 -14.027637 -33.467781 1316.867065
9.160000 2.880000 -0.880000 5.358653 -32.789936 1103.895142
9.160000 2.880000 -0.840000 14.967278 -22.426147 726.951477
9.160000 2.880000 -0.800000 15.114465 -14.257382 431.720001
9.160000 2.920000 -1.200000 30.659382 -7.603520 997.811218
9.160000 2.920000 -1.160000 35.978424 6.149386 1332.261963
9.160000 2.920000 -1.120000 29.544901 23.476229 1424.034424
9.160000 2.920000 -1.080000 10.570389 33.441807 1230.087646
9.160000 2.920000 -1.040000 -11.976072 27.481949 898.683838
9.160000 2.920000 -1.000000 -24.718756 7.079964 661.142822
9.160000 2.920000 -0.960000 -19.816528 -16.089434 651.564697
9.160000 2.920000 -0.920000 -1.158716 -28.414391 808.720215
9.160000 2.920000 -0.880000 18.692249 -24.329865 941.342529
9.160000 2.920000 -0.840000 28.247692 -9.615677 890.393372
9.160000 2.920000 -0.800000 25.142365 4.339133 650.966553
9.160000 2.960000 -1.200000 29.762730 20.723682 1315.291016
9.160000 2.960000 -1.160000 23.042244 31.785721 1541.277100
9.160000 2.960000 -1.120000 10.307194 38.812126 1612.619385
9.160000 2.960000 -1.080000 -6.420811 38.025883 1487.194580
9.160000 2.960000 -1.040000 -21.585598 26.336393 1159.543701
9.160000 2.960000 -1.000000 -26.664570 5.748916 744.049316
9.160000 2.960000 -0.960000 -16.118759 -14.131388 459.510498
9.160000 2.960000 -0.920000 5.742065 -20.896866 469.650330
9.160000 2.960000 -0.880000 25.055645 -9.508286 718.192871
9.160000 2.960000 -0.840000 28.413309 11.558453 940.914001
9.160000 2.960000 -0.800000 14.645803 25.868700 883.689209
9.160000 3.000000 -1.200000 7.559278 40.105522 1665.595581
9.160000 3.000000 -1.160000 -5.952554 41.384552 1748.114014
9.160000 3.000000 -1.120000 -17.707710 37.215843 1698.582031
9.160000 3.000000 -1.080000 -27.854855 28.663500 1597.489258
9.160000 3.000000 -1.040000 -34.244110 14.007534 1368.870117
9.160000 3.000000 -1.000000 -30.501131 -4.867805 954.014526
9.160000 3.000000 -0.960000 -13.197614 -18.176380 504.557800
9.160000 3.000000 -0.920000 9.762558 -14.694733 311.242706
9.160000 3.000000 -0.880000 21.821407 5.524814 506.697388
9.160000 3.000000 -0.840000 12.423206 26.888617 877.333740
9.160000 3.000000 -0.800000 -10.572086 30.404423 1036.197876
9.160000 3.040000 -1.200000 -21.750889 36.833023 1829.772827
9.160000 3.040000 -1.160000 -34.017944 27.260986 1900.381958
9.160000 3.040000 -1.120000 -39.287071 15.074321 1770.709106
9.160000 3.040000 -1.080000 -40.193001 2.498260 1621.718628
9.160000 3.040000 -1.040000 -35.917362 -11.466436 1421.536011
9.160000 3.040000 -1.000000 -22.530277 -23.354233 1053.033569
9.160000 3.040000 -0.960000 -1.764208 -23.958902 577.141418
9.160000 3.040000 -0.920000 14.207981 -8.213811 269.333435
9.160000 3.040000 -0.880000 11.664357 14.638490 350.342621
9.160000 3.040000 -0.840000 -9.096431 25.226738 719.133362
9.160000 3.040000 -0.800000 -29.582079 12.130156 1022.240051
9.160000 3.080000 -1.200000 -38.101063 13.612149 1636.981689
9.160000 3.080000 -1.160000 -43.556091 -2.390466 1902.847412
9.160000 3.080000 -1.120000 -39.943642 -17.665247 1907.555420
9.160000 3.080000 -1.080000 -30.235384 -29.468704 1782.583008
9.160000 3.080000 -1.040000 -15.296938 -36.343491 1554.845703
9.160000 3.080000 -1.000000 3.196148 -34.142586 1175.931519
9.160000 3.080000 -0.960000 17.692709 -19.489887 692.887695
9.160000 3.080000 -0.920000 17.586651 2.177592 314.032196
9.160000 3.080000 -0.880000 0.458843 15.852985 251.527679
9.160000 3.080000 -0.840000 -20.719353 8.982250 509.972382
9.160000 3.080000 -0.800000 -25.879997 -14.154549 870.125488
9.160000 3.120000 -1.200000 -31.248005 -11.914716 1118.398193
9.160000 3.120000 -1.160000 -29.408667 -28.469854 1675.402344
9.160000 3.120000 -1.120000 -17.431889 -42.057751 2072.725098
9.160000 3.120000 -1.080000 1.555270 -47.237373 2233.788330
9.160000 3.120000 -1.040000 21.749998 -40.358669 2101.884521
9.160000 3.120000 -1.000000 34.622551 -21.659067 1667.836304
9.160000 3.120000 -0.960000 32.247414 1.538949 1042.264038
9.160000 3.120000 -0.920000 14.409377 16.071505 465.923401
9.160000 3.120000 -0.880000 -7.323709 11.758390 191.896469
9.160000 3.120000 -0.840000 -15.854914 -8.221346 318.968811
9.160000 3.120000 -0.800000 -2.813050 -26.717318 721.728333
9.160000 3.160000 -1.200000 -8.993200 -21.066456 524.673218
9.160000 3.160000 -1.160000 -3.085646 -34.924362 1229.232300
9.160000 3.160000 -1.120000 14.603213 -43.464134 2102.384766
9.160000 3.160000 -1.080000 37.609882 -37.498665 2820.653320
9.160000 3.160000 -1.040000 52.931366 -15.472799 3041.136963
9.160000 3.160000 -1.000000 49.469353 12.674273 2607.854004
9.160000 3.160000 -0.960000 27.608929 30.436232 1688.617188
9.160000 3.160000 -0.920000 1.343846 26.787039 719.351379
9.160000 3.160000 -0.880000 -11.036838 5.997920 157.786819
9.160000 3.160000 -0.840000 -1.507906 -14.275374 206.060089
9.160000 3.160000 -0.800000 20.415562 -16.769245 698.002747
9.160000 3.200000 -1.200000 9.381252 -9.131269 171.387970
9.160000 3.200000 -1.160000 16.114925 -20.881096 695.710999
9.160000 3.200000 -1.120000 35.914742 -23.215212 1828.814697
9.160000 3.200000 -1.080000 55.509720 -6.127385 3118.874023
9.160000 3.200000 -1.040000 57.109818 24.340977 3854.014404
9.160000 3.200000 -1.000000 34.904892 48.378540 3558.834473
9.160000 3.200000 -0.960000 2.471856 48.627945 2370.787109
9.160000 3.200000 -0.920000 -17.349056 26.032497 978.680664
9.160000 3.200000 -0.880000 -11.973557 -0.063758 143.370132
9.160000 3.200000 -0.840000 10.070545 -8.556864 174.635803
9.160000 3.200000 -0.800000 27.275145 5.250205 771.498169
9.200000 2.800000 -1.200000 -29.702629 -11.084284 1005.107483
9.200000 2.800000 -1.160000 -14.340121 -24.437908 802.850464
9.200000 2.800000 -1.120000 6.086894 -14.493063 247.099152
9.200000 2.800000 -1.080000 6.297361 11.374447 169.034790
9.200000 2.800000 -1.040000 -18.987505 26.079388 1040.659790
9.200000 2.800000 -1.000000 -47.564270 11.387278 2392.030029
9.200000 2.800000 -0.960000 -52.036076 -21.926331 3188.517090
9.200000 2.800000 -0.920000 -28.261059 -44.625816 2790.150879
9.200000 2.800000 -0.880000 0.761285 -39.149525 1533.264893
9.200000 2.800000 -0.840000 9.654338 -16.851517 377.179840
9.200000 2.800000 -0.800000 -3.031062 -4.115311 26.123123
9.200000 2.840000 -1.200000 -17.106216 -25.996021 968.415771
9.200000 2.840000 -1.160000 1.657732 -28.152645 795.319458
9.200000 2.840000 -1.120000 12.437826 -10.264680 260.063171
9.200000 2.840000 -1.080000 0.085943 9.958622 99.181534
9.200000 2.840000 -1.040000 -26.693581 9.758099 807.767700
9.200000 2.840000 -1.000000 -43.006340 -14.600562 2062.721680
9.200000 2.840000 -0.960000 -32.895126 -43.240562 2951.835449
9.200000 2.840000 -0.920000 -5.280000 -52.655952 2800.527832
9.200000 2.840000 -0.880000 16.076786 -38.956200 1776.048462
9.200000 2.840000 -0.840000 17.283693 -19.785641 690.197632
9.200000 2.840000 -0.800000 6.991550 -13.825310 240.020966
9.200000 2.880000 -1.200000 5.102379 -25.210001 661.578369
9.200000 2.880000 -1.160000 16.992310 -16.811064 571.350464
9.200000 2.880000 -1.120000 14.702601 -0.470064 216.387451
9.200000 2.880000 -1.080000 -2.927395 6.813291 54.990582
9.200000 2.880000 -1.040000 -21.122921 -5.202738 473.246277
9.200000 2.880000 -1.000000 -22.794819 -29.139435 1368.710449
9.200000 2.880000 -0.960000 -4.893228 -46.475960 2183.958496
9.200000 2.880000 -0.920000 19.069250 -44.872787 2377.203369
9.200000 2.880000 -0.880000 32.506821 -28.701727 1880.482422
9.200000 2.880000 -0.840000 30.924389 -12.704639 1117.725708
9.200000 2.880000 -0.800000 23.498957 -6.514684 594.642090
9.200000 2.920000 -1.200000 19.495457 -5.438084 409.645599
9.200000 2.920000 -1.160000 18.129930 4.672359 350.525299
9.200000 2.920000 -1.120000 7.511052 10.280344 162.101364
9.200000 2.920000 -1.080000 -5.431824 4.626513 50.909332
9.200000 2.920000 -1.040000 -10.423206 -10.836929 226.082260
9.200000 2.920000 -1.000000 -1.918860 -26.734329 718.406372
9.200000 2.920000 -0.960000 16.289349 -32.592907 1327.640503
9.200000 2.920000 -0.920000 33.830307 -24.586735 1748.997070
9.200000 2.920000 -0.880000 41.459282 -7.879176 1780.953491
9.200000 2.920000 -0.840000 37.204582 7.957111 1447.496582
9.200000 2.920000 -0.800000 26.371542 16.096092 954.542480
9.200000 2.960000 -1.200000 12.373772 19.808924 545.503662
9.200000 2.960000 -1.160000 0.469902 20.816917 433.564850
9.200000 2.960000 -1.120000 -8.722944 12.815971 240.338867
9.200000 2.960000 -1.080000 -10.314932 0.492488 106.640366
9.200000 2.960000 -1.040000 -3.844131 -10.560463 126.300720
9.200000 2.960000 -1.000000 8.507200 -16.169453 333.823669
9.200000 2.960000 -0.960000 23.049057 -13.479143 712.946350
9.200000 2.960000 -0.920000 34.193420 -1.601845 1171.755859
9.200000 2.960000 -0.880000 35.609810 15.999763 1524.051025
9.200000 2.960000 -0.840000 24.680380 30.862776 1561.632080
9.200000 2.960000 -0.800000 6.660326 34.167454 1211.774902
9.200000 3.000000 -1.200000 -12.900845 30.390230 1089.997925
9.200000 3.000000 -1.160000 -25.526886 17.403801 954.514160
9.200000 3.000000 -1.120000 -24.869593 0.392671 618.650818
9.200000 3.000000 -1.080000 -14.261178 -10.661449 317.047699
9.200000 3.000000 -1.040000 -1.004830 -13.198347 175.206055
9.200000 3.000000 -1.000000 10.904843 -9.339922 206.149750
9.200000 3.000000 -0.960000 20.257935 -0.000022 410.383911
9.200000 3.000000 -0.920000 23.703808 14.946084 785.255920
9.200000 3.000000 -0.880000 15.956156 31.105515 1222.151978
9.200000 3.000000 -0.840000 -2.883949 38.252213 1471.548950
9.200000 3.000000 -0.800000 -22.195597 28.607565 1311.037231
9.200000 3.040000 -1.200000 -37.231880 17.089870 1678.276611
9.200000 3.040000 -1.160000 -41.029701 -5.949993 1718.838867
9.200000 3.040000 -1.120000 -27.890091 -23.713043 1340.165527
9.200000 3.040000 -1.080000 -8.451873 -27.757353 841.904785
9.200000 3.040000 -1.040000 7.202233 -20.509750 472.522034
9.200000 3.040000 -1.000000 15.851387 -7.819806 312.415833
9.200000 3.040000 -0.960000 17.417168 7.275851 356.295746
9.200000 3.040000 -0.920000 9.991910 22.219429 593.541321
9.200000 3.040000 -0.880000 -7.294737 30.096016 958.983398
9.200000 3.040000 -0.840000 -27.295752 22.681402 1259.504028
9.200000 3.040000 -0.800000 -35.576454 0.854694 1266.414551
9.200000 3.080000 -1.200000 -41.751808 -9.605085 1835.471191
9.200000 3.080000 -1.160000 -33.731781 -33.925858 2288.796875
9.200000 3.080000 -1.120000 -11.190351 -45.634178 2207.702148
9.200000 3.080000 -1.080000 12.285215 -40.017914 1752.359985
9.200000 3.080000 -1.040000 26.346928 -22.607857 1205.275757
9.200000 3.080000 -1.000000 27.743011 -1.773150 772.818726
9.200000 3.080000 -0.960000 17.354465 15.616488 545.052185
9.200000 3.080000 -0.920000 -1.731705 23.300095 545.893188
9.200000 3.080000 -0.880000 -22.008289 16.050568 741.985535
9.200000 3.080000 -0.840000 -31.389378 -4.793862 1008.274170
9.200000 3.080000 -0.800000 -20.950218 -26.894253 1162.212524
9.200000 3.120000 -1.200000 -24.256805 -28.196424 1383.430908
9.200000 3.120000 -1.160000 -8.382914 -47.045120 2283.516602
9.200000 3.120000 -1.120000 18.026909 -50.049965 2829.968506
9.200000 3.120000 -1.080000 40.756386 -34.432640 2846.689697
9.200000 3.120000 -1.040000 48.372272 -7.728777 2399.610596
9.200000 3.120000 -1.000000 37.485527 17.418325 1708.562866
9.200000 3.120000 -0.960000 13.517618 29.239704 1037.686279
9.200000 3.120000 -0.920000 -11.383609 21.946806 611.248840
9.200000 3.120000 -0.880000 -23.260122 -0.391826 541.186768
9.200000 3.120000 -0.840000 -14.327831 -23.843765 773.811890
9.200000 3.120000 -0.800000 9.979359 -31.785849 1109.927734
9.200000 3.160000 -1.200000 -0.974617 -24.861767 619.057312
9.200000 3.160000 -1.160000 16.631420 -37.290714 1667.201538
9.200000 3.160000 -1.120000 42.248131 -32.619225 2848.918457
9.200000 3.160000 -1.080000 59.791149 -8.647144 3649.754639
9.200000 3.160000 -1.040000 56.106026 23.241856 3688.070068
9.200000 3.160000 -1.000000 30.921360 44.566910 2942.339844
9.200000 3.160000 -0.960000 -1.456567 42.193100 1782.379272
9.200000 3.160000 -0.920000 -20.959553 18.271593 773.153931
9.200000 3.160000 -0.880000 -15.809518 -10.133949 352.637787
9.200000 3.160000 -0.840000 8.398885 -22.709221 586.250000
9.200000 3.160000 -0.800000 32.259754 -10.909645 1159.712158
9.200000 3.200000 -1.200000 8.055185 -5.108882 90.986687
9.200000 3.200000 -1.160000 24.241386 -14.398453 794.960266
9.200000 3.200000 -1.120000 46.697906 -4.678327 2202.581299
9.200000 3.200000 -1.080000 55.869503 23.828880 3689.216797
9.200000 3.200000 -1.040000 39.378143 53.538124 4416.968750
9.200000 3.200000 -1.000000 4.582609 62.458633 3922.081055
9.200000 3.200000 -0.960000 -25.285341 42.990730 2487.551270
9.200000 3.200000 -0.920000 -29.638758 9.654054 971.656677
9.200000 3.200000 -0.880000 -7.910498 -12.142369 210.013123
9.200000 3.200000 -0.840000 19.927341 -7.127033 447.893555
9.200000 3.200000 -0.800000 30.475981 17.610920 1238.929932
