#kx 	ky 	kz 	real 	imag 	intensity
4.800000 -5.200000 -7.200000 -42.473579 -0.705307 1804.502441
4.800000 -5.200000 -7.160000 -24.206972 -25.677946 1245.334473
4.800000 -5.200000 -7.120000 5.354837 -19.487276 408.428223
4.800000 -5.200000 -7.080000 11.477522 11.223715 257.705261
4.800000 -5.200000 -7.040000 -15.991476 31.896269 1273.099243
4.800000 -5.200000 -7.000000 -50.703712 17.049564 2861.554199
4.800000 -5.200000 -6.960000 -57.326435 -21.943941 3767.856689
4.800000 -5.200000 -6.920000 -29.020893 -48.458843 3190.471680
4.800000 -5.200000 -6.880000 5.497926 -39.162319 1563.914429
4.800000 -5.200000 -6.840000 12.610456 -7.957628 222.347443
4.800000 -5.200000 -6.800000 -11.236170 9.823409 222.750885
4.800000 -5.160000 -7.200000 -32.220280 -31.341749 2020.451660
4.800000 -5.160000 -7.160000 -1.181542 -40.208427 1618.113647
4.800000 -5.160000 -7.120000 20.484064 -18.131828 748.360107
4.800000 -5.160000 -7.080000 10.133492 10.246599 207.680450
4.800000 -5.160000 -7.040000 -20.959770 13.020510 608.845642
4.800000 -5.160000 -7.000000 -39.129639 -14.896717 1753.040894
4.800000 -5.160000 -6.960000 -23.969784 -46.240032 2712.691162
4.800000 -5.160000 -6.920000 10.295856 -50.311817 2637.283691
4.800000 -5.160000 -6.880000 30.399426 -25.088631 1553.564453
4.800000 -5.160000 -6.840000 19.240801 1.766469 373.328827
4.800000 -5.160000 -6.800000 -7.321897 3.056380 62.951637
4.800000 -5.120000 -7.200000 -2.132191 -43.028255 1855.977051
4.800000 -5.120000 -7.160000 25.518394 -32.101807 1681.714478
4.800000 -5.120000 -7.120000 30.930719 -4.997219 981.681580
4.800000 -5.120000 -7.080000 11.753478 10.983604 258.783813
4.800000 -5.120000 -7.040000 -9.255576 0.854362 86.395622
4.800000 -5.120000 -7.000000 -8.536220 -22.493658 578.831726
4.800000 -5.120000 -6.960000 13.390844 -32.673126 1246.847900
4.800000 -5.120000 -6.920000 33.238682 -18.265499 1438.438354
4.800000 -5.120000 -6.880000 30.587261 5.514741 965.992920
4.800000 -5.120000 -6.840000 9.519849 14.065092 288.454346
4.800000 -5.120000 -6.800000 -6.860069 -0.081100 47.067127
4.800000 -5.080000 -7.200000 24.848207 -28.306702 1418.702759
4.800000 -5.080000 -7.160000 37.069557 -7.246408 1426.662476
4.800000 -5.080000 -7.120000 28.997379 12.854914 1006.096802
4.800000 -5.080000 -7.080000 11.852884 16.376266 408.672974
4.800000 -5.080000 -7.040000 3.990292 5.684224 48.232834
4.800000 -5.080000 -7.000000 11.215330 -2.587928 132.481003
4.800000 -5.080000 -6.960000 21.393198 3.359762 468.956909
4.800000 -5.080000 -6.920000 19.055250 17.363054 664.578247
4.800000 -5.080000 -6.880000 3.406595 22.650797 524.663513
4.800000 -5.080000 -6.840000 -10.468279 11.108929 232.993164
4.800000 -5.080000 -6.800000 -8.324267 -7.299439 122.575241
4.800000 -5.040000 -7.200000 30.598446 -1.034168 937.334412
4.800000 -5.040000 -7.160000 27.351803 16.662531 1025.760986
4.800000 -5.040000 -7.120000 14.867271 25.090080 850.547913
4.800000 -5.040000 -7.080000 4.723287 22.822151 543.160034
4.800000 -5.040000 -7.040000 2.696921 18.764109 359.365143
4.800000 -5.040000 -7.000000 3.081468 20.818977 442.925262
4.800000 -5.040000 -6.960000 -3.329996 26.000912 687.136292
4.800000 -5.040000 -6.920000 -16.758280 23.730663 843.984375
4.800000 -5.040000 -6.880000 -26.266006 8.951743 770.036804
4.800000 -5.040000 -6.840000 -21.157139 -10.071543 549.060486
4.800000 -5.040000 -6.800000 -3.442688 -18.915941 369.664948
4.800000 -5.000000 -7.200000 16.226389 18.079950 590.180298
4.800000 -5.000000 -7.160000 5.906688 25.570305 688.729492
4.800000 -5.000000 -7.120000 -4.132437 25.090961 646.633362
4.800000 -5.000000 -7.080000 -9.271985 21.893431 565.291992
4.800000 -5.000000 -7.040000 -12.616425 21.423609 618.145142
4.800000 -5.000000 -7.000000 -20.270977 21.780863 885.318481
4.800000 -5.000000 -6.960000 -32.033710 15.193228 1256.992676
4.800000 -5.000000 -6.920000 -38.778358 -2.121290 1508.260986
4.800000 -5.000000 -6.880000 -30.980579 -22.793867 1479.356689
4.800000 -5.000000 -6.840000 -9.869937 -33.088249 1192.247925
4.800000 -5.000000 -6.800000 11.521013 -25.898840 803.483704
4.800000 -4.960000 -7.200000 -2.712077 19.889484 402.946960
4.800000 -4.960000 -7.160000 -12.686216 18.838390 515.825012
4.800000 -4.960000 -7.120000 -18.964771 13.315093 536.954224
4.800000 -4.960000 -7.080000 -21.440041 8.307062 528.682617
4.800000 -4.960000 -7.040000 -24.479010 5.120462 625.441040
4.800000 -4.960000 -7.000000 -30.339506 -0.793093 921.114624
4.800000 -4.960000 -6.960000 -34.146584 -14.076763 1364.144409
4.800000 -4.960000 -6.920000 -27.496799 -31.712519 1761.757812
4.800000 -4.960000 -6.880000 -8.039269 -42.849796 1900.734985
4.800000 -4.960000 -6.840000 15.418867 -38.147717 1692.989746
4.800000 -4.960000 -6.800000 29.114134 -19.518749 1228.614380
4.800000 -4.920000 -7.200000 -13.025116 11.404141 299.708069
4.800000 -4.920000 -7.160000 -21.210766 5.595648 481.207855
4.800000 -4.920000 -7.120000 -24.057983 -4.586240 599.820129
4.800000 -4.920000 -7.080000 -20.938351 -13.494326 620.511353
4.800000 -4.920000 -7.040000 -16.086578 -18.497959 600.952515
4.800000 -4.920000 -7.000000 -12.652812 -22.408514 662.235168
4.800000 -4.920000 -6.960000 -8.202662 -28.676596 889.630859
4.800000 -4.920000 -6.920000 2.270359 -35.137131 1239.772461
4.800000 -4.920000 -6.880000 18.804543 -34.452160 1540.562134
4.800000 -4.920000 -6.840000 33.499546 -21.872101 1600.608398
4.800000 -4.920000 -6.800000 36.706062 -1.923403 1351.034424
4.800000 -4.880000 -7.200000 -14.770859 4.405459 237.586334
4.800000 -4.880000 -7.160000 -22.298737 -6.269206 536.536560
4.800000 -4.880000 -7.120000 -18.740124 -21.992147 834.846802
4.800000 -4.880000 -7.080000 -4.247408 -31.139116 987.685059
4.800000 -4.880000 -7.040000 11.193767 -28.089903 914.343079
4.800000 -4.880000 -7.000000 18.388010 -18.428661 677.734497
4.800000 -4.880000 -6.960000 18.058239 -11.801136 465.366821
4.800000 -4.880000 -6.920000 18.365559 -10.955383 457.314148
4.800000 -4.880000 -6.880000 24.199415 -9.449624 674.907104
4.800000 -4.880000 -6.840000 30.796165 -0.350767 948.526855
4.800000 -4.880000 -6.800000 29.018900 14.406789 1049.652100
4.800000 -4.840000 -7.200000 -16.522339 2.081739 277.321320
4.800000 -4.840000 -7.160000 -20.930418 -16.197861 700.453125
4.800000 -4.840000 -7.120000 -5.525540 -34.080017 1191.979126
4.800000 -4.840000 -7.080000 20.980921 -33.574898 1567.472900
4.800000 -4.840000 -7.040000 38.187286 -13.025872 1627.942139
4.800000 -4.840000 -7.000000 34.275684 11.042570 1296.760864
4.800000 -4.840000 -6.960000 17.073612 20.798000 724.065063
4.800000 -4.840000 -6.920000 4.624302 14.361205 227.628387
4.800000 -4.840000 -6.880000 6.137492 5.521250 68.153000
4.800000 -4.840000 -6.840000 13.883497 7.335163 246.556122
4.800000 -4.840000 -6.800000 13.696991 18.190914 518.516907
4.800000 -4.800000 -7.200000 -22.566458 -2.194676 514.061646
4.800000 -4.800000 -7.160000 -17.105520 -27.104231 1027.238159
4.800000 -4.800000 -7.120000 11.851583 -38.126350 1594.078613
4.800000 -4.800000 -7.080000 41.430099 -19.505566 2096.920166
4.800000 -4.800000 -7.040000 45.497952 16.774197 2351.437012
4.800000 -4.800000 -7.000000 20.589058 41.915974 2180.858154
4.800000 -4.800000 -6.960000 -11.096313 38.207478 1582.939575
4.800000 -4.800000 -6.920000 -24.200016 14.900709 807.671875
4.800000 -4.800000 -6.880000 -14.214055 -3.450804 213.947418
4.800000 -4.800000 -6.840000 1.378309 -2.470700 8.004096
4.800000 -4.800000 -6.800000 3.840080 9.765812 110.117302
4.840000 -5.200000 -7.200000 -25.985880 -24.714401 1286.067627
4.840000 -5.200000 -7.160000 1.004261 -25.952822 674.557495
4.840000 -5.200000 -7.120000 13.376858 -0.966658 179.874756
4.840000 -5.200000 -7.080000 -6.030459 22.489141 542.127930
4.840000 -5.200000 -7.040000 -39.615654 15.213208 1800.841675
4.840000 -5.200000 -7.000000 -51.932808 -20.824509 3130.676758
4.840000 -5.200000 -6.960000 -27.309456 -52.479713 3499.926758
4.840000 -5.200000 -6.920000 12.365460 -49.368690 2590.172119
4.840000 -5.200000 -6.880000 29.553427 -15.879265 1125.556030
4.840000 -5.200000 -6.840000 9.850441 13.154869 270.081787
4.840000 -5.200000 -6.800000 -23.576263 8.587856 629.591492
4.840000 -5.160000 -7.200000 -2.653116 -40.724388 1665.514893
4.840000 -5.160000 -7.160000 22.424131 -25.814634 1169.237061
4.840000 -5.160000 -7.120000 22.043816 2.369133 491.542603
4.840000 -5.160000 -7.080000 -2.508515 14.249687 209.346237
4.840000 -5.160000 -7.040000 -23.952950 -3.177536 583.840515
4.840000 -5.160000 -7.000000 -17.644415 -31.639727 1312.397705
4.840000 -5.160000 -6.960000 11.788292 -40.456127 1775.662109
4.840000 -5.160000 -6.920000 34.857758 -19.173439 1582.683960
4.840000 -5.160000 -6.880000 28.312872 11.114014 925.140015
4.840000 -5.160000 -6.840000 -0.407836 20.010445 400.584229
4.840000 -5.160000 -6.800000 -21.420177 -0.424435 459.004150
4.840000 -5.120000 -7.200000 25.744711 -32.765785 1736.386841
4.840000 -5.120000 -7.160000 38.969772 -8.198962 1585.866211
4.840000 -5.120000 -7.120000 28.664253 15.149050 1051.133057
4.840000 -5.120000 -7.080000 7.689404 18.934496 417.642059
4.840000 -5.120000 -7.040000 -2.314734 5.563511 36.310646
4.840000 -5.120000 -7.000000 6.101051 -5.369737 66.056900
4.840000 -5.120000 -6.960000 18.958143 0.873760 360.174652
4.840000 -5.120000 -6.920000 17.190035 17.895990 615.763794
4.840000 -5.120000 -6.880000 -1.557953 25.471287 651.213684
4.840000 -5.120000 -6.840000 -19.797413 12.261080 542.271606
4.840000 -5.120000 -6.800000 -19.022928 -11.263174 488.730896
4.840000 -5.080000 -7.200000 37.956268 -6.592143 1484.134644
4.840000 -5.080000 -7.160000 38.100662 17.349747 1752.674194
4.840000 -5.080000 -7.120000 23.804985 33.794449 1708.742188
4.840000 -5.080000 -7.080000 6.630896 36.766609 1395.752319
4.840000 -5.080000 -7.040000 -4.037231 32.194122 1052.760742
4.840000 -5.080000 -7.000000 -9.415907 28.886168 923.069946
4.840000 -5.080000 -6.960000 -16.790642 27.625301 1045.083008
4.840000 -5.080000 -6.920000 -27.982201 21.132099 1229.569092
4.840000 -5.080000 -6.880000 -34.976490 4.805014 1246.442993
4.840000 -5.080000 -6.840000 -28.457129 -14.818250 1029.388672
4.840000 -5.080000 -6.800000 -9.612365 -24.671768 701.093750
4.840000 -5.040000 -7.200000 27.140991 17.598083 1046.325928
4.840000 -5.040000 -7.160000 19.802233 34.982323 1615.891357
4.840000 -5.040000 -7.120000 4.326088 46.644608 2194.434570
4.840000 -5.040000 -7.080000 -15.038858 50.064835 2732.654785
4.840000 -5.040000 -7.040000 -34.871891 44.858082 3228.296387
4.840000 -5.040000 -7.000000 -52.030853 30.559425 3641.088135
4.840000 -5.040000 -6.960000 -61.445610 7.577728 3832.984863
4.840000 -5.040000 -6.920000 -57.127655 -19.174763 3631.240479
4.840000 -5.040000 -6.880000 -37.655663 -39.551643 2982.281494
4.840000 -5.040000 -6.840000 -10.592546 -43.984276 2046.818604
4.840000 -5.040000 -6.800000 10.716764 -31.760574 1123.583130
4.840000 -5.000000 -7.200000 5.521882 24.067535 609.737488
4.840000 -5.000000 -7.160000 -3.894336 35.389977 1267.616333
4.840000 -5.000000 -7.120000 -21.528051 42.876831 2301.879639
4.840000 -5.000000 -7.080000 -45.501431 40.038788 3673.484619
4.840000 -5.000000 -7.040000 -68.370407 21.898634 5154.062988
4.840000 -5.000000 -7.000000 -78.985809 -10.066065 6340.083984
4.840000 -5.000000 -6.960000 -68.729965 -45.560051 6799.526367
4.840000 -5.000000 -6.920000 -38.600727 -69.322601 6295.639160
4.840000 -5.000000 -6.880000 -1.092494 -70.370735 4953.233887
4.840000 -5.000000 -6.840000 26.599285 -50.184895 3226.045654
4.840000 -5.000000 -6.800000 34.082817 -22.362513 1661.720459
4.840000 -4.960000 -7.200000 -9.057613 14.508485 292.536499
4.840000 -4.960000 -7.160000 -19.622826 22.087437 872.910156
4.840000 -4.960000 -7.120000 -39.302116 22.098694 2033.008667
4.840000 -4.960000 -7.080000 -60.721073 6.595881 3730.554443
4.840000 -4.960000 -7.040000 -70.887695 -24.403389 5620.590820
4.840000 -4.960000 -7.000000 -59.386631 -60.155296 7145.431641
4.840000 -4.960000 -6.960000 -26.514725 -84.065445 7770.029785
4.840000 -4.960000 -6.920000 14.950659 -83.799255 7245.837402
4.840000 -4.960000 -6.880000 46.684750 -59.760231 5750.750977
4.840000 -4.960000 -6.840000 56.287170 -25.307732 3808.726807
4.840000 -4.960000 -6.800000 44.990349 2.174433 2028.859619
4.840000 -4.920000 -7.200000 -10.047033 3.029852 110.122879
4.840000 -4.920000 -7.160000 -22.971493 5.957490 563.181152
4.840000 -4.920000 -7.120000 -39.416039 -4.779393 1576.466797
4.840000 -4.920000 -7.080000 -46.499290 -29.530325 3034.224121
4.840000 -4.920000 -7.040000 -34.787010 -58.021698 4576.653320
4.840000 -4.920000 -7.000000 -5.320733 -75.637001 5749.266113
4.840000 -4.920000 -6.960000 30.592413 -72.526627 6196.006836
4.840000 -4.920000 -6.920000 58.004482 -49.352226 5800.162109
4.840000 -4.920000 -6.880000 66.666183 -16.510736 4716.984375
4.840000 -4.920000 -6.840000 56.110268 12.083040 3294.361816
4.840000 -4.920000 -6.800000 34.871986 26.667078 1927.188477
4.840000 -4.880000 -7.200000 -5.586080 0.002564 31.204290
4.840000 -4.880000 -7.160000 -18.956097 -5.352436 387.982147
4.840000 -4.880000 -7.120000 -23.861048 -24.196198 1154.805664
4.840000 -4.880000 -7.080000 -11.536177 -44.691635 2130.425781
4.840000 -4.880000 -7.040000 13.905206 -52.886139 2990.298340
4.840000 -4.880000 -7.000000 39.779171 -43.396011 3465.596191
4.840000 -4.880000 -6.960000 54.890656 -21.498978 3475.190186
4.840000 -4.880000 -6.920000 55.761234 2.949957 3118.017334
4.840000 -4.880000 -6.880000 45.466499 22.274141 2563.340088
4.840000 -4.880000 -6.840000 29.191704 33.036591 1943.571777
4.840000 -4.880000 -6.800000 11.756914 34.541851 1331.364502
4.840000 -4.840000 -7.200000 -6.575720 2.367280 48.844112
4.840000 -4.840000 -7.160000 -13.873077 -12.305678 343.891998
4.840000 -4.840000 -7.120000 -2.821163 -29.640898 886.541809
4.840000 -4.840000 -7.080000 20.981796 -32.294044 1483.141113
4.840000 -4.840000 -7.040000 40.223488 -15.915461 1871.230835
4.840000 -4.840000 -7.000000 42.564354 8.022921 1876.091553
4.840000 -4.840000 -6.960000 30.525032 24.603691 1537.119141
4.840000 -4.840000 -6.920000 15.816985 28.830324 1081.364624
4.840000 -4.840000 -6.880000 6.386745 26.586151 747.613953
4.840000 -4.840000 -6.840000 0.735611 24.722431 611.739746
4.840000 -4.840000 -6.800000 -6.047007 23.073936 568.972839
4.840000 -4.800000 -7.200000 -13.582407 -0.312973 184.579727
4.840000 -4.800000 -7.160000 -8.274645 -18.760862 420.439728
4.840000 -4.800000 -7.120000 14.307241 -23.765707 769.505981
4.840000 -4.800000 -7.080000 33.737823 -5.738329 1171.169189
4.840000 -4.800000 -7.040000 31.307037 22.260742 1475.671265
4.840000 -4.800000 -7.000000 8.650727 37.743050 1499.372925
4.840000 -4.800000 -6.960000 -14.964268 30.903139 1178.933350
4.840000 -4.800000 -6.920000 -22.588423 12.408659 664.211670
4.840000 -4.800000 -6.880000 -14.991196 0.156983 224.760590
4.840000 -4.800000 -6.840000 -6.263603 0.762691 39.814426
4.840000 -4.800000 -6.800000 -6.611851 5.569221 74.732803
4.880000 -5.200000 -7.200000 0.423626 -28.298681 800.994812
4.880000 -5.200000 -7.160000 15.415964 -8.501089 309.920471
4.880000 -5.200000 -7.120000 3.049288 15.777774 258.236298
4.880000 -5.200000 -7.080000 -27.590755 15.872490 1013.185791
4.880000 -5.200000 -7.040000 -44.866928 -14.030313 2209.890869
4.880000 -5.200000 -7.000000 -27.270916 -47.528530 3002.664062
4.880000 -5.200000 -6.960000 12.137314 -51.480824 2797.589600
4.880000 -5.200000 -6.920000 36.971214 -20.675957 1794.365967
4.880000 -5.200000 -6.880000 24.193802 15.401035 822.531921
4.880000 -5.200000 -6.840000 -12.025734 21.901054 624.274475
4.880000 -5.200000 -6.800000 -34.642883 -6.184969 1238.383179
4.880000 -5.160000 -7.200000 22.464258 -27.022236 1234.844116
4.880000 -5.160000 -7.160000 27.592541 -1.259155 762.933777
4.880000 -5.160000 -7.120000 9.082571 16.153950 343.443207
4.880000 -5.160000 -7.080000 -13.739782 8.494133 260.931915
4.880000 -5.160000 -7.040000 -16.334518 -14.854833 487.482544
4.880000 -5.160000 -7.000000 4.570004 -27.225227 762.097961
4.880000 -5.160000 -6.960000 26.408281 -12.938416 864.799927
4.880000 -5.160000 -6.920000 24.161217 15.114441 812.210693
4.880000 -5.160000 -6.880000 -2.732123 28.120144 798.206970
4.880000 -5.160000 -6.840000 -28.871571 11.403258 963.601868
4.880000 -5.160000 -6.800000 -28.808121 -20.015560 1230.530518
4.880000 -5.120000 -7.200000 37.726830 -8.024763 1487.710571
4.880000 -5.120000 -7.160000 33.441471 16.963486 1406.091919
4.880000 -5.120000 -7.120000 14.506145 29.787098 1097.699463
4.880000 -5.120000 -7.080000 -2.897537 25.730179 670.437866
4.880000 -5.120000 -7.040000 -7.698818 15.867228 311.040710
4.880000 -5.120000 -7.000000 -4.746769 13.721428 210.809402
4.880000 -5.120000 -6.960000 -7.673863 19.733341 448.292938
4.880000 -5.120000 -6.920000 -21.746084 21.001854 913.970093
4.880000 -5.120000 -6.880000 -36.204494 6.818960 1357.263550
4.880000 -5.120000 -6.840000 -35.144360 -17.386892 1537.429932
4.880000 -5.120000 -6.800000 -15.313398 -33.711052 1370.935181
4.880000 -5.080000 -7.200000 34.157295 16.346704 1433.935547
4.880000 -5.080000 -7.160000 24.235909 37.870785 2021.575562
4.880000 -5.080000 -7.120000 3.724516 50.672325 2581.556641
4.880000 -5.080000 -7.080000 -19.872478 51.332291 3029.919434
4.880000 -5.080000 -7.040000 -40.450066 41.631882 3369.421387
4.880000 -5.080000 -7.000000 -55.134102 24.506859 3640.355469
4.880000 -5.080000 -6.960000 -61.752243 1.952694 3817.152588
4.880000 -5.080000 -6.920000 -57.050804 -22.720016 3770.993408
4.880000 -5.080000 -6.880000 -39.536255 -42.406258 3361.406250
4.880000 -5.080000 -6.840000 -14.105116 -48.844536 2584.742920
4.880000 -5.080000 -6.800000 8.275135 -39.550140 1632.691528
4.880000 -5.040000 -7.200000 15.368994 29.224773 1090.293335
4.880000 -5.040000 -7.160000 1.782199 48.214909 2327.853760
4.880000 -5.040000 -7.120000 -25.839909 59.734810 4235.948242
4.880000 -5.040000 -7.080000 -61.494545 52.998722 6590.443359
4.880000 -5.040000 -7.040000 -90.984909 23.558529 8833.257812
4.880000 -5.040000 -7.000000 -99.042343 -21.112854 10255.138672
4.880000 -5.040000 -6.960000 -79.194946 -63.611328 10318.240234
4.880000 -5.040000 -6.920000 -39.192554 -86.097244 8948.791992
4.880000 -5.040000 -6.880000 2.821962 -81.196930 6600.904785
4.880000 -5.040000 -6.840000 29.421196 -56.362663 4042.356445
4.880000 -5.040000 -6.800000 34.468857 -28.111712 1978.370361
4.880000 -5.000000 -7.200000 -3.161097 24.633873 616.820251
4.880000 -5.000000 -7.160000 -21.689156 41.240211 2171.174561
4.880000 -5.000000 -7.120000 -57.710182 43.323780 5207.415039
4.880000 -5.000000 -7.080000 -95.756653 16.159306 9430.459961
4.880000 -5.000000 -7.040000 -110.811890 -37.324848 13672.418945
4.880000 -5.000000 -7.000000 -86.954262 -93.830627 16365.230469
4.880000 -5.000000 -6.960000 -31.425304 -124.122543 16393.955078
4.880000 -5.000000 -6.920000 28.670353 -113.713737 13752.803711
4.880000 -5.000000 -6.880000 65.123947 -72.812767 9542.828125
4.880000 -5.000000 -6.840000 67.592239 -27.488485 5324.327637
4.880000 -5.000000 -6.800000 47.751030 0.057562 2280.164307
4.880000 -4.960000 -7.200000 -9.099499 11.803243 222.117432
4.880000 -4.960000 -7.160000 -33.665649 22.601368 1644.197754
4.880000 -4.960000 -7.120000 -70.112305 7.798542 4976.552734
4.880000 -4.960000 -7.080000 -91.699242 -38.752548 9910.510742
4.880000 -4.960000 -7.040000 -74.229637 -97.318695 14980.967773
4.880000 -4.960000 -7.000000 -17.627327 -133.841034 18224.144531
4.880000 -4.960000 -6.960000 50.974644 -125.238243 18283.031250
4.880000 -4.960000 -6.920000 96.304726 -77.015884 15206.046875
4.880000 -4.960000 -6.880000 100.192963 -18.257187 10371.955078
4.880000 -4.960000 -6.840000 72.085815 20.944653 5635.042969
4.880000 -4.960000 -6.800000 37.640873 30.020700 2318.077637
4.880000 -4.920000 -7.200000 -4.090510 4.537130 37.317825
4.880000 -4.920000 -7.160000 -31.541609 4.646845 1016.466248
4.880000 -4.920000 -7.120000 -55.641052 -25.271095 3734.554932
4.880000 -4.920000 -7.080000 -49.261559 -74.015968 7905.064941
4.880000 -4.920000 -7.040000 -4.307858 -110.432800 12213.960938
4.880000 -4.920000 -7.000000 58.722702 -107.258965 14952.840820
4.880000 -4.920000 -6.960000 105.056290 -62.919235 14995.654297
4.880000 -4.920000 -6.920000 111.497032 -2.478403 12437.730469
4.880000 -4.920000 -6.880000 81.808182 42.141335 8468.470703
4.880000 -4.920000 -6.840000 40.109825 54.858444 4618.247070
4.880000 -4.920000 -6.800000 10.355216 42.712097 1931.553711
4.880000 -4.880000 -7.200000 0.245768 7.158748 51.308071
4.880000 -4.880000 -7.160000 -22.748352 -4.813532 540.657654
4.880000 -4.880000 -7.120000 -26.801180 -38.247963 2181.209961
4.880000 -4.880000 -7.080000 1.244612 -68.892044 4747.662598
4.880000 -4.880000 -7.040000 48.920002 -70.523071 7366.669922
4.880000 -4.880000 -7.000000 87.210663 -36.905983 8967.750977
4.880000 -4.880000 -6.960000 93.417595 13.457100 8907.940430
4.880000 -4.880000 -6.920000 67.355820 52.754654 7319.860352
4.880000 -4.880000 -6.880000 28.282059 64.548820 4966.425293
4.880000 -4.880000 -6.840000 -2.068867 52.321854 2741.856689
4.880000 -4.880000 -6.800000 -14.254820 31.611748 1202.502441
4.880000 -4.840000 -7.200000 -3.991659 11.656992 151.818817
4.880000 -4.840000 -7.160000 -15.523974 -7.636775 299.314117
4.880000 -4.840000 -7.120000 -2.813999 -31.075512 973.606018
4.880000 -4.840000 -7.080000 28.034378 -35.671837 2058.406250
4.880000 -4.840000 -7.040000 54.405045 -13.484715 3141.746582
4.880000 -4.840000 -7.000000 57.090401 21.935963 3740.500488
4.880000 -4.840000 -6.960000 35.561970 48.322365 3599.704590
4.880000 -4.840000 -6.920000 5.606487 53.014359 2841.954834
4.880000 -4.840000 -6.880000 -15.773151 40.030811 1851.258179
4.880000 -4.840000 -6.840000 -22.549240 22.216938 1002.060547
4.880000 -4.840000 -6.800000 -19.452560 9.139542 461.933319
4.880000 -4.800000 -7.200000 -12.612617 8.165306 225.750351
4.880000 -4.800000 -7.160000 -10.926941 -9.820272 215.835785
4.880000 -4.800000 -7.120000 7.323526 -16.793848 335.667358
4.880000 -4.800000 -7.080000 24.414549 -3.574932 608.850342
4.880000 -4.800000 -7.040000 23.669828 19.476202 939.583252
4.880000 -4.800000 -7.000000 5.179770 33.392464 1141.886597
4.880000 -4.800000 -6.960000 -15.910055 28.754459 1079.948730
4.880000 -4.800000 -6.920000 -25.041451 12.556561 784.741455
4.880000 -4.800000 -6.880000 -20.607100 -1.318090 426.389923
4.880000 -4.800000 -6.840000 -11.647835 -5.875608 170.194824
4.880000 -4.800000 -6.800000 -6.140437 -4.638706 59.222557
4.920000 -5.200000 -7.200000 17.532846 -12.505812 463.796021
4.920000 -5.200000 -7.160000 10.292775 10.383566 213.759674
4.920000 -5.200000 -7.120000 -16.195194 16.175007 523.915161
4.920000 -5.200000 -7.080000 -36.904381 -6.018843 1398.159790
4.920000 -5.200000 -7.040000 -28.221369 -38.315613 2264.531738
4.920000 -5.200000 -7.000000 5.873852 -49.333160 2468.262939
4.920000 -5.200000 -6.960000 34.772160 -26.072702 1888.888916
4.920000 -5.200000 -6.920000 30.815716 10.961094 1069.753906
4.920000 -5.200000 -6.880000 -2.298613 26.792606 723.127380
4.920000 -5.200000 -6.840000 -32.283081 6.733490 1087.537109
4.920000 -5.200000 -6.800000 -30.219860 -28.890526 1747.902344
4.920000 -5.160000 -7.200000 28.271349 -2.838822 807.328064
4.920000 -5.160000 -7.160000 14.856890 15.782303 469.808258
4.920000 -5.160000 -7.120000 -7.207024 15.252172 284.569946
4.920000 -5.160000 -7.080000 -16.892338 -2.464096 291.422852
4.920000 -5.160000 -7.040000 -5.654518 -17.292618 331.008209
4.920000 -5.160000 -7.000000 12.306683 -11.813549 291.014374
4.920000 -5.160000 -6.960000 14.220987 9.272850 288.222229
4.920000 -5.160000 -6.920000 -6.669167 22.673367 558.559326
4.920000 -5.160000 -6.880000 -32.342476 10.526947 1156.852417
4.920000 -5.160000 -6.840000 -37.408829 -19.997534 1799.321777
4.920000 -5.160000 -6.800000 -15.078659 -42.713017 2051.767578
4.920000 -5.120000 -7.200000 30.155102 14.527158 1120.368408
4.920000 -5.120000 -7.160000 15.204604 30.273270 1147.650879
4.920000 -5.120000 -7.120000 -4.580759 32.719910 1091.575928
4.920000 -5.120000 -7.080000 -18.568848 25.027208 971.163208
4.920000 -5.120000 -7.040000 -24.754398 16.334667 879.601562
4.920000 -5.120000 -7.000000 -29.498575 10.753014 985.793274
4.920000 -5.120000 -6.960000 -37.469933 3.177273 1414.090942
4.920000 -5.120000 -6.920000 -43.750134 -13.006550 2083.244629
4.920000 -5.120000 -6.880000 -37.948574 -35.092319 2671.565186
4.920000 -5.120000 -6.840000 -16.622787 -50.246475 2801.025391
4.920000 -5.120000 -6.800000 10.004391 -47.083775 2316.969727
4.920000 -5.080000 -7.200000 19.205692 29.565933 1243.003052
4.920000 -5.080000 -7.160000 1.832743 46.274319 2144.671387
4.920000 -5.080000 -7.120000 -26.037712 52.142109 3396.761963
4.920000 -5.080000 -7.080000 -56.366867 41.010227 4859.062500
4.920000 -5.080000 -7.040000 -78.032829 13.122894 6261.333008
4.920000 -5.080000 -7.000000 -81.816216 -23.959099 7267.931641
4.920000 -5.080000 -6.960000 -64.956436 -58.003460 7583.739746
4.920000 -5.080000 -6.920000 -33.052818 -77.298332 7067.520996
4.920000 -5.080000 -6.880000 1.975851 -76.205811 5811.229492
4.920000 -5.080000 -6.840000 27.477882 -58.139378 4135.221191
4.920000 -5.080000 -6.800000 36.610275 -33.742405 2478.862305
4.920000 -5.040000 -7.200000 1.878983 32.876984 1084.426636
4.920000 -5.040000 -7.160000 -23.024582 49.931679 3023.303955
4.920000 -5.040000 -7.120000 -64.447197 47.679977 6426.821289
4.920000 -5.040000 -7.080000 -103.453484 13.481615 10884.376953
4.920000 -5.040000 -7.040000 -114.381538 -45.522541 15155.438477
4.920000 -5.040000 -7.000000 -84.250717 -102.808578 17667.787109
4.920000 -5.040000 -6.960000 -24.639816 -129.491348 17375.130859
4.920000 -5.040000 -6.920000 35.139271 -114.668793 14383.700195
4.920000 -5.040000 -6.880000 68.482025 -72.214691 9904.749023
4.920000 -5.040000 -6.840000 68.743713 -28.787933 5554.443359
4.920000 -5.040000 -6.800000 49.848755 -3.938971 2500.413818
4.920000 -5.000000 -7.200000 -10.331743 24.628994 713.332275
4.920000 -5.000000 -7.160000 -45.234367 35.184700 3284.111084
4.920000 -5.000000 -7.120000 -91.645935 11.874563 8539.982422
4.920000 -5.000000 -7.080000 -115.527191 -49.913933 15837.932617
4.920000 -5.000000 -7.040000 -88.724045 -122.566963 22894.617188
4.920000 -5.000000 -7.000000 -15.298927 -163.101196 26836.056641
4.920000 -5.000000 -6.960000 67.488449 -146.084808 25895.462891
4.920000 -5.000000 -6.920000 116.265686 -83.722305 20527.134766
4.920000 -5.000000 -6.880000 113.480484 -15.268867 13110.958984
4.920000 -5.000000 -6.840000 76.735138 24.220966 6474.936523
4.920000 -5.000000 -6.800000 39.552795 27.967171 2346.586182
4.920000 -4.960000 -7.200000 -11.579906 14.272800 337.807037
4.920000 -4.960000 -7.160000 -51.482937 10.733496 2765.700684
4.920000 -4.960000 -7.120000 -85.291588 -34.509666 8465.572266
4.920000 -4.960000 -7.080000 -74.804352 -105.646675 16756.910156
4.920000 -4.960000 -7.040000 -8.707432 -157.538467 24894.189453
4.920000 -4.960000 -7.000000 81.998634 -150.630325 29413.269531
4.920000 -4.960000 -6.960000 145.284103 -84.454811 28240.085938
4.920000 -4.960000 -6.920000 148.351791 1.103531 22009.472656
4.920000 -4.960000 -6.880000 101.192810 58.000523 13604.044922
4.920000 -4.960000 -6.840000 43.750233 66.282112 6307.401367
4.920000 -4.960000 -6.800000 10.910383 43.153168 1981.232422
4.920000 -4.920000 -7.200000 -6.710325 11.059813 167.347931
4.920000 -4.920000 -7.160000 -41.603718 -7.962172 1794.265503
4.920000 -4.920000 -7.120000 -50.433479 -61.409931 6314.715820
4.920000 -4.920000 -7.080000 -8.164877 -114.765877 13237.871094
4.920000 -4.920000 -7.040000 70.423393 -123.416771 20191.152344
4.920000 -4.920000 -7.000000 137.971008 -71.358742 24128.070312
4.920000 -4.920000 -6.960000 151.806564 13.133190 23217.712891
4.920000 -4.920000 -6.920000 107.823326 79.861046 18003.656250
4.920000 -4.920000 -6.880000 40.896240 96.461342 10977.292969
4.920000 -4.920000 -6.840000 -6.473907 69.959549 4936.250000
4.920000 -4.920000 -6.800000 -17.075359 33.556587 1417.612427
4.920000 -4.880000 -7.200000 -5.424244 15.088520 257.085846
4.920000 -4.880000 -7.160000 -27.388271 -13.112492 922.054871
4.920000 -4.880000 -7.120000 -13.500702 -57.004608 3431.794434
4.920000 -4.880000 -7.080000 38.803848 -78.013016 7591.769531
4.920000 -4.880000 -7.040000 97.092484 -50.139889 11940.958984
4.920000 -4.880000 -7.000000 119.495956 15.261715 14512.203125
4.920000 -4.880000 -6.960000 89.773460 77.572350 14076.744141
4.920000 -4.880000 -6.920000 29.677437 100.231827 10927.168945
4.920000 -4.880000 -6.880000 -21.264717 78.533424 6619.686523
4.920000 -4.880000 -6.840000 -38.201180 38.181690 2917.171387
4.920000 -4.880000 -6.800000 -26.209675 9.565277 778.441589
4.920000 -4.840000 -7.200000 -11.843286 18.193398 471.263123
4.920000 -4.840000 -7.160000 -19.802114 -10.055091 493.228607
4.920000 -4.840000 -7.120000 3.644386 -35.420589 1267.899658
4.920000 -4.840000 -7.080000 43.578232 -30.676685 2840.121338
4.920000 -4.840000 -7.040000 67.841583 7.023300 4651.807129
4.920000 -4.840000 -7.000000 55.392658 52.529015 5827.644043
4.920000 -4.840000 -6.960000 14.287479 74.497307 5753.980469
4.920000 -4.840000 -6.920000 -26.763073 61.437538 4490.833008
4.920000 -4.840000 -6.880000 -43.503048 28.336746 2695.486328
4.920000 -4.840000 -6.840000 -33.885822 0.405851 1148.413574
4.920000 -4.840000 -6.800000 -14.252626 -8.361103 273.045410
4.920000 -4.800000 -7.200000 -20.516815 13.393009 600.312378
4.920000 -4.800000 -7.160000 -18.914558 -8.838146 435.873352
4.920000 -4.800000 -7.120000 1.582283 -18.741430 353.744843
4.920000 -4.800000 -7.080000 21.561674 -5.889046 499.586639
4.920000 -4.800000 -7.040000 22.103773 18.826805 843.025391
4.920000 -4.800000 -7.000000 2.284946 34.134041 1170.353638
4.920000 -4.800000 -6.960000 -21.296776 28.206436 1249.155762
4.920000 -4.800000 -6.920000 -30.881725 7.878780 1015.756165
4.920000 -4.800000 -6.880000 -22.638000 -10.014706 612.773376
4.920000 -4.800000 -6.840000 -6.885805 -14.445938 256.099457
4.920000 -4.800000 -6.800000 3.866888 -7.388895 69.548592
4.960000 -5.200000 -7.200000 15.243431 7.097989 282.743652
4.960000 -5.200000 -7.160000 -5.993193 14.982810 260.402954
4.960000 -5.200000 -7.120000 -26.829184 0.165518 719.832520
4.960000 -5.200000 -7.080000 -26.080229 -27.837051 1455.079834
4.960000 -5.200000 -7.040000 -0.738251 -43.776970 1916.968140
4.960000 -5.200000 -7.000000 27.728563 -30.872360 1721.975830
4.960000 -5.200000 -6.960000 32.500145 0.725441 1056.785645
4.960000 -5.200000 -6.920000 8.177514 21.793428 541.825256
4.960000 -5.200000 -6.880000 -22.517374 12.170702 655.158142
4.960000 -5.200000 -6.840000 -30.300133 -18.960005 1277.579834
4.960000 -5.200000 -6.800000 -8.022470 -41.785034 1810.349121
4.960000 -5.160000 -7.200000 15.980551 13.457572 436.484253
4.960000 -5.160000 -7.160000 -2.004375 16.158478 265.113922
4.960000 -5.160000 -7.120000 -14.512947 4.109919 227.517059
4.960000 -5.160000 -7.080000 -11.519051 -10.740727 248.051758
4.960000 -5.160000 -7.040000 0.988159 -13.288361 177.556976
4.960000 -5.160000 -7.000000 6.161209 -1.819763 41.272038
4.960000 -5.160000 -6.960000 -5.703539 8.666206 107.633492
4.960000 -5.160000 -6.920000 -25.208218 1.526150 637.783386
4.960000 -5.160000 -6.880000 -31.807487 -23.012680 1541.299683
4.960000 -5.160000 -6.840000 -14.696543 -45.885563 2321.473145
4.960000 -5.160000 -6.800000 14.918016 -47.061874 2437.367188
4.960000 -5.120000 -7.200000 13.025350 22.917433 694.868469
4.960000 -5.120000 -7.160000 -3.013132 28.642469 829.470032
4.960000 -5.120000 -7.120000 -19.853924 24.620995 1000.371643
4.960000 -5.120000 -7.080000 -32.110249 13.569054 1215.187378
4.960000 -5.120000 -7.040000 -38.835831 -0.450287 1508.424561
4.960000 -5.120000 -7.000000 -41.102417 -16.204819 1952.004883
4.960000 -5.120000 -6.960000 -37.557434 -34.170685 2578.196777
4.960000 -5.120000 -6.920000 -24.453964 -51.608910 3261.475830
4.960000 -5.120000 -6.880000 -1.288868 -60.804985 3698.907227
4.960000 -5.120000 -6.840000 24.466118 -54.535805 3572.745117
4.960000 -5.120000 -6.800000 40.490322 -34.124489 2803.946777
4.960000 -5.080000 -7.200000 3.237873 30.787178 958.334167
4.960000 -5.080000 -7.160000 -19.845856 40.903111 2066.922363
4.960000 -5.080000 -7.120000 -51.983261 33.814262 3845.663818
4.960000 -5.080000 -7.080000 -78.210442 3.928669 6132.307617
4.960000 -5.080000 -7.040000 -82.179192 -40.849083 8422.067383
4.960000 -5.080000 -7.000000 -57.595802 -81.896515 10024.315430
4.960000 -5.080000 -6.960000 -13.470100 -100.977730 10377.945312
4.960000 -5.080000 -6.920000 31.141045 -91.507263 9343.343750
4.960000 -5.080000 -6.880000 58.929829 -61.728065 7283.078613
4.960000 -5.080000 -6.840000 63.952789 -28.080313 4878.463379
4.960000 -5.080000 -6.800000 52.703823 -4.406249 2797.107910
4.960000 -5.040000 -7.200000 -10.286735 31.068031 1071.039551
4.960000 -5.040000 -7.160000 -46.427254 36.466232 3485.276123
4.960000 -5.040000 -7.120000 -88.381859 8.771240 7888.287598
4.960000 -5.040000 -7.080000 -105.077789 -51.626083 13706.593750
4.960000 -5.040000 -7.040000 -74.535423 -116.859261 19211.617188
4.960000 -5.040000 -7.000000 -4.653133 -149.125244 22259.990234
4.960000 -5.040000 -6.960000 69.397331 -129.219574 21513.689453
4.960000 -5.040000 -6.920000 110.485153 -71.231895 17280.951172
4.960000 -5.040000 -6.880000 106.015541 -10.578121 11351.191406
4.960000 -5.040000 -6.840000 73.327255 23.558035 5931.867188
4.960000 -5.040000 -6.800000 41.405045 27.199780 2454.205566
4.960000 -5.000000 -7.200000 -20.035524 23.205849 939.933655
4.960000 -5.000000 -7.160000 -63.945358 12.289066 4240.029785
4.960000 -5.000000 -7.120000 -95.571777 -41.754913 10877.437500
4.960000 -5.000000 -7.080000 -77.220482 -118.047379 19898.187500
4.960000 -5.000000 -7.040000 -1.890915 -168.267929 28317.671875
4.960000 -5.000000 -7.000000 93.987778 -154.024200 32557.156250
4.960000 -5.000000 -6.960000 155.735291 -79.797508 30621.123047
4.960000 -5.000000 -6.920000 152.684113 9.425365 23401.275391
4.960000 -5.000000 -6.880000 99.991806 64.195335 14119.402344
4.960000 -5.000000 -6.840000 41.598282 67.724701 6317.052246
4.960000 -5.000000 -6.800000 12.082775 42.026035 1912.181030
4.960000 -4.960000 -7.200000 -21.346046 13.615392 641.032593
4.960000 -4.960000 -7.160000 -59.522957 -16.501610 3815.285645
4.960000 -4.960000 -7.120000 -63.046425 -83.244385 10904.479492
4.960000 -4.960000 -7.080000 -6.001442 -144.478424 20910.033203
4.960000 -4.960000 -7.040000 90.538734 -148.816132 30343.503906
4.960000 -4.960000 -7.000000 168.729935 -80.835487 35004.167969
4.960000 -4.960000 -6.960000 179.280273 21.990860 32625.013672
4.960000 -4.960000 -6.920000 121.356346 98.238251 24378.117188
4.960000 -4.960000 -6.880000 40.680786 111.468681 14080.193359
4.960000 -4.960000 -6.840000 -11.008631 74.943336 5737.693848
4.960000 -4.960000 -6.800000 -16.588043 32.319096 1319.687134
4.960000 -4.920000 -7.200000 -17.369061 9.644869 394.707764
4.960000 -4.920000 -7.160000 -39.194035 -31.064262 2501.160645
4.960000 -4.920000 -7.120000 -14.284204 -88.274254 7996.382324
4.960000 -4.920000 -7.080000 59.493275 -112.653091 16230.167969
4.960000 -4.920000 -7.040000 138.735733 -70.770477 24256.064453
4.960000 -4.920000 -7.000000 167.118195 21.114878 28374.328125
4.960000 -4.920000 -6.960000 123.131737 106.596809 26524.304688
4.960000 -4.920000 -6.920000 38.376759 134.909225 19673.275391
4.960000 -4.920000 -6.880000 -30.434855 100.942665 11115.702148
4.960000 -4.920000 -6.840000 -48.693508 43.707481 4281.401367
4.960000 -4.920000 -6.800000 -26.860168 8.012085 785.662109
4.960000 -4.880000 -7.200000 -15.962399 12.121286 401.723785
4.960000 -4.880000 -7.160000 -21.274748 -26.970943 1180.046631
4.960000 -4.880000 -7.120000 16.493326 -61.626595 4069.866943
4.960000 -4.880000 -7.080000 78.641495 -52.407333 8931.013672
4.960000 -4.880000 -7.040000 118.108429 7.869228 14011.525391
4.960000 -4.880000 -7.000000 99.986343 82.921539 16873.250000
4.960000 -4.880000 -6.960000 33.341320 122.094231 16018.644531
4.960000 -4.880000 -6.920000 -36.261074 103.007195 11925.347656
4.960000 -4.880000 -6.880000 -66.016647 48.043518 6666.377441
4.960000 -4.880000 -6.840000 -49.672195 1.070349 2468.472656
4.960000 -4.880000 -6.800000 -15.973286 -11.205854 380.717041
4.960000 -4.840000 -7.200000 -21.511539 14.553771 674.558594
4.960000 -4.840000 -7.160000 -17.664867 -16.749447 592.591553
4.960000 -4.840000 -7.120000 16.488035 -32.218185 1309.866821
4.960000 -4.840000 -7.080000 54.222328 -10.013359 3040.328125
4.960000 -4.840000 -7.040000 60.788105 38.563335 5182.324219
4.960000 -4.840000 -7.000000 25.921204 77.139114 6622.351562
4.960000 -4.840000 -6.960000 -26.040173 76.437576 6520.793945
4.960000 -4.840000 -6.920000 -57.998856 39.614632 4933.186523
4.960000 -4.840000 -6.880000 -52.265491 -2.804695 2739.547852
4.960000 -4.840000 -6.840000 -22.642664 -21.528454 976.164551
4.960000 -4.840000 -6.800000 2.395894 -12.150621 153.377914
4.960000 -4.800000 -7.200000 -30.319687 9.967282 1018.630127
4.960000 -4.800000 -7.160000 -23.371969 -15.056095 772.934937
4.960000 -4.800000 -7.120000 2.007669 -22.501289 510.338745
4.960000 -4.800000 -7.080000 22.154394 -4.674675 512.669739
4.960000 -4.800000 -7.040000 18.132641 22.240166 823.417603
4.960000 -4.800000 -7.000000 -6.328777 33.970795 1194.068359
4.960000 -4.800000 -6.960000 -29.318739 21.060757 1303.143921
4.960000 -4.800000 -6.920000 -32.040245 -3.620949 1039.688599
4.960000 -4.800000 -6.880000 -15.225275 -18.729950 582.620056
4.960000 -4.800000 -6.840000 4.248142 -14.320965 223.136734
4.960000 -4.800000 -6.800000 10.729585 1.632608 117.789398
5.000000 -5.200000 -7.200000 0.158648 14.284834 204.081635
5.000000 -5.200000 -7.160000 -16.585899 3.893063 290.248016
5.000000 -5.200000 -7.120000 -19.329025 -17.683931 686.332642
5.000000 -5.200000 -7.080000 -2.901905 -33.960392 1161.729248
5.000000 -5.200000 -7.040000 20.673819 -30.088795 1332.742310
5.000000 -5.200000 -7.000000 30.956367 -8.170006 1025.045654
5.000000 -5.200000 -6.960000 18.167879 12.493282 486.153931
5.000000 -5.200000 -6.920000 -6.191456 12.652782 198.427032
5.000000 -5.200000 -6.880000 -19.191586 -8.102020 433.959686
5.000000 -5.200000 -6.840000 -8.321039 -30.202995 981.460632
5.000000 -5.200000 -6.800000 16.169195 -32.721451 1332.136230
5.000000 -5.160000 -7.200000 0.011694 12.980639 168.497131
5.000000 -5.160000 -7.160000 -9.057217 5.583128 113.204491
5.000000 -5.160000 -7.120000 -9.943752 -5.478695 128.894318
5.000000 -5.160000 -7.080000 -3.312225 -11.574102 144.930679
5.000000 -5.160000 -7.040000 2.319808 -8.894123 84.486931
5.000000 -5.160000 -7.000000 -0.886225 -3.771294 15.008050
5.000000 -5.160000 -6.960000 -10.545116 -7.050209 160.904922
5.000000 -5.160000 -6.920000 -14.600384 -21.999874 697.165649
5.000000 -5.160000 -6.880000 -3.164421 -38.566662 1497.401001
5.000000 -5.160000 -6.840000 19.886480 -41.550766 2121.938232
5.000000 -5.160000 -6.800000 38.385460 -25.651489 2131.442383
5.000000 -5.120000 -7.200000 0.009676 17.873032 319.445343
5.000000 -5.120000 -7.160000 -12.326401 18.979286 512.153442
5.000000 -5.120000 -7.120000 -26.276476 11.528439 823.358093
5.000000 -5.120000 -7.080000 -35.494926 -4.579239 1280.859253
5.000000 -5.120000 -7.040000 -35.173622 -25.208759 1872.665283
5.000000 -5.120000 -7.000000 -23.947105 -44.371979 2542.336426
5.000000 -5.120000 -6.960000 -3.744347 -56.354111 3189.805908
5.000000 -5.120000 -6.920000 20.743248 -56.874275 3664.965332
5.000000 -5.120000 -6.880000 42.452900 -44.520855 3784.355225
5.000000 -5.120000 -6.840000 53.793022 -22.740704 3410.828857
5.000000 -5.120000 -6.800000 50.747932 -0.076131 2575.358398
5.000000 -5.080000 -7.200000 -7.244853 24.837456 669.387146
5.000000 -5.080000 -7.160000 -33.437622 25.908693 1789.334961
5.000000 -5.080000 -7.120000 -60.722702 3.228901 3697.672363
5.000000 -5.080000 -7.080000 -68.130081 -39.790749 6225.011719
5.000000 -5.080000 -7.040000 -43.521080 -82.950066 8774.797852
5.000000 -5.080000 -7.000000 5.523270 -102.394684 10515.177734
5.000000 -5.080000 -6.960000 55.863251 -87.582260 10791.355469
5.000000 -5.080000 -6.920000 84.725136 -48.127178 9494.574219
5.000000 -5.080000 -6.880000 84.273438 -5.633686 7133.750488
5.000000 -5.080000 -6.840000 63.869019 21.768152 4553.104004
5.000000 -5.080000 -6.800000 40.181114 29.592823 2490.257080
5.000000 -5.040000 -7.200000 -20.753441 24.818344 1046.655518
5.000000 -5.040000 -7.160000 -58.112373 10.704009 3491.623779
5.000000 -5.040000 -7.120000 -80.210129 -38.380737 7906.745605
5.000000 -5.040000 -7.080000 -58.636856 -101.058701 13651.142578
5.000000 -5.040000 -7.040000 7.503254 -137.537079 18972.746094
5.000000 -5.040000 -7.000000 85.723473 -120.104889 21773.699219
5.000000 -5.040000 -6.960000 132.789978 -56.290939 20801.847656
5.000000 -5.040000 -6.920000 127.184036 16.453735 16446.503906
5.000000 -5.040000 -6.880000 83.225555 60.043610 10531.728516
5.000000 -5.040000 -6.840000 35.759239 63.016926 5249.856445
5.000000 -5.040000 -6.800000 10.953008 43.181885 1984.643555
5.000000 -5.000000 -7.200000 -31.184235 14.552734 1184.238525
5.000000 -5.000000 -7.160000 -64.212387 -21.283175 4576.204102
5.000000 -5.000000 -7.120000 -59.477142 -86.711403 11056.397461
5.000000 -5.000000 -7.080000 1.509380 -139.838516 19557.087891
5.000000 -5.000000 -7.040000 93.761551 -135.687195 27202.244141
5.000000 -5.000000 -7.000000 162.514923 -65.610352 30715.818359
5.000000 -5.000000 -6.960000 165.556717 31.641624 28410.218750
5.000000 -5.000000 -6.920000 106.873306 99.392464 21300.765625
5.000000 -5.000000 -6.880000 31.194778 107.300766 12486.568359
5.000000 -5.000000 -6.840000 -14.654007 71.019753 5258.544922
5.000000 -5.000000 -6.800000 -17.622677 31.936317 1330.487061
5.000000 -4.960000 -7.200000 -30.873854 1.253441 954.765930
5.000000 -4.960000 -7.160000 -44.899757 -47.215908 4245.330078
5.000000 -4.960000 -7.120000 -8.493784 -104.718903 11038.193359
5.000000 -4.960000 -7.080000 74.005920 -121.442154 20225.072266
5.000000 -4.960000 -7.040000 154.483582 -68.298256 28529.830078
5.000000 -4.960000 -7.000000 176.537949 32.217869 32203.636719
5.000000 -4.960000 -6.960000 122.982117 119.501923 29405.310547
5.000000 -4.960000 -6.920000 31.167276 143.105774 21450.660156
5.000000 -4.960000 -6.880000 -38.779442 102.189819 11946.603516
5.000000 -4.960000 -6.840000 -53.244301 40.862007 4504.659180
5.000000 -4.960000 -6.800000 -27.078552 6.192724 771.597839
5.000000 -4.920000 -7.200000 -22.693794 -4.516678 535.408691
5.000000 -4.920000 -7.160000 -16.464031 -49.312653 2702.802246
5.000000 -4.920000 -7.120000 35.756584 -81.037552 7845.618164
5.000000 -4.920000 -7.080000 108.433296 -59.231140 15266.107422
5.000000 -4.920000 -7.040000 147.972168 18.654779 22243.761719
5.000000 -4.920000 -7.000000 118.089005 107.437057 25487.734375
5.000000 -4.920000 -6.960000 33.970062 148.852295 23310.970703
5.000000 -4.920000 -6.920000 -48.614738 120.172195 16804.750000
5.000000 -4.920000 -6.880000 -80.109039 51.567860 9076.702148
5.000000 -4.920000 -6.840000 -56.339233 -3.211803 3184.424805
5.000000 -4.920000 -6.800000 -14.982192 -13.649830 410.783936
5.000000 -4.880000 -7.200000 -17.607927 -0.305016 310.132141
5.000000 -4.880000 -7.160000 -2.029036 -32.434181 1056.093018
5.000000 -4.880000 -7.120000 44.846405 -40.212074 3628.210938
5.000000 -4.880000 -7.080000 88.955795 -1.184940 7914.537598
5.000000 -4.880000 -7.040000 88.708038 66.818611 12333.842773
5.000000 -4.880000 -7.000000 34.479603 116.184814 14687.753906
5.000000 -4.880000 -6.960000 -39.210663 110.199806 13681.472656
5.000000 -4.880000 -6.920000 -82.325592 55.564926 9864.963867
5.000000 -4.880000 -6.880000 -72.090569 -4.514904 5217.434570
5.000000 -4.880000 -6.840000 -29.487711 -29.441132 1736.305298
5.000000 -4.880000 -6.800000 4.242313 -14.506857 228.446121
5.000000 -4.840000 -7.200000 -23.065149 5.040085 557.403564
5.000000 -4.840000 -7.160000 -8.523590 -18.101675 400.322205
5.000000 -4.840000 -7.120000 24.552719 -16.924301 889.267944
5.000000 -4.840000 -7.080000 45.271767 16.305828 2315.413086
5.000000 -4.840000 -7.040000 29.250908 57.659920 4180.281738
5.000000 -4.840000 -7.000000 -16.124611 72.028870 5448.161133
5.000000 -4.840000 -6.960000 -56.668671 45.987247 5326.165039
5.000000 -4.840000 -6.920000 -62.371838 0.441387 3890.440918
5.000000 -4.840000 -6.880000 -33.950294 -29.210823 2005.894531
5.000000 -4.840000 -6.840000 0.386856 -25.202930 635.337341
5.000000 -4.840000 -6.800000 12.929610 -0.522518 167.447845
5.000000 -4.800000 -7.200000 -34.546207 0.361673 1193.571289
5.000000 -4.800000 -7.160000 -21.176575 -21.755230 921.737366
5.000000 -4.800000 -7.120000 4.824516 -22.339947 522.349182
5.000000 -4.800000 -7.080000 18.952347 -0.863220 359.936584
5.000000 -4.800000 -7.040000 8.346512 21.914421 549.906128
5.000000 -4.800000 -7.000000 -15.845177 24.701279 861.222839
5.000000 -4.800000 -6.960000 -30.274353 6.329155 956.594666
5.000000 -4.800000 -6.920000 -22.610054 -14.413425 718.961365
5.000000 -4.800000 -6.880000 -2.355549 -18.370735 343.032532
5.000000 -4.800000 -6.840000 10.418077 -4.194830 126.132935
5.000000 -4.800000 -6.800000 5.246515 12.637826 187.240570
5.040000 -5.200000 -7.200000 -11.747589 5.813992 171.808350
5.040000 -5.200000 -7.160000 -11.979577 -10.080934 245.135498
5.040000 -5.200000 -7.120000 -0.640474 -21.849808 477.824310
5.040000 -5.200000 -7.080000 15.782836 -21.538967 713.025024
5.040000 -5.200000 -7.040000 26.003613 -9.040405 757.916809
5.040000 -5.200000 -7.000000 22.486292 6.185368 543.892090
5.040000 -5.200000 -6.960000 8.558174 11.847315 213.601227
5.040000 -5.200000 -6.920000 -3.377075 3.500213 23.656126
5.040000 -5.200000 -6.880000 -2.481430 -10.806570 122.939453
5.040000 -5.200000 -6.840000 10.298492 -17.352434 407.165894
5.040000 -5.200000 -6.800000 22.620384 -9.582097 603.498352
5.040000 -5.160000 -7.200000 -5.711638 2.054884 36.845364
5.040000 -5.160000 -7.160000 -3.904297 -2.651509 22.274036
5.040000 -5.160000 -7.120000 -1.168694 -5.529972 31.946436
5.040000 -5.160000 -7.080000 1.227252 -6.632584 45.497314
5.040000 -5.160000 -7.040000 1.962688 -7.192966 55.590912
5.040000 -5.160000 -7.000000 1.430866 -9.725243 96.627724
5.040000 -5.160000 -6.960000 2.959908 -15.532492 250.019348
5.040000 -5.160000 -6.920000 10.442055 -21.645119 577.547668
5.040000 -5.160000 -6.880000 23.404350 -21.624153 1015.367615
5.040000 -5.160000 -6.840000 34.901272 -11.388084 1347.787231
5.040000 -5.160000 -6.800000 36.200401 5.162018 1337.115479
5.040000 -5.120000 -7.200000 -2.671133 9.219870 92.140945
5.040000 -5.120000 -7.160000 -12.856089 10.477526 275.057556
5.040000 -5.120000 -7.120000 -24.501768 0.155510 600.360840
5.040000 -5.120000 -7.080000 -26.631191 -19.963272 1107.752563
5.040000 -5.120000 -7.040000 -13.659088 -39.741280 1765.939941
5.040000 -5.120000 -7.000000 10.389015 -48.306618 2441.460938
5.040000 -5.120000 -6.960000 35.298592 -41.298794 2951.581055
5.040000 -5.120000 -6.920000 51.523277 -22.330894 3153.317139
5.040000 -5.120000 -6.880000 54.744820 0.617203 2997.376221
5.040000 -5.120000 -6.840000 46.234066 19.670296 2524.509277
5.040000 -5.120000 -6.800000 30.989935 29.657528 1839.945068
5.040000 -5.080000 -7.200000 -11.769431 17.398403 441.223938
5.040000 -5.080000 -7.160000 -36.024788 8.304357 1366.747803
5.040000 -5.080000 -7.120000 -48.733139 -24.090603 2955.276123
5.040000 -5.080000 -7.080000 -32.023140 -63.482491 5055.507812
5.040000 -5.080000 -7.040000 12.183720 -83.804474 7171.632812
5.040000 -5.080000 -7.000000 61.652184 -69.371529 8613.400391
5.040000 -5.080000 -6.960000 89.997612 -26.976368 8827.294922
5.040000 -5.080000 -6.920000 85.549721 19.956257 7717.006836
5.040000 -5.080000 -6.880000 57.449383 49.156269 5716.770508
5.040000 -5.080000 -6.840000 25.718031 53.777878 3553.477051
5.040000 -5.080000 -6.800000 5.669891 42.764767 1860.973022
5.040000 -5.040000 -7.200000 -27.571880 13.595773 945.053589
5.040000 -5.040000 -7.160000 -51.656357 -16.857012 2952.538086
5.040000 -5.040000 -7.120000 -43.531876 -67.179283 6408.080078
5.040000 -5.040000 -7.080000 6.620073 -103.495644 10755.173828
5.040000 -5.040000 -7.040000 76.046219 -94.370407 14688.800781
5.040000 -5.040000 -7.000000 123.662865 -37.713867 16714.839844
5.040000 -5.040000 -6.960000 121.263924 35.396820 15957.874023
5.040000 -5.040000 -6.920000 74.802505 84.236679 12691.232422
5.040000 -5.040000 -6.880000 17.539911 88.882217 8207.697266
5.040000 -5.040000 -6.840000 -17.663004 61.612442 4108.074707
5.040000 -5.040000 -6.800000 -21.919825 31.617918 1480.171387
5.040000 -5.000000 -7.200000 -35.230743 -2.992455 1250.160156
5.040000 -5.000000 -7.160000 -41.182648 -48.456543 4044.047119
5.040000 -5.000000 -7.120000 -2.653911 -94.614861 8959.014648
5.040000 -5.000000 -7.080000 70.128616 -100.806335 15079.939453
5.040000 -5.000000 -7.040000 134.218109 -48.461876 20363.052734
5.040000 -5.000000 -7.000000 145.393463 38.532612 22624.021484
5.040000 -5.000000 -6.960000 94.437790 109.068695 20814.476562
5.040000 -5.000000 -6.920000 15.346195 124.278435 15680.634766
5.040000 -5.000000 -6.880000 -42.529892 86.721664 9329.438477
5.040000 -5.000000 -6.840000 -53.436298 33.980503 4010.112549
5.040000 -5.000000 -6.800000 -30.924032 4.312126 974.890198
5.040000 -4.960000 -7.200000 -26.915886 -18.820272 1078.667603
5.040000 -4.960000 -7.160000 -9.934031 -60.781418 3793.065918
5.040000 -4.960000 -7.120000 46.311501 -81.720016 8822.916016
5.040000 -4.960000 -7.080000 112.691818 -50.202297 15219.716797
5.040000 -4.960000 -7.040000 141.041199 28.656010 20713.785156
5.040000 -4.960000 -7.000000 103.892319 109.961044 22885.046875
5.040000 -4.960000 -6.960000 20.671143 142.275726 20669.679688
5.040000 -4.960000 -6.920000 -55.784340 109.310852 15060.754883
5.040000 -4.960000 -6.880000 -81.848618 42.170902 8477.581055
5.040000 -4.960000 -6.840000 -56.602875 -9.042248 3285.647705
5.040000 -4.960000 -6.800000 -16.680710 -17.441835 582.463745
5.040000 -4.920000 -7.200000 -11.408064 -20.138645 535.708984
5.040000 -4.920000 -7.160000 16.512344 -45.130558 2309.424805
5.040000 -4.920000 -7.120000 67.016365 -38.994957 6011.799805
5.040000 -4.920000 -7.080000 104.344589 12.127367 11034.866211
5.040000 -4.920000 -7.040000 91.905441 84.133942 15525.130859
5.040000 -4.920000 -7.000000 27.168602 129.013214 17382.542969
5.040000 -4.920000 -6.960000 -50.906876 114.259216 15646.678711
5.040000 -4.920000 -6.920000 -92.156807 51.751038 11171.046875
5.040000 -4.920000 -6.880000 -76.735413 -12.067501 6033.948242
5.040000 -4.920000 -6.840000 -29.438971 -36.254208 2181.020508
5.040000 -4.920000 -6.800000 5.734630 -18.316160 368.367706
5.040000 -4.880000 -7.200000 -5.540266 -8.442682 101.973434
5.040000 -4.880000 -7.160000 17.610016 -19.256058 680.908447
5.040000 -4.880000 -7.120000 49.209923 -2.454208 2427.639648
5.040000 -4.880000 -7.080000 58.759598 42.122581 5227.002441
5.040000 -4.880000 -7.040000 27.084187 85.388901 8024.817383
5.040000 -4.880000 -7.000000 -31.291649 91.813278 9408.844727
5.040000 -4.880000 -6.960000 -76.626678 52.325989 8609.657227
5.040000 -4.880000 -6.920000 -77.807800 -5.214466 6081.244141
5.040000 -4.880000 -6.880000 -39.705933 -39.737980 3155.667969
5.040000 -4.880000 -6.840000 2.514114 -32.810097 1082.823242
5.040000 -4.880000 -6.800000 16.370584 -2.388746 273.702148
5.040000 -4.840000 -7.200000 -16.004009 0.057951 256.131683
5.040000 -4.840000 -7.160000 -1.517268 -9.498909 92.531372
5.040000 -4.840000 -7.120000 17.359333 1.449673 303.447998
5.040000 -4.840000 -7.080000 18.088226 28.286621 1127.316895
5.040000 -4.840000 -7.040000 -7.122505 47.115376 2270.588623
5.040000 -4.840000 -7.000000 -40.600441 37.549713 3058.376709
5.040000 -4.840000 -6.960000 -54.398888 4.007572 2975.299561
5.040000 -4.840000 -6.920000 -37.009712 -26.983299 2097.817139
5.040000 -4.840000 -6.880000 -4.557823 -31.569599 1017.413330
5.040000 -4.840000 -6.840000 15.001954 -10.651381 338.510529
5.040000 -4.840000 -6.800000 8.475139 12.659920 232.101547
5.040000 -4.800000 -7.200000 -31.094755 -8.772178 1043.834839
5.040000 -4.800000 -7.160000 -15.850453 -24.057255 829.988403
5.040000 -4.800000 -7.120000 4.602234 -19.903601 417.333862
5.040000 -4.800000 -7.080000 11.443359 -1.781559 134.124420
5.040000 -4.800000 -7.040000 0.302776 11.729008 137.661301
5.040000 -4.800000 -7.000000 -15.147218 8.301258 298.349091
5.040000 -4.800000 -6.960000 -18.299498 -6.072811 371.750641
5.040000 -4.800000 -6.920000 -6.898243 -14.606319 260.930328
5.040000 -4.800000 -6.880000 5.646896 -7.986559 95.672562
5.040000 -4.800000 -6.840000 5.392549 6.333393 69.191452
5.040000 -4.800000 -6.800000 -7.463578 13.032984 225.563675
5.080000 -5.200000 -7.200000 -10.059083 -7.430462 156.396912
5.080000 -5.200000 -7.160000 2.107814 -13.086310 175.694412
5.080000 -5.200000 -7.120000 13.055161 -9.915586 268.756073
5.080000 -5.200000 -7.080000 18.454826 -1.999071 344.576904
5.080000 -5.200000 -7.040000 17.862991 6.091997 356.198883
5.080000 -5.200000 -7.000000 13.115738 11.206413 297.606293
5.080000 -5.200000 -6.960000 7.102669 11.863998 191.202362
5.080000 -5.200000 -6.920000 3.110577 8.634777 84.235062
5.080000 -5.200000 -6.880000 3.224232 4.478230 30.450209
5.080000 -5.200000 -6.840000 6.280046 3.197800 49.664894
5.080000 -5.200000 -6.800000 8.051335 5.981823 100.606201
5.080000 -5.160000 -7.200000 0.664164 -5.781593 33.867935
5.080000 -5.160000 -7.160000 4.351259 -0.643652 19.347744
5.080000 -5.160000 -7.120000 2.048358 1.740326 7.224504
5.080000 -5.160000 -7.080000 0.060905 -1.438066 2.071744
5.080000 -5.160000 -7.040000 3.063210 -6.402205 50.371475
5.080000 -5.160000 -7.000000 10.078281 -7.989431 165.402771
5.080000 -5.160000 -6.960000 16.925436 -4.642338 308.021698
5.080000 -5.160000 -6.920000 20.742702 1.669712 433.047638
5.080000 -5.160000 -6.880000 21.209126 8.704971 525.603516
5.080000 -5.160000 -6.840000 18.524649 15.384045 579.831421
5.080000 -5.160000 -6.800000 12.356696 20.193430 560.462585
5.080000 -5.120000 -7.200000 0.994310 5.702508 33.507248
5.080000 -5.120000 -7.160000 -10.534667 7.165125 162.318222
5.080000 -5.120000 -7.120000 -18.870872 -6.018608 392.333466
5.080000 -5.120000 -7.080000 -11.690001 -24.840199 753.691589
5.080000 -5.120000 -7.040000 10.308693 -33.808701 1249.297363
5.080000 -5.120000 -7.000000 34.238815 -24.529049 1773.970703
5.080000 -5.120000 -6.960000 46.236977 -1.900597 2141.470215
5.080000 -5.120000 -6.920000 41.798275 21.455112 2207.417725
5.080000 -5.120000 -6.880000 26.629341 35.485378 1968.333862
5.080000 -5.120000 -6.840000 9.822495 38.053516 1544.551514
5.080000 -5.120000 -6.800000 -2.592123 32.731918 1078.097534
5.080000 -5.080000 -7.200000 -12.659472 11.039386 282.130280
5.080000 -5.080000 -7.160000 -29.425877 -5.234743 893.284729
5.080000 -5.080000 -7.120000 -25.295536 -35.338932 1888.704224
5.080000 -5.080000 -7.080000 5.502373 -55.992607 3165.448242
5.080000 -5.080000 -7.040000 46.839630 -47.703007 4469.527832
5.080000 -5.080000 -7.000000 72.808273 -11.253864 5427.693848
5.080000 -5.080000 -6.960000 67.890656 32.899185 5691.497559
5.080000 -5.080000 -6.920000 37.663017 60.920406 5129.798828
5.080000 -5.080000 -6.880000 2.104208 62.654285 3929.987305
5.080000 -5.080000 -6.840000 -20.656414 45.712547 2516.324463
5.080000 -5.080000 -6.800000 -25.687195 25.842682 1327.676147
5.080000 -5.040000 -7.200000 -26.721855 -0.423882 714.237244
5.080000 -5.040000 -7.160000 -30.337971 -33.072254 2014.166504
5.080000 -5.040000 -7.120000 -1.527931 -63.621471 4050.026123
5.080000 -5.040000 -7.080000 48.872940 -63.846420 6464.929688
5.080000 -5.040000 -7.040000 89.573288 -24.254230 8611.641602
5.080000 -5.040000 -7.000000 92.234100 35.811516 9789.593750
5.080000 -5.040000 -6.960000 53.782352 81.653519 9559.837891
5.080000 -5.040000 -6.920000 -1.510260 89.258377 7969.338867
5.080000 -5.040000 -6.880000 -41.505409 61.862953 5549.723633
5.080000 -5.040000 -6.840000 -50.000420 24.114119 3081.532715
5.080000 -5.040000 -6.800000 -35.272583 0.683556 1244.622437
5.080000 -5.000000 -7.200000 -24.700590 -20.778500 1041.865234
5.080000 -5.000000 -7.160000 -6.125639 -52.880562 2833.877197
5.080000 -5.000000 -7.120000 40.068581 -63.266655 5608.161133
5.080000 -5.000000 -7.080000 87.876732 -32.720242 8792.933594
5.080000 -5.000000 -7.040000 102.658501 29.528372 11410.692383
5.080000 -5.000000 -7.000000 68.612946 88.392609 12520.990234
5.080000 -5.000000 -6.960000 3.437511 108.096069 11696.576172
5.080000 -5.000000 -6.920000 -53.888725 79.588341 9238.298828
5.080000 -5.000000 -6.880000 -72.785507 26.727104 6012.067871
5.080000 -5.000000 -6.840000 -53.106194 -14.121826 3019.693848
5.080000 -5.000000 -6.800000 -21.234428 -22.930733 976.719421
5.080000 -4.960000 -7.200000 -6.102359 -30.673471 978.100647
5.080000 -4.960000 -7.160000 25.312233 -45.443169 2705.790771
5.080000 -4.960000 -7.120000 67.412338 -29.878433 5437.144043
5.080000 -4.960000 -7.080000 90.617538 19.213989 8580.715820
5.080000 -4.960000 -7.040000 70.950546 77.785667 11084.589844
5.080000 -4.960000 -7.000000 12.310487 108.678497 11962.563477
5.080000 -4.960000 -6.960000 -52.114746 90.209740 10853.744141
5.080000 -4.960000 -6.920000 -83.704193 34.904778 8224.735352
5.080000 -4.960000 -6.880000 -68.505203 -19.555916 5075.396484
5.080000 -4.960000 -6.840000 -27.124670 -40.618851 2385.638672
5.080000 -4.960000 -6.800000 4.563880 -25.984978 696.048035
5.080000 -4.920000 -7.200000 11.274605 -20.237263 536.663513
5.080000 -4.920000 -7.160000 37.098232 -16.705956 1655.367798
5.080000 -4.920000 -7.120000 58.785439 10.758049 3571.463379
5.080000 -4.920000 -7.080000 54.542213 54.038033 5894.961914
5.080000 -4.920000 -7.040000 16.068405 86.818420 7795.631836
5.080000 -4.920000 -7.000000 -39.010303 83.196159 8443.405273
5.080000 -4.920000 -6.960000 -76.663300 40.787624 7540.892090
5.080000 -4.920000 -6.920000 -73.001701 -13.815861 5520.126465
5.080000 -4.920000 -6.880000 -34.794609 -45.118229 3246.319336
5.080000 -4.920000 -6.840000 6.017555 -37.869057 1470.276367
5.080000 -4.920000 -6.800000 20.042585 -8.709775 477.565430
5.080000 -4.880000 -7.200000 9.607702 -1.110233 93.540565
5.080000 -4.880000 -7.160000 20.478853 6.395433 460.285004
5.080000 -4.880000 -7.120000 24.591328 26.065914 1284.165283
5.080000 -4.880000 -7.080000 9.961140 48.674629 2468.443848
5.080000 -4.880000 -7.040000 -22.274567 55.434784 3569.171631
5.080000 -4.880000 -7.000000 -53.302071 34.624947 4039.997803
5.080000 -4.880000 -6.960000 -60.078087 -4.356827 3628.358398
5.080000 -4.880000 -6.920000 -36.268661 -35.498100 2575.530762
5.080000 -4.880000 -6.880000 -0.023170 -37.837219 1431.655640
5.080000 -4.880000 -6.840000 21.006287 -14.397282 648.545776
5.080000 -4.880000 -6.800000 14.356142 10.635196 319.206207
5.080000 -4.840000 -7.200000 -9.089806 4.553997 103.363457
5.080000 -4.840000 -7.160000 -5.370907 2.436508 34.783211
5.080000 -4.840000 -7.120000 -2.245770 7.867303 66.937943
5.080000 -4.840000 -7.080000 -8.219772 15.708288 314.314972
5.080000 -4.840000 -7.040000 -21.933651 14.604462 694.375366
5.080000 -4.840000 -7.000000 -31.056402 -0.006859 964.500183
5.080000 -4.840000 -6.960000 -24.329416 -18.531748 935.346191
5.080000 -4.840000 -6.920000 -4.532131 -25.023659 646.723694
5.080000 -4.840000 -6.880000 12.303501 -13.263330 327.292084
5.080000 -4.840000 -6.840000 12.086136 5.866844 180.494537
5.080000 -4.840000 -6.800000 -2.995742 14.463145 218.157043
5.080000 -4.800000 -7.200000 -23.385803 -12.384340 700.267700
5.080000 -4.800000 -7.160000 -12.087269 -22.534004 653.883423
5.080000 -4.800000 -7.120000 1.645357 -20.360287 417.248474
5.080000 -4.800000 -7.080000 7.374401 -10.389463 162.322739
5.080000 -4.800000 -7.040000 4.083503 -2.849972 24.797335
5.080000 -4.800000 -7.000000 -0.541834 -2.552423 6.808449
5.080000 -4.800000 -6.960000 -0.005974 -4.863164 23.650400
5.080000 -4.800000 -6.920000 3.568628 -2.746435 20.278015
5.080000 -4.800000 -6.880000 2.802136 3.864958 22.789867
5.080000 -4.800000 -6.840000 -5.035799 7.507372 81.719910
5.080000 -4.800000 -6.800000 -13.555350 2.168010 188.447800
5.120000 -5.200000 -7.200000 1.565204 -12.022754 146.996460
5.120000 -5.200000 -7.160000 11.718160 -3.143472 147.196686
5.120000 -5.200000 -7.120000 11.613894 6.346218 175.157013
5.120000 -5.200000 -7.080000 7.656469 9.932941 157.284851
5.120000 -5.200000 -7.040000 6.379881 10.286471 146.514374
5.120000 -5.200000 -7.000000 6.998249 13.038795 218.985657
5.120000 -5.200000 -6.960000 4.134069 18.398594 355.598816
5.120000 -5.200000 -6.920000 -3.965090 20.750843 446.319397
5.120000 -5.200000 -6.880000 -12.253601 15.956314 404.754700
5.120000 -5.200000 -6.840000 -14.468130 6.873875 256.576935
5.120000 -5.200000 -6.800000 -10.289160 0.297278 105.955177
5.120000 -5.160000 -7.200000 9.541393 -2.932786 99.639420
5.120000 -5.160000 -7.160000 5.485696 7.936731 93.084564
5.120000 -5.160000 -7.120000 -3.002519 7.653297 67.588081
5.120000 -5.160000 -7.080000 -3.844048 -0.053809 14.779597
5.120000 -5.160000 -7.040000 4.649101 -3.619367 34.713959
5.120000 -5.160000 -7.000000 13.316113 3.113117 187.010345
5.120000 -5.160000 -6.960000 13.027415 14.979965 394.112915
5.120000 -5.160000 -6.920000 4.037036 22.169151 507.768951
5.120000 -5.160000 -6.880000 -5.766777 20.628586 458.794250
5.120000 -5.160000 -6.840000 -10.155535 14.618671 316.840454
5.120000 -5.160000 -6.800000 -9.951010 10.028172 199.586823
5.120000 -5.120000 -7.200000 3.159708 8.142137 76.278145
5.120000 -5.120000 -7.160000 -10.317676 6.767126 152.248428
5.120000 -5.120000 -7.120000 -13.765994 -7.631261 247.738739
5.120000 -5.120000 -7.080000 -0.350224 -19.345196 374.359253
5.120000 -5.120000 -7.040000 19.971838 -14.523643 609.810547
5.120000 -5.120000 -7.000000 30.429043 5.797699 959.539917
5.120000 -5.120000 -6.960000 22.905949 27.660620 1289.792358
5.120000 -5.120000 -6.920000 3.708382 37.512779 1420.960693
5.120000 -5.120000 -6.880000 -14.222548 32.871357 1282.807007
5.120000 -5.120000 -6.840000 -22.858910 21.132996 969.133240
5.120000 -5.120000 -6.800000 -23.029068 10.587127 642.425171
5.120000 -5.080000 -7.200000 -11.511934 5.959440 168.039551
5.120000 -5.080000 -7.160000 -18.868036 -11.030118 477.666321
5.120000 -5.080000 -7.120000 -5.463260 -29.464111 897.981079
5.120000 -5.080000 -7.080000 22.065201 -29.967670 1384.934326
5.120000 -5.080000 -7.040000 43.364594 -6.738743 1925.898560
5.120000 -5.080000 -7.000000 41.504574 27.117767 2458.002930
5.120000 -5.080000 -6.960000 16.536125 50.530293 2826.753906
5.120000 -5.080000 -6.920000 -15.855338 51.035782 2856.042969
5.120000 -5.080000 -6.880000 -37.712883 32.495567 2478.223633
5.120000 -5.080000 -6.840000 -41.501774 9.219025 1807.387695
5.120000 -5.080000 -6.800000 -32.314320 -6.095954 1081.375854
5.120000 -5.040000 -7.200000 -16.941807 -10.748448 402.553955
5.120000 -5.040000 -7.160000 -6.702047 -31.231459 1020.321411
5.120000 -5.040000 -7.120000 21.257895 -37.014648 1821.982300
5.120000 -5.040000 -7.080000 48.756344 -16.945692 2664.337646
5.120000 -5.040000 -7.040000 54.520653 21.153389 3419.967285
5.120000 -5.040000 -7.000000 30.785728 55.017361 3974.670898
5.120000 -5.040000 -6.960000 -10.276396 64.052238 4208.293945
5.120000 -5.040000 -6.920000 -45.430565 44.103394 4009.045654
5.120000 -5.040000 -6.880000 -57.071018 9.445974 3346.327393
5.120000 -5.040000 -6.840000 -44.613068 -18.763639 2342.399902
5.120000 -5.040000 -6.800000 -22.480171 -27.731071 1274.370361
5.120000 -5.000000 -7.200000 -3.478860 -25.743259 674.817871
5.120000 -5.000000 -7.160000 19.914726 -33.044613 1488.542725
5.120000 -5.000000 -7.120000 46.328636 -18.494434 2488.386719
5.120000 -5.000000 -7.080000 56.782784 15.462231 3463.364990
5.120000 -5.000000 -7.040000 39.434475 51.553524 4212.843750
5.120000 -5.000000 -7.000000 -0.513467 67.868011 4606.330566
5.120000 -5.000000 -6.960000 -42.287815 52.939899 4590.892578
5.120000 -5.000000 -6.920000 -62.808273 14.786676 4163.524902
5.120000 -5.000000 -6.880000 -52.839569 -23.863226 3361.473633
5.120000 -5.000000 -6.840000 -23.512398 -41.716026 2293.059570
5.120000 -5.000000 -6.800000 2.612374 -34.259880 1180.563843
5.120000 -4.960000 -7.200000 18.185904 -21.842476 807.820801
5.120000 -4.960000 -7.160000 37.988579 -10.887007 1561.658936
5.120000 -4.960000 -7.120000 47.112026 14.598857 2432.669678
5.120000 -4.960000 -7.080000 35.963333 44.022293 3231.323730
5.120000 -4.960000 -7.040000 4.937979 61.197800 3769.554199
5.120000 -4.960000 -7.000000 -32.858196 53.426117 3934.010742
5.120000 -4.960000 -6.960000 -57.182877 21.311790 3724.073730
5.120000 -4.960000 -6.920000 -53.657516 -18.601704 3225.152588
5.120000 -4.960000 -6.880000 -25.402061 -43.457466 2533.816162
5.120000 -4.960000 -6.840000 7.508070 -40.852890 1725.329712
5.120000 -4.960000 -6.800000 23.068638 -19.067047 895.714355
5.120000 -4.920000 -7.200000 26.559937 -0.512043 705.692444
5.120000 -4.920000 -7.160000 29.830769 17.169796 1184.676636
5.120000 -4.920000 -7.120000 20.859032 35.334156 1683.601807
5.120000 -4.920000 -7.080000 0.562359 45.937057 2110.529297
5.120000 -4.920000 -7.040000 -24.908340 41.760345 2364.352051
5.120000 -4.920000 -7.000000 -44.127266 20.615107 2372.198242
5.120000 -4.920000 -6.960000 -45.217361 -9.947867 2143.569824
5.120000 -4.920000 -6.920000 -25.095856 -33.822609 1773.770874
5.120000 -4.920000 -6.880000 4.822376 -36.686188 1369.131714
5.120000 -4.920000 -6.840000 24.900547 -18.604706 966.172302
5.120000 -4.920000 -6.800000 23.136948 3.934843 550.801331
5.120000 -4.880000 -7.200000 12.238016 17.544338 457.572845
5.120000 -4.880000 -7.160000 2.231375 25.424988 651.408997
5.120000 -4.880000 -7.120000 -10.301553 26.139679 789.404846
5.120000 -4.880000 -7.080000 -21.604176 20.164341 873.341064
5.120000 -4.880000 -7.040000 -28.905107 8.335639 904.988159
5.120000 -4.880000 -7.000000 -28.459959 -7.408459 864.854492
5.120000 -4.880000 -6.960000 -17.330206 -21.147543 747.554565
5.120000 -4.880000 -6.920000 1.362982 -24.361431 595.337036
5.120000 -4.880000 -6.880000 16.964748 -13.382963 466.906372
5.120000 -4.880000 -6.840000 18.751383 4.398350 370.959839
5.120000 -4.880000 -6.800000 6.781223 14.634150 260.143341
5.120000 -4.840000 -7.200000 -10.418578 13.259645 284.364960
5.120000 -4.840000 -7.160000 -18.269901 6.347309 374.077637
5.120000 -4.840000 -7.120000 -19.015644 -3.425375 373.327911
5.120000 -4.840000 -7.080000 -14.021661 -10.468471 306.195831
5.120000 -4.840000 -7.040000 -7.212656 -13.201313 226.297058
5.120000 -4.840000 -7.000000 -0.640967 -12.852896 165.607773
5.120000 -4.840000 -6.960000 5.493156 -9.763862 125.507759
5.120000 -4.840000 -6.920000 9.620277 -3.130696 102.350998
5.120000 -4.840000 -6.880000 8.331372 5.416619 98.751534
5.120000 -4.840000 -6.840000 0.787002 10.318896 107.098991
5.120000 -4.840000 -6.800000 -7.553053 6.787138 103.113846
5.120000 -4.800000 -7.200000 -16.668316 -9.778465 373.451141
5.120000 -4.800000 -7.160000 -11.152884 -20.442543 542.284363
5.120000 -4.800000 -7.120000 1.080078 -24.747250 613.592957
5.120000 -4.800000 -7.080000 13.305065 -19.839058 570.612976
5.120000 -4.800000 -7.040000 19.408617 -8.770052 453.608246
5.120000 -4.800000 -7.000000 17.716621 2.693356 321.132812
5.120000 -4.800000 -6.960000 10.513948 10.157262 213.713074
5.120000 -4.800000 -6.920000 1.335621 11.927875 144.058075
5.120000 -4.800000 -6.880000 -6.484161 8.120687 107.989914
5.120000 -4.800000 -6.840000 -9.778388 0.376796 95.758850
5.120000 -4.800000 -6.800000 -6.478363 -7.379352 96.424019
5.160000 -5.200000 -7.200000 10.658209 -4.663782 135.348267
5.160000 -5.200000 -7.160000 8.629792 9.299755 160.958755
5.160000 -5.200000 -7.120000 -0.608921 13.062105 170.989380
5.160000 -5.200000 -7.080000 -4.365862 8.754178 95.696388
5.160000 -5.200000 -7.040000 -0.513565 7.720860 59.875420
5.160000 -5.200000 -7.000000 1.157781 15.296762 235.331390
5.160000 -5.200000 -6.960000 -8.025392 23.671715 624.757019
5.160000 -5.200000 -6.920000 -23.954491 20.879332 1009.764160
5.160000 -5.200000 -6.880000 -33.162518 5.145982 1126.233643
5.160000 -5.200000 -6.840000 -27.351343 -12.148485 895.681641
5.160000 -5.200000 -6.800000 -12.322756 -18.269493 485.624695
5.160000 -5.160000 -7.200000 10.623020 6.373756 153.473328
5.160000 -5.160000 -7.160000 -2.063259 13.214594 178.882523
5.160000 -5.160000 -7.120000 -10.651267 6.102903 150.694916
5.160000 -5.160000 -7.080000 -6.269329 -2.250138 44.367603
5.160000 -5.160000 -7.040000 3.563625 0.727914 13.229284
5.160000 -5.160000 -7.000000 4.697525 13.371734 200.870010
5.160000 -5.160000 -6.960000 -7.358500 22.280365 550.562195
5.160000 -5.160000 -6.920000 -22.761612 17.491404 824.040161
5.160000 -5.160000 -6.880000 -28.478230 2.907459 819.462891
5.160000 -5.160000 -6.840000 -21.868818 -8.969471 558.696594
5.160000 -5.160000 -6.800000 -11.768628 -10.744987 253.955353
5.160000 -5.120000 -7.200000 0.125915 11.018209 121.416794
5.160000 -5.120000 -7.160000 -12.330040 5.039431 177.425751
5.160000 -5.120000 -7.120000 -10.987411 -7.634868 179.014389
5.160000 -5.120000 -7.080000 2.179691 -10.903236 123.631615
5.160000 -5.120000 -7.040000 12.373892 0.973673 154.061249
5.160000 -5.120000 -7.000000 7.577766 18.083656 384.441162
5.160000 -5.120000 -6.960000 -9.847271 25.465872 745.479370
5.160000 -5.120000 -6.920000 -26.674641 17.565914 1020.097778
5.160000 -5.120000 -6.880000 -32.130077 1.813183 1035.629517
5.160000 -5.120000 -6.840000 -26.533392 -10.441757 813.051147
5.160000 -5.120000 -6.800000 -17.788765 -14.454338 525.368042
5.160000 -5.080000 -7.200000 -8.836947 2.268987 83.239937
5.160000 -5.080000 -7.160000 -10.191608 -9.937357 202.619934
5.160000 -5.080000 -7.120000 1.523997 -16.799257 284.537628
5.160000 -5.080000 -7.080000 15.477537 -8.900501 318.773071
5.160000 -5.080000 -7.040000 17.730705 9.746446 409.371094
5.160000 -5.080000 -7.000000 3.654745 25.358307 656.400879
5.160000 -5.080000 -6.960000 -18.522911 26.267975 1033.104736
5.160000 -5.080000 -6.920000 -35.181087 11.857275 1378.303833
5.160000 -5.080000 -6.880000 -37.933620 -8.476068 1510.803345
5.160000 -5.080000 -6.840000 -28.317026 -23.585314 1358.120972
5.160000 -5.080000 -6.800000 -14.403366 -28.078659 995.868042
5.160000 -5.040000 -7.200000 -3.568312 -11.444517 143.709824
5.160000 -5.040000 -7.160000 6.042871 -16.708015 315.674072
5.160000 -5.040000 -7.120000 18.095463 -10.955332 447.465057
5.160000 -5.040000 -7.080000 22.449858 4.533638 524.549988
5.160000 -5.040000 -7.040000 13.242600 20.925976 613.262939
5.160000 -5.040000 -7.000000 -6.894728 27.527525 805.301941
5.160000 -5.040000 -6.960000 -28.066448 18.608467 1134.000610
5.160000 -5.040000 -6.920000 -38.873875 -2.685297 1518.388916
5.160000 -5.040000 -6.880000 -33.421349 -25.708540 1777.915527
5.160000 -5.040000 -6.840000 -15.427603 -38.622330 1729.695312
5.160000 -5.040000 -6.800000 3.778344 -36.165009 1322.183716
5.160000 -5.000000 -7.200000 14.024357 -13.538321 379.968689
5.160000 -5.000000 -7.160000 22.743999 -4.993865 542.228149
5.160000 -5.000000 -7.120000 23.308628 8.237655 611.151062
5.160000 -5.000000 -7.080000 14.897813 19.846016 615.809204
5.160000 -5.000000 -7.040000 -0.072580 24.938549 621.936462
5.160000 -5.000000 -7.000000 -17.267862 20.082325 701.478882
5.160000 -5.000000 -6.960000 -29.880997 4.217262 910.659241
5.160000 -5.000000 -6.920000 -30.144932 -18.222136 1240.763184
5.160000 -5.000000 -6.880000 -15.108687 -36.491592 1559.908813
5.160000 -5.000000 -6.840000 8.009031 -39.698158 1640.088257
5.160000 -5.000000 -6.800000 24.701880 -26.609470 1318.246826
5.160000 -4.960000 -7.200000 27.017174 2.615036 736.766113
5.160000 -4.960000 -7.160000 22.365278 18.143265 829.383728
5.160000 -4.960000 -7.120000 9.161327 25.429613 730.595154
5.160000 -4.960000 -7.080000 -3.950788 23.360748 561.333252
5.160000 -4.960000 -7.040000 -13.236987 16.165493 436.540985
5.160000 -4.960000 -7.000000 -19.236130 5.865021 404.427155
5.160000 -4.960000 -6.960000 -20.407948 -8.260220 484.715546
5.160000 -4.960000 -6.920000 -12.105033 -23.380346 693.172363
5.160000 -4.960000 -6.880000 6.198009 -30.620564 976.034180
5.160000 -4.960000 -6.840000 25.137756 -22.794239 1151.484131
5.160000 -4.960000 -6.800000 31.434034 -4.549585 1008.797241
5.160000 -4.920000 -7.200000 20.408777 24.457348 1014.680054
5.160000 -4.920000 -7.160000 1.547766 32.378681 1050.774658
5.160000 -4.920000 -7.120000 -15.157470 23.992046 805.367188
5.160000 -4.920000 -7.080000 -19.765865 9.111420 473.707397
5.160000 -4.920000 -7.040000 -15.259463 -1.490619 235.073166
5.160000 -4.920000 -7.000000 -9.550179 -6.482743 133.231888
5.160000 -4.920000 -6.960000 -4.550948 -10.595451 132.974716
5.160000 -4.920000 -6.920000 3.739219 -14.420599 221.935440
5.160000 -4.920000 -6.880000 15.756432 -12.186420 396.773987
5.160000 -4.920000 -6.840000 23.801018 -0.768286 567.078735
5.160000 -4.920000 -6.800000 20.135128 12.567233 563.358704
5.160000 -4.880000 -7.200000 -1.896590 31.570734 1000.308289
5.160000 -4.880000 -7.160000 -23.001190 23.325670 1073.141602
5.160000 -4.880000 -7.120000 -29.204594 2.347244 858.417847
5.160000 -4.880000 -7.080000 -18.151232 -13.975448 524.780396
5.160000 -4.880000 -7.040000 -1.987281 -15.974006 259.118134
5.160000 -4.880000 -7.000000 7.217877 -8.432886 123.211319
5.160000 -4.880000 -6.960000 8.425541 -1.421103 73.009277
5.160000 -4.880000 -6.920000 8.062921 1.608693 67.598579
5.160000 -4.880000 -6.880000 9.316489 4.537422 107.385178
5.160000 -4.880000 -6.840000 8.792704 9.737340 172.127426
5.160000 -4.880000 -6.800000 3.796102 13.092317 185.819138
5.160000 -4.840000 -7.200000 -19.189371 17.057398 659.186768
5.160000 -4.840000 -7.160000 -29.178154 -1.838005 854.742920
5.160000 -4.840000 -7.120000 -19.703152 -22.235910 882.649902
5.160000 -4.840000 -7.080000 2.011411 -27.745354 773.850403
5.160000 -4.840000 -7.040000 19.177296 -15.709054 614.543091
5.160000 -4.840000 -7.000000 21.369135 2.426330 462.527008
5.160000 -4.840000 -6.960000 11.887561 13.613404 326.638885
5.160000 -4.840000 -6.920000 1.169147 14.204261 203.127945
5.160000 -4.840000 -6.880000 -4.055232 9.334750 103.582458
5.160000 -4.840000 -6.840000 -4.167308 4.843349 40.824490
5.160000 -4.840000 -6.800000 -1.988705 2.502243 10.216166
5.160000 -4.800000 -7.200000 -14.658225 -3.739473 228.847214
5.160000 -4.800000 -7.160000 -11.501947 -19.486338 512.012146
5.160000 -4.800000 -7.120000 5.679623 -28.256592 830.693115
5.160000 -4.800000 -7.080000 25.699617 -20.252010 1070.614258
5.160000 -4.800000 -7.040000 33.774635 0.710513 1141.230835
5.160000 -4.800000 -7.000000 24.452293 20.503605 1018.312500
5.160000 -4.800000 -6.960000 5.482006 26.860249 751.525330
5.160000 -4.800000 -6.920000 -9.717617 18.597107 440.284485
5.160000 -4.800000 -6.880000 -12.841041 4.562700 185.710541
5.160000 -4.800000 -6.840000 -5.354297 -4.637100 50.171192
5.160000 -4.800000 -6.800000 4.861720 -4.002867 39.659260
5.200000 -5.200000 -7.200000 8.831798 6.014987 114.180710
5.200000 -5.200000 -7.160000 -2.483487 12.609428 165.165390
5.200000 -5.200000 -7.120000 -10.536208 6.993130 159.915543
5.200000 -5.200000 -7.080000 -7.705974 0.913282 60.216114
5.200000 -5.200000 -7.040000 -2.133747 5.126231 30.831123
5.200000 -5.200000 -7.000000 -7.075536 15.528820 291.207458
5.200000 -5.200000 -6.960000 -23.863474 17.157103 863.831543
5.200000 -5.200000 -6.920000 -38.354206 1.691547 1473.906494
5.200000 -5.200000 -6.880000 -35.530159 -21.664869 1731.758789
5.200000 -5.200000 -6.840000 -16.015932 -34.621628 1455.167236
5.200000 -5.200000 -6.800000 4.053780 -28.535082 830.684021
5.200000 -5.160000 -7.200000 2.740957 11.856689 148.093933
5.200000 -5.160000 -7.160000 -10.876322 9.387736 206.423965
5.200000 -5.160000 -7.120000 -13.348032 -1.244003 179.717499
5.200000 -5.160000 -7.080000 -5.455047 -4.981937 54.577232
5.200000 -5.160000 -7.040000 -0.830988 3.062710 10.070732
5.200000 -5.160000 -7.000000 -9.270999 12.224110 235.380280
5.200000 -5.160000 -6.960000 -24.930986 8.830320 699.528625
5.200000 -5.160000 -6.920000 -32.526428 -7.953422 1121.225464
5.200000 -5.160000 -6.880000 -24.074732 -24.860729 1197.648560
5.200000 -5.160000 -6.840000 -7.216208 -28.738338 877.965759
5.200000 -5.160000 -6.800000 3.636804 -19.957594 411.531891
5.200000 -5.120000 -7.200000 -5.208180 9.158466 111.002647
5.200000 -5.120000 -7.160000 -13.258967 0.387344 175.950256
5.200000 -5.120000 -7.120000 -9.319962 -8.493387 158.999313
5.200000 -5.120000 -7.080000 -0.986071 -7.175464 52.459621
5.200000 -5.120000 -7.040000 -0.312293 2.002643 4.108105
5.200000 -5.120000 -7.000000 -10.412247 7.419803 163.468353
5.200000 -5.120000 -6.960000 -22.486221 1.069661 506.774323
5.200000 -5.120000 -6.920000 -25.531832 -13.284935 828.363953
5.200000 -5.120000 -6.880000 -17.402111 -24.806320 918.187012
5.200000 -5.120000 -6.840000 -5.598917 -26.774395 748.216064
5.200000 -5.120000 -6.800000 1.598488 -21.845396 479.776489
5.200000 -5.080000 -7.200000 -5.331473 0.339184 28.539654
5.200000 -5.080000 -7.160000 -6.235759 -6.430679 80.238327
5.200000 -5.080000 -7.120000 -1.469396 -9.330800 89.222954
5.200000 -5.080000 -7.080000 2.349661 -5.743413 38.507706
5.200000 -5.080000 -7.040000 -0.172290 0.086693 0.037199
5.200000 -5.080000 -7.000000 -8.314869 1.455401 71.255241
5.200000 -5.080000 -6.960000 -16.229454 -4.801518 286.449738
5.200000 -5.080000 -6.920000 -18.011539 -16.011225 580.774902
5.200000 -5.080000 -6.880000 -11.987346 -26.207378 830.523132
5.200000 -5.080000 -6.840000 -1.234722 -30.434235 927.767151
5.200000 -5.080000 -6.800000 8.946525 -27.474943 834.912781
5.200000 -5.040000 -7.200000 4.889657 -3.570987 36.660694
5.200000 -5.040000 -7.160000 4.397357 -2.724127 26.757618
5.200000 -5.040000 -7.120000 3.120079 -2.586323 16.423958
5.200000 -5.040000 -7.080000 2.213536 -2.989927 13.839405
5.200000 -5.040000 -7.040000 1.160407 -2.718960 8.739285
5.200000 -5.040000 -7.000000 -2.052588 -2.605907 11.003869
5.200000 -5.040000 -6.960000 -7.224763 -6.167750 90.238350
5.200000 -5.040000 -6.920000 -9.659052 -15.510317 333.867218
5.200000 -5.040000 -6.880000 -3.736388 -26.726959 728.290894
5.200000 -5.040000 -6.840000 10.238444 -31.364977 1088.587524
5.200000 -5.040000 -6.800000 23.835779 -24.317762 1159.497925
5.200000 -5.000000 -7.200000 15.880231 5.740759 285.138062
5.200000 -5.000000 -7.160000 7.005453 10.919015 168.301254
5.200000 -5.000000 -7.120000 -1.479416 5.960467 37.715843
5.200000 -5.000000 -7.080000 -1.431599 -2.551289 8.558550
5.200000 -5.000000 -7.040000 4.159621 -5.249833 44.863190
5.200000 -5.000000 -7.000000 5.910713 -1.971519 38.823410
5.200000 -5.000000 -6.960000 0.929034 -1.735840 3.876246
5.200000 -5.000000 -6.920000 -2.419297 -10.468937 115.451637
5.200000 -5.000000 -6.880000 5.462198 -21.680803 499.892822
5.200000 -5.000000 -6.840000 22.239834 -22.435574 997.965149
5.200000 -5.000000 -6.800000 33.855110 -8.751882 1222.763916
5.200000 -4.960000 -7.200000 14.477228 23.516390 762.610718
5.200000 -4.960000 -7.160000 -4.776878 23.088110 555.879395
5.200000 -4.960000 -7.120000 -13.771851 6.941383 237.846664
5.200000 -4.960000 -7.080000 -5.339105 -7.432016 83.740906
5.200000 -4.960000 -7.040000 8.455750 -6.986820 120.315361
5.200000 -4.960000 -7.000000 11.981183 2.770018 151.221756
5.200000 -4.960000 -6.960000 4.669401 6.265103 61.054825
5.200000 -4.960000 -6.920000 0.516180 -2.190827 5.066166
5.200000 -4.960000 -6.880000 9.710564 -11.269665 221.300385
5.200000 -4.960000 -6.840000 25.045475 -6.882556 674.645386
5.200000 -4.960000 -6.800000 29.947500 9.617472 989.348511
5.200000 -4.920000 -7.200000 -1.970607 34.838333 1217.592773
5.200000 -4.920000 -7.160000 -24.065369 21.159946 1026.885254
5.200000 -4.920000 -7.120000 -24.036392 -4.301342 596.249695
5.200000 -4.920000 -7.080000 -3.983259 -16.878357 300.745300
5.200000 -4.920000 -7.040000 14.484855 -7.728496 269.540649
5.200000 -4.920000 -7.000000 15.192379 8.841681 308.983704
5.200000 -4.920000 -6.960000 3.823548 13.938622 208.904694
5.200000 -4.920000 -6.920000 -1.717584 5.633070 34.681572
5.200000 -4.920000 -6.880000 6.237005 -1.261987 40.492836
5.200000 -4.920000 -6.840000 16.971779 4.958814 312.631134
5.200000 -4.920000 -6.800000 16.193798 18.333546 598.358032
5.200000 -4.880000 -7.200000 -21.231844 29.341297 1311.702881
5.200000 -4.880000 -7.160000 -35.384083 4.157769 1269.320312
5.200000 -4.880000 -7.120000 -21.796888 -21.725887 947.118530
5.200000 -4.880000 -7.080000 6.190247 -24.868935 656.783081
5.200000 -4.880000 -7.040000 22.920359 -5.551154 556.158142
5.200000 -4.880000 -7.000000 17.203373 15.261541 528.870728
5.200000 -4.880000 -6.960000 1.050640 19.785019 392.550812
5.200000 -4.880000 -6.920000 -6.770204 10.528374 156.682312
5.200000 -4.880000 -6.880000 -1.462602 3.224009 12.533440
5.200000 -4.880000 -6.840000 5.955214 6.873119 82.704330
5.200000 -4.880000 -6.800000 4.867138 15.116768 252.205704
5.200000 -4.840000 -7.200000 -27.638866 12.631700 923.466736
5.200000 -4.840000 -7.160000 -29.168055 -14.570936 1063.087524
5.200000 -4.840000 -7.120000 -6.067609 -32.023102 1062.294922
5.200000 -4.840000 -7.080000 21.966827 -23.439312 1031.942871
5.200000 -4.840000 -7.040000 31.612000 2.851217 1007.447998
5.200000 -4.840000 -7.000000 18.256615 23.987720 908.714722
5.200000 -4.840000 -6.960000 -2.380808 25.627333 662.428467
5.200000 -4.840000 -6.920000 -12.336042 13.302513 329.134796
5.200000 -4.840000 -6.880000 -8.112324 2.704955 73.126579
5.200000 -4.840000 -6.840000 0.265254 2.580564 6.729671
5.200000 -4.840000 -6.800000 2.946654 9.024085 90.116882
5.200000 -4.800000 -7.200000 -18.290827 1.560907 336.990784
5.200000 -4.800000 -7.160000 -12.071016 -19.201599 514.410889
5.200000 -4.800000 -7.120000 11.768152 -26.242409 827.153442
5.200000 -4.800000 -7.080000 33.513161 -9.952736 1222.188965
5.200000 -4.800000 -7.040000 34.558292 17.939346 1516.095703
5.200000 -4.800000 -7.000000 14.714762 35.927963 1507.342773
5.200000 -4.800000 -6.960000 -9.013474 32.656185 1147.669067
5.200000 -4.800000 -6.920000 -19.196726 15.435472 606.768066
5.200000 -4.800000 -6.880000 -12.660765 0.993828 161.282669
5.200000 -4.800000 -6.840000 -0.175198 -0.204022 0.072319
5.200000 -4.800000 -6.800000 5.547580 9.081717 113.253235
