#kx 	ky 	kz 	real 	imag 	intensity
3.800000 3.800000 -6.200000 -18.156254 -26.525818 1033.268555
3.800000 3.800000 -6.160000 2.062864 -37.891510 1440.021851
3.800000 3.800000 -6.120000 23.516006 -28.875622 1386.804077
3.800000 3.800000 -6.080000 28.882998 -7.812206 895.258118
3.800000 3.800000 -6.040000 16.274313 6.543866 307.675446
3.800000 3.800000 -6.000000 0.211474 3.329821 11.132427
3.800000 3.800000 -5.960000 -3.487233 -10.806889 128.949631
3.800000 3.800000 -5.920000 7.092387 -19.976179 449.349670
3.800000 3.800000 -5.880000 19.975918 -15.583221 641.874084
3.800000 3.800000 -5.840000 23.157455 -3.643730 549.544556
3.800000 3.800000 -5.800000 16.706520 3.712031 292.886993
3.800000 3.840000 -6.200000 1.304032 -35.038025 1229.363647
3.800000 3.840000 -6.160000 23.138699 -36.604877 1875.316406
3.800000 3.840000 -6.120000 38.886044 -22.203354 2005.113281
3.800000 3.840000 -6.080000 39.310379 -3.368747 1556.654419
3.800000 3.840000 -6.040000 28.570641 6.835363 863.003662
3.800000 3.840000 -6.000000 18.547384 5.181686 370.855347
3.800000 3.840000 -5.960000 17.072409 -0.950334 292.370270
3.800000 3.840000 -5.920000 21.982121 -2.628982 490.125153
3.800000 3.840000 -5.880000 25.770424 2.005038 668.134949
3.800000 3.840000 -5.840000 24.373802 7.930313 656.972107
3.800000 3.840000 -5.800000 20.418051 10.417913 525.429688
3.800000 3.880000 -6.200000 17.956514 -25.779694 987.028992
3.800000 3.880000 -6.160000 35.797035 -21.121555 1727.547852
3.800000 3.880000 -6.120000 46.201569 -6.007298 2170.672607
3.800000 3.880000 -6.080000 44.946335 10.726105 2135.222412
3.800000 3.880000 -6.040000 35.645153 21.199699 1720.004150
3.800000 3.880000 -6.000000 25.378407 23.434393 1193.234375
3.800000 3.880000 -5.960000 19.102726 20.722210 794.324097
3.800000 3.880000 -5.920000 17.423943 17.626478 614.286499
3.800000 3.880000 -5.880000 18.156532 16.762226 610.631897
3.800000 3.880000 -5.840000 18.868002 18.344784 692.532593
3.800000 3.880000 -5.800000 18.125603 21.399733 786.486023
3.800000 3.920000 -6.200000 19.818092 -10.088974 494.544189
3.800000 3.920000 -6.160000 33.757599 -3.891748 1154.721191
3.800000 3.920000 -6.120000 41.359360 10.872854 1828.815674
3.800000 3.920000 -6.080000 38.313507 27.604538 2229.935303
3.800000 3.920000 -6.040000 26.271942 38.589455 2179.360840
3.800000 3.920000 -6.000000 11.845694 39.674332 1714.373047
3.800000 3.920000 -5.960000 2.396993 32.814091 1082.510132
3.800000 3.920000 -5.920000 1.201484 24.568691 605.064148
3.800000 3.920000 -5.880000 5.423532 21.277395 482.142242
3.800000 3.920000 -5.840000 8.716978 24.440136 673.305969
3.800000 3.920000 -5.800000 6.527929 30.057735 946.081299
3.800000 3.960000 -6.200000 10.526361 -2.435312 116.735031
3.800000 3.960000 -6.160000 23.157276 4.712508 558.467163
3.800000 3.960000 -6.120000 27.874222 20.565891 1199.928101
3.800000 3.960000 -6.080000 20.079390 36.363979 1725.520874
3.800000 3.960000 -6.040000 3.866481 42.588730 1828.749634
3.800000 3.960000 -6.000000 -10.585236 36.523819 1446.036621
3.800000 3.960000 -5.960000 -15.067842 24.566803 830.567688
3.800000 3.960000 -5.920000 -9.958289 16.757200 379.971313
3.800000 3.960000 -5.880000 -3.336095 18.124027 339.609894
3.800000 3.960000 -5.840000 -3.234485 24.818687 626.429138
3.800000 3.960000 -5.800000 -10.428903 28.566956 924.832947
3.800000 4.000000 -6.200000 2.900427 -5.795535 42.000706
3.800000 4.000000 -6.160000 13.633330 4.675946 207.732162
3.800000 4.000000 -6.120000 12.343472 20.518272 573.360779
3.800000 4.000000 -6.080000 -0.585345 29.895573 894.087891
3.800000 4.000000 -6.040000 -15.130933 26.405888 926.216003
3.800000 4.000000 -6.000000 -20.600662 14.752941 642.036560
3.800000 4.000000 -5.960000 -15.274210 6.069344 270.138428
3.800000 4.000000 -5.920000 -7.361629 7.266835 107.000481
3.800000 4.000000 -5.880000 -6.455065 14.901741 263.729767
3.800000 4.000000 -5.840000 -14.142405 19.393600 576.119324
3.800000 4.000000 -5.800000 -23.107512 15.043243 760.256287
3.800000 4.040000 -6.200000 3.889337 -11.003532 136.204666
3.800000 4.040000 -6.160000 8.179931 2.277998 72.100540
3.800000 4.040000 -6.120000 -0.095355 12.232898 149.652878
3.800000 4.040000 -6.080000 -11.753189 10.218552 242.556244
3.800000 4.040000 -6.040000 -14.949476 -0.095837 223.496033
3.800000 4.040000 -6.000000 -7.270959 -6.771076 98.714317
3.800000 4.040000 -5.960000 1.982571 -2.144119 8.527835
3.800000 4.040000 -5.920000 1.710497 9.198780 87.543358
3.800000 4.040000 -5.880000 -9.344593 15.286427 320.996277
3.800000 4.040000 -5.840000 -21.340986 9.246445 540.934448
3.800000 4.040000 -5.800000 -23.601219 -3.775229 571.269897
3.800000 4.080000 -6.200000 7.953446 -9.334028 150.381378
3.800000 4.080000 -6.160000 3.014858 0.321650 9.192825
3.800000 4.080000 -6.120000 -6.309053 -1.706627 42.716728
3.800000 4.080000 -6.080000 -6.463613 -12.447166 196.710236
3.800000 4.080000 -6.040000 5.947152 -17.940662 357.235992
3.800000 4.080000 -6.000000 19.424107 -8.356049 447.119476
3.800000 4.080000 -5.960000 19.066048 10.492467 473.606018
3.800000 4.080000 -5.920000 2.479099 22.013216 490.727600
3.800000 4.080000 -5.880000 -16.896441 15.436643 523.779663
3.800000 4.080000 -5.840000 -22.852348 -3.267771 532.908142
3.800000 4.080000 -5.800000 -12.235040 -17.496222 455.813965
3.800000 4.120000 -6.200000 5.416078 -3.220575 39.706001
3.800000 4.120000 -6.160000 -3.997958 -5.068278 41.671112
3.800000 4.120000 -6.120000 -3.709908 -17.977909 336.968628
3.800000 4.120000 -6.080000 12.870565 -25.934431 838.246216
3.800000 4.120000 -6.040000 33.464207 -14.392149 1326.987061
3.800000 4.120000 -6.000000 37.625519 12.708386 1577.182739
3.800000 4.120000 -5.960000 17.761532 34.355293 1495.758179
3.800000 4.120000 -5.920000 -11.649272 32.233887 1174.729004
3.800000 4.120000 -5.880000 -27.070896 8.836887 810.924011
3.800000 4.120000 -5.840000 -18.220200 -14.961520 555.822754
3.800000 4.120000 -5.800000 3.139080 -20.317669 422.661499
3.800000 4.160000 -6.200000 -4.718560 -3.047901 31.554512
3.800000 4.160000 -6.160000 -7.766138 -17.618137 370.711670
3.800000 4.160000 -6.120000 8.938336 -31.043919 1043.618652
3.800000 4.160000 -6.080000 36.107269 -23.457844 1854.005371
3.800000 4.160000 -6.040000 49.462273 7.394275 2501.191650
3.800000 4.160000 -6.000000 33.014477 40.339462 2717.228027
3.800000 4.160000 -5.960000 -3.529685 49.042740 2417.649170
3.800000 4.160000 -5.920000 -32.143036 27.034981 1764.064941
3.800000 4.160000 -5.880000 -32.186264 -5.965003 1071.536865
3.800000 4.160000 -5.840000 -8.759413 -22.987137 605.135742
3.800000 4.160000 -5.800000 14.314231 -14.621867 418.696198
3.800000 4.200000 -6.200000 -12.517578 -14.283722 360.714478
3.800000 4.200000 -6.160000 -0.711636 -33.051674 1092.919556
3.800000 4.200000 -6.120000 28.464663 -34.157726 1976.987305
3.800000 4.200000 -6.080000 51.701672 -7.273575 2725.967529
3.800000 4.200000 -6.040000 45.665848 32.228455 3124.042969
3.800000 4.200000 -6.000000 10.256309 54.535072 3079.266113
3.800000 4.200000 -5.960000 -29.024374 42.250267 2627.499512
3.800000 4.200000 -5.920000 -43.342026 6.691769 1923.311035
3.800000 4.200000 -5.880000 -26.092577 -22.780752 1199.785156
3.800000 4.200000 -5.840000 3.172222 -25.681597 669.607422
3.800000 4.200000 -5.800000 19.085934 -6.866223 411.417877
3.840000 3.800000 -6.200000 21.809563 -26.769905 1192.284790
3.840000 3.800000 -6.160000 39.228508 -15.380956 1775.449707
3.840000 3.800000 -6.120000 41.485645 6.281312 1760.513550
3.840000 3.800000 -6.080000 26.805223 20.905495 1155.559692
3.840000 3.800000 -6.040000 8.987680 18.292225 415.383911
3.840000 3.800000 -6.000000 3.145876 5.008045 34.977051
3.840000 3.800000 -5.960000 10.785385 -3.550392 128.929810
3.840000 3.800000 -5.920000 19.866888 0.469359 394.913544
3.840000 3.800000 -5.880000 18.949272 10.194616 463.005127
3.840000 3.800000 -5.840000 9.451054 13.122231 261.515381
3.840000 3.800000 -5.800000 2.956366 5.619440 40.318203
3.840000 3.840000 -6.200000 32.590977 -11.853225 1202.670654
3.840000 3.840000 -6.160000 44.915134 0.505477 2017.624756
3.840000 3.840000 -6.120000 46.071953 18.873907 2478.849121
3.840000 3.840000 -6.080000 36.003216 33.151344 2395.243164
3.840000 3.840000 -6.040000 21.792507 38.011383 1919.778564
3.840000 3.840000 -6.000000 10.268501 35.405281 1358.976074
3.840000 3.840000 -5.960000 3.215216 29.984768 909.423889
3.840000 3.840000 -5.920000 -0.875515 23.949818 574.360291
3.840000 3.840000 -5.880000 -2.380708 17.032230 295.764618
3.840000 3.840000 -5.840000 0.277410 10.196236 104.040176
3.840000 3.840000 -5.800000 7.124508 7.101963 101.196487
3.840000 3.880000 -6.200000 26.653208 5.632361 742.117004
3.840000 3.880000 -6.160000 38.138496 16.196129 1716.859497
3.840000 3.880000 -6.120000 41.226288 35.904064 2988.708496
3.840000 3.880000 -6.080000 30.072369 56.535378 4100.596191
3.840000 3.880000 -6.040000 6.604742 67.227455 4563.153320
3.840000 3.880000 -6.000000 -19.425938 61.174107 4119.638184
3.840000 3.880000 -5.960000 -35.645859 40.613167 2920.056641
3.840000 3.880000 -5.920000 -34.796135 16.318737 1477.072144
3.840000 3.880000 -5.880000 -19.729504 1.059948 390.376831
3.840000 3.880000 -5.840000 -1.582601 1.207303 3.962205
3.840000 3.880000 -5.800000 8.087313 12.760872 228.244476
3.840000 3.920000 -6.200000 9.891824 10.090144 199.659180
3.840000 3.920000 -6.160000 24.256054 22.509960 1095.054443
3.840000 3.920000 -6.120000 24.967785 48.612392 2986.555176
3.840000 3.920000 -6.080000 2.683331 72.527168 5267.390137
3.840000 3.920000 -6.040000 -34.906731 74.925735 6832.345703
3.840000 3.920000 -6.000000 -65.994553 49.273224 6783.131348
3.840000 3.920000 -5.960000 -70.759888 9.277975 5093.042969
3.840000 3.920000 -5.920000 -47.516228 -20.460192 2676.411377
3.840000 3.920000 -5.880000 -14.337457 -23.575842 761.382996
3.840000 3.920000 -5.840000 5.835289 -4.198957 51.681831
3.840000 3.920000 -5.800000 3.367907 18.370344 348.812347
3.840000 3.960000 -6.200000 -1.232705 -0.827124 2.203695
3.840000 3.960000 -6.160000 12.944448 19.334238 541.371460
3.840000 3.960000 -6.120000 2.759885 49.548706 2462.691162
3.840000 3.960000 -6.080000 -33.547913 64.010384 5222.791504
3.840000 3.960000 -6.040000 -73.920540 44.604477 7453.805664
3.840000 3.960000 -6.000000 -88.687042 -1.035665 7866.464355
3.840000 3.960000 -5.960000 -65.823380 -43.342339 6211.275391
3.840000 3.960000 -5.920000 -22.040771 -54.778633 3486.494385
3.840000 3.960000 -5.880000 11.326446 -32.501011 1184.604004
3.840000 3.960000 -5.840000 14.713176 1.061290 217.603882
3.840000 3.960000 -5.800000 -5.357664 19.452011 407.085297
3.840000 4.000000 -6.200000 2.953723 -13.982914 204.246368
3.840000 4.000000 -6.160000 8.159477 13.876017 259.120911
3.840000 4.000000 -6.120000 -16.453268 37.399433 1669.427734
3.840000 4.000000 -6.080000 -56.195312 30.766582 4104.495605
3.840000 4.000000 -6.040000 -79.083656 -8.664439 6329.296875
3.840000 4.000000 -6.000000 -63.511368 -54.822941 7039.249023
3.840000 4.000000 -5.960000 -18.499395 -74.112839 5834.940430
3.840000 4.000000 -5.920000 23.419247 -54.408470 3508.742920
3.840000 4.000000 -5.880000 34.429768 -14.601315 1398.607300
3.840000 4.000000 -5.840000 14.142138 13.752836 389.140564
3.840000 4.000000 -5.800000 -13.900285 14.281158 397.169403
3.840000 4.040000 -6.200000 15.440907 -15.126431 467.230530
3.840000 4.040000 -6.160000 5.597736 11.238477 157.638016
3.840000 4.040000 -6.120000 -25.634979 16.809624 939.715576
3.840000 4.040000 -6.080000 -50.842693 -9.560396 2676.380615
3.840000 4.040000 -6.040000 -44.143784 -50.055065 4454.183105
3.840000 4.040000 -6.000000 -5.916195 -71.970863 5214.806641
3.840000 4.040000 -5.960000 36.120117 -56.872269 4539.117676
3.840000 4.040000 -5.920000 51.329071 -17.046421 2925.254150
3.840000 4.040000 -5.880000 32.748520 16.481228 1344.096436
3.840000 4.040000 -5.840000 0.703542 22.063488 487.292480
3.840000 4.040000 -5.800000 -18.369648 4.271915 355.693237
3.840000 4.080000 -6.200000 20.719723 -4.153534 446.558746
3.840000 4.080000 -6.160000 0.134915 8.596739 73.922119
3.840000 4.080000 -6.120000 -22.282009 -5.005116 521.539124
3.840000 4.080000 -6.080000 -21.676645 -35.158302 1705.983154
3.840000 4.080000 -6.040000 7.157602 -54.229702 2992.091797
3.840000 4.080000 -6.000000 43.049717 -42.165916 3631.242676
3.840000 4.080000 -5.960000 57.134495 -5.756023 3297.482422
3.840000 4.080000 -5.920000 39.104717 27.425270 2281.324463
3.840000 4.080000 -5.880000 5.503440 34.312881 1207.661621
3.840000 4.080000 -5.840000 -17.182400 15.834268 545.958862
3.840000 4.080000 -5.800000 -16.686279 -7.516466 334.929169
3.840000 4.120000 -6.200000 11.934260 5.242681 169.912277
3.840000 4.120000 -6.160000 -6.061885 -0.207614 36.789555
3.840000 4.120000 -6.120000 -8.067374 -21.252178 516.737610
3.840000 4.120000 -6.080000 13.375837 -35.710598 1454.159912
3.840000 4.120000 -6.040000 42.235222 -24.586823 2388.325684
3.840000 4.120000 -6.000000 52.692039 8.474124 2848.261719
3.840000 4.120000 -5.960000 33.449951 39.144043 2651.155273
3.840000 4.120000 -5.920000 -1.442454 44.520332 1984.140625
3.840000 4.120000 -5.880000 -25.917303 23.545784 1226.110596
3.840000 4.120000 -5.840000 -25.625101 -4.008792 672.716248
3.840000 4.120000 -5.800000 -8.478786 -17.611519 382.055420
3.840000 4.160000 -6.200000 -1.728221 0.814960 3.650908
3.840000 4.160000 -6.160000 -4.742912 -15.146648 251.916168
3.840000 4.160000 -6.120000 12.263983 -27.044773 881.825012
3.840000 4.160000 -6.080000 36.915070 -17.050314 1653.435547
3.840000 4.160000 -6.040000 45.701939 13.578152 2273.033447
3.840000 4.160000 -6.000000 26.171167 43.064823 2539.509033
3.840000 4.160000 -5.960000 -10.050265 48.087460 2413.411621
3.840000 4.160000 -5.920000 -36.970108 25.058407 1994.712646
3.840000 4.160000 -5.880000 -37.380875 -7.208879 1449.297729
3.840000 4.160000 -5.840000 -16.712145 -25.518539 930.491638
3.840000 4.160000 -5.800000 5.034520 -22.404125 527.291199
3.840000 4.200000 -6.200000 -5.078994 -14.906577 248.002213
3.840000 4.200000 -6.160000 8.761973 -27.186272 815.865540
3.840000 4.200000 -6.120000 31.794022 -20.619364 1436.017944
3.840000 4.200000 -6.080000 42.719837 6.694725 1869.803833
3.840000 4.200000 -6.040000 26.968376 36.535423 2062.130371
3.840000 4.200000 -6.000000 -8.237839 45.130299 2104.605957
3.840000 4.200000 -5.960000 -38.507946 24.448009 2080.567139
3.840000 4.200000 -5.920000 -43.126637 -10.357700 1967.188721
3.840000 4.200000 -5.880000 -22.312555 -34.556694 1692.015259
3.840000 4.200000 -5.840000 5.183051 -35.035221 1254.330688
3.840000 4.200000 -5.800000 20.347971 -18.768574 766.299316
3.880000 3.800000 -6.200000 48.960575 10.468477 2506.727051
3.880000 3.800000 -6.160000 44.712311 35.206573 3238.693604
3.880000 3.800000 -6.120000 22.019966 49.558971 2940.970459
3.880000 3.800000 -6.080000 -2.618734 42.315128 1797.427856
3.880000 3.800000 -6.040000 -11.004631 21.986305 604.499512
3.880000 3.800000 -6.000000 -1.443596 8.101784 67.722870
3.880000 3.800000 -5.960000 10.473343 11.015379 231.029480
3.880000 3.800000 -5.920000 9.259789 21.978840 568.813110
3.880000 3.800000 -5.880000 -3.908094 23.918629 587.373962
3.880000 3.800000 -5.840000 -13.321746 10.747263 292.972595
3.880000 3.800000 -5.800000 -6.638218 -5.993088 79.983040
3.880000 3.840000 -6.200000 31.763535 32.360798 2056.143311
3.880000 3.840000 -6.160000 26.536489 46.239807 2842.305176
3.880000 3.840000 -6.120000 13.766129 55.944748 3319.321289
3.880000 3.840000 -6.080000 -1.786064 58.216106 3392.304932
3.880000 3.840000 -6.040000 -15.981804 54.255276 3199.052979
3.880000 3.840000 -6.000000 -27.777603 45.972427 2885.059326
3.880000 3.840000 -5.960000 -36.554615 33.209339 2439.100098
3.880000 3.840000 -5.920000 -38.990089 16.012547 1776.628662
3.880000 3.840000 -5.880000 -31.051682 -1.117846 965.456482
3.880000 3.840000 -5.840000 -13.894585 -9.881758 290.708618
3.880000 3.840000 -5.800000 3.788842 -5.017852 39.534164
3.880000 3.880000 -6.200000 3.050234 33.336639 1120.635498
3.880000 3.880000 -6.160000 6.928612 43.843266 1970.237549
3.880000 3.880000 -6.120000 -0.048916 62.660305 3926.316162
3.880000 3.880000 -6.080000 -24.800241 77.327621 6594.613281
3.880000 3.880000 -6.040000 -60.712254 72.171364 8894.683594
3.880000 3.880000 -6.000000 -88.975586 41.537487 9642.017578
3.880000 3.880000 -5.960000 -91.257332 -2.714661 8335.269531
3.880000 3.880000 -5.920000 -64.394173 -37.466621 5550.356934
3.880000 3.880000 -5.880000 -24.332424 -44.789589 2598.174316
3.880000 3.880000 -5.840000 5.188875 -25.334007 668.736389
3.880000 3.880000 -5.800000 10.307356 2.987300 115.165543
3.880000 3.920000 -6.200000 -14.980762 11.904243 366.134216
3.880000 3.920000 -6.160000 -4.278275 32.114479 1049.643311
3.880000 3.920000 -6.120000 -20.854815 62.660076 4361.208496
3.880000 3.920000 -6.080000 -67.063286 73.164169 9850.480469
3.880000 3.920000 -6.040000 -116.167244 41.649506 15229.509766
3.880000 3.920000 -6.000000 -131.113739 -22.478912 17696.113281
3.880000 3.920000 -5.960000 -95.987808 -81.618591 15875.253906
3.880000 3.920000 -5.920000 -31.445103 -99.121185 10813.804688
3.880000 3.920000 -5.880000 21.145218 -68.944855 5200.513184
3.880000 3.920000 -5.840000 33.130882 -19.070309 1461.332031
3.880000 3.920000 -5.800000 9.433975 13.817469 279.922333
3.880000 3.960000 -6.200000 -8.579226 -13.564170 257.589813
3.880000 3.960000 -6.160000 -4.973455 21.073301 468.819275
3.880000 3.960000 -6.120000 -42.371365 49.664970 4261.941895
3.880000 3.960000 -6.080000 -101.253258 34.301537 11428.818359
3.880000 3.960000 -6.040000 -134.495972 -30.807022 19038.238281
3.880000 3.960000 -6.000000 -107.413506 -107.646484 23125.425781
3.880000 3.960000 -5.960000 -30.774416 -143.193253 21451.371094
3.880000 3.960000 -5.920000 45.580555 -114.142487 15106.093750
3.880000 3.960000 -5.880000 74.099411 -46.152794 7620.802734
3.880000 3.960000 -5.840000 47.728771 10.050874 2379.055664
3.880000 3.960000 -5.800000 0.471568 22.227613 494.289185
3.880000 4.000000 -6.200000 14.170002 -21.528345 664.258606
3.880000 4.000000 -6.160000 -2.054068 17.150663 298.364471
3.880000 4.000000 -6.120000 -54.478935 24.708513 3578.464844
3.880000 4.000000 -6.080000 -100.629517 -22.409393 10628.480469
3.880000 4.000000 -6.040000 -92.944672 -99.931870 18625.089844
3.880000 4.000000 -6.000000 -23.591866 -151.131638 23397.347656
3.880000 4.000000 -5.960000 64.112900 -134.995514 22334.253906
3.880000 4.000000 -5.920000 110.988739 -62.613384 16238.935547
3.880000 4.000000 -5.880000 91.833824 12.933752 8600.733398
3.880000 4.000000 -5.840000 33.418423 43.162834 2979.821289
3.880000 4.000000 -5.800000 -14.182572 22.713310 717.039795
3.880000 4.040000 -6.200000 31.167200 -7.531280 1028.114502
3.880000 4.040000 -6.160000 -3.627194 17.309589 312.778412
3.880000 4.040000 -6.120000 -50.706429 -3.525187 2583.568848
3.880000 4.040000 -6.080000 -62.604752 -64.795036 8117.751953
3.880000 4.040000 -6.040000 -15.318638 -120.312721 14709.812500
3.880000 4.040000 -6.000000 65.172035 -121.140503 18922.416016
3.880000 4.040000 -5.960000 121.927185 -60.043110 18471.414062
3.880000 4.040000 -5.920000 115.746933 20.668074 13824.521484
3.880000 4.040000 -5.880000 57.825424 66.035439 7704.458984
3.880000 4.040000 -5.840000 -3.689063 54.705666 3006.319092
3.880000 4.040000 -5.800000 -28.051552 11.436743 917.688660
3.880000 4.080000 -6.200000 27.696445 12.433535 921.685852
3.880000 4.080000 -6.160000 -10.000754 13.156294 273.103149
3.880000 4.080000 -6.120000 -32.644558 -24.401104 1661.081055
3.880000 4.080000 -6.080000 -10.299225 -71.651886 5240.066895
3.880000 4.080000 -6.040000 49.184410 -84.440590 9549.319336
3.880000 4.080000 -6.000000 102.447586 -43.245255 12365.660156
3.880000 4.080000 -5.960000 107.301865 26.752712 12229.398438
3.880000 4.080000 -5.920000 59.856419 76.398422 9419.509766
3.880000 4.080000 -5.880000 -3.215668 74.865417 5615.170898
3.880000 4.080000 -5.840000 -38.435486 33.444866 2595.845703
3.880000 4.080000 -5.800000 -31.733738 -9.869302 1104.433228
3.880000 4.120000 -6.200000 9.800562 18.529728 439.401855
3.880000 4.120000 -6.160000 -13.097016 0.952086 172.438293
3.880000 4.120000 -6.120000 -8.151780 -31.655483 1068.521118
3.880000 4.120000 -6.080000 27.762466 -47.512833 3028.223633
3.880000 4.120000 -6.040000 67.795197 -24.834965 5212.963867
3.880000 4.120000 -6.000000 76.822449 25.776295 6566.105957
3.880000 4.120000 -5.960000 43.094048 68.179710 6505.570312
3.880000 4.120000 -5.920000 -10.562386 71.682144 5249.893555
3.880000 4.120000 -5.880000 -46.888474 36.915710 3561.298828
3.880000 4.120000 -5.840000 -45.950535 -7.374168 2165.830078
3.880000 4.120000 -5.800000 -18.457333 -31.578854 1337.897095
3.880000 4.160000 -6.200000 -3.351522 6.378097 51.912819
3.880000 4.160000 -6.160000 -5.202069 -13.074023 197.991608
3.880000 4.160000 -6.120000 13.877598 -25.596550 847.771057
3.880000 4.160000 -6.080000 39.253647 -14.159737 1741.346924
3.880000 4.160000 -6.040000 46.590782 18.206299 2502.170166
3.880000 4.160000 -6.000000 23.862835 48.144730 2887.349854
3.880000 4.160000 -5.960000 -16.218357 51.318356 2896.608887
3.880000 4.160000 -5.920000 -46.071785 23.701590 2684.374756
3.880000 4.160000 -5.880000 -46.468800 -15.275886 2392.702148
3.880000 4.160000 -5.840000 -21.268707 -40.147484 2064.178223
3.880000 4.160000 -5.800000 9.072392 -40.029671 1684.682861
3.880000 4.200000 -6.200000 0.712497 -10.270729 105.995529
3.880000 4.200000 -6.160000 11.997555 -18.061176 470.147400
3.880000 4.200000 -6.120000 27.560326 -11.040077 881.454834
3.880000 4.200000 -6.080000 31.867167 9.720605 1110.006470
3.880000 4.200000 -6.040000 16.032467 29.382500 1120.371338
3.880000 4.200000 -6.000000 -12.511528 30.701853 1099.142090
3.880000 4.200000 -5.960000 -34.454346 9.094694 1269.815430
3.880000 4.200000 -5.920000 -34.036427 -22.591667 1668.861694
3.880000 4.200000 -5.880000 -11.640641 -44.305172 2098.452881
3.880000 4.200000 -5.840000 17.697309 -44.469482 2290.729736
3.880000 4.200000 -5.800000 37.341400 -27.035404 2125.293213
3.920000 3.800000 -6.200000 35.636238 59.837025 4850.411133
3.920000 3.800000 -6.160000 5.017065 76.115204 5818.695312
3.920000 3.800000 -6.120000 -30.124929 64.645187 5086.511719
3.920000 3.800000 -6.080000 -44.902351 32.584648 3077.980469
3.920000 3.800000 -6.040000 -32.152657 5.279896 1061.670654
3.920000 3.800000 -6.000000 -9.613644 1.571056 94.890358
3.920000 3.800000 -5.960000 -1.406597 15.528946 243.126678
3.920000 3.800000 -5.920000 -13.240898 24.161312 759.090332
3.920000 3.800000 -5.880000 -27.722183 12.662588 928.860596
3.920000 3.800000 -5.840000 -24.258171 -10.009680 688.652527
3.920000 3.800000 -5.800000 -1.593200 -21.524464 465.840820
3.920000 3.840000 -6.200000 -6.971272 61.704292 3856.018311
3.920000 3.840000 -6.160000 -25.204668 62.730644 4570.409180
3.920000 3.840000 -6.120000 -41.534508 55.196369 4771.754395
3.920000 3.840000 -6.080000 -52.323948 43.175636 4601.931152
3.920000 3.840000 -6.040000 -58.962921 30.341736 4397.247070
3.920000 3.840000 -6.000000 -63.674141 15.742599 4302.225586
3.920000 3.840000 -5.960000 -63.908749 -3.307907 4095.270264
3.920000 3.840000 -5.920000 -53.411488 -24.197784 3438.319824
3.920000 3.840000 -5.880000 -30.398621 -37.145027 2303.829102
3.920000 3.840000 -5.840000 -3.543297 -32.951481 1098.354980
3.920000 3.840000 -5.800000 12.652229 -13.243340 335.464966
3.920000 3.880000 -6.200000 -36.714569 30.817883 2297.701416
3.920000 3.880000 -6.160000 -37.498245 36.759724 2757.395752
3.920000 3.880000 -6.120000 -52.433628 47.422264 4998.156250
3.920000 3.880000 -6.080000 -83.518967 44.833801 8985.487305
3.920000 3.880000 -6.040000 -114.241882 14.912689 13273.596680
3.920000 3.880000 -6.000000 -119.907578 -36.707138 15725.241211
3.920000 3.880000 -5.960000 -88.284233 -84.322289 14904.354492
3.920000 3.880000 -5.920000 -32.523178 -100.223404 11102.487305
3.920000 3.880000 -5.880000 16.614187 -76.702888 6159.364258
3.920000 3.880000 -5.840000 33.894215 -32.584904 2210.593750
3.920000 3.880000 -5.800000 18.351479 2.095685 341.168671
3.920000 3.920000 -6.200000 -32.253601 -10.037704 1141.050293
3.920000 3.920000 -6.160000 -30.964535 15.401371 1196.004639
3.920000 3.920000 -6.120000 -66.153030 35.186676 5614.325684
3.920000 3.920000 -6.080000 -119.810760 13.436632 14535.161133
3.920000 3.920000 -6.040000 -146.737305 -55.370361 24597.712891
3.920000 3.920000 -6.000000 -113.084663 -133.953491 30731.677734
3.920000 3.920000 -5.960000 -29.437244 -169.456406 29582.023438
3.920000 3.920000 -5.920000 54.065338 -137.663254 21874.232422
3.920000 3.920000 -5.880000 88.019218 -63.657341 11799.639648
3.920000 3.920000 -5.840000 63.049629 0.298382 3975.344971
3.920000 3.920000 -5.800000 12.874048 18.567795 510.504120
3.920000 3.960000 -6.200000 0.038477 -30.105312 906.331299
3.920000 3.960000 -6.160000 -17.834261 8.720695 394.111389
3.920000 3.960000 -6.120000 -76.533005 12.605200 6016.191895
3.920000 3.960000 -6.080000 -127.177597 -46.836231 18367.773438
3.920000 3.960000 -6.040000 -113.223831 -141.692535 32896.410156
3.920000 3.960000 -6.000000 -24.413931 -204.158585 42276.765625
3.920000 3.960000 -5.960000 87.602379 -183.649124 41401.175781
3.920000 3.960000 -5.920000 150.104980 -92.016190 30998.484375
3.920000 3.960000 -5.880000 129.967712 6.302870 16931.332031
3.920000 3.960000 -5.840000 57.950340 49.871353 5845.393555
3.920000 3.960000 -5.800000 -3.868760 28.951208 853.139709
3.920000 4.000000 -6.200000 31.906038 -17.347315 1318.924561
3.920000 4.000000 -6.160000 -11.719566 12.686474 298.294861
3.920000 4.000000 -6.120000 -73.421417 -16.948603 5677.959961
3.920000 4.000000 -6.080000 -88.865616 -102.721542 18448.812500
3.920000 4.000000 -6.040000 -21.868837 -183.169785 34029.417969
3.920000 4.000000 -6.000000 95.307312 -188.443283 44594.355469
3.920000 4.000000 -5.960000 183.513229 -103.552574 44400.242188
3.920000 4.000000 -5.920000 183.373474 15.531115 33867.046875
3.920000 4.000000 -5.880000 104.935013 89.613922 19042.011719
3.920000 4.000000 -5.840000 14.352619 82.650406 7037.086914
3.920000 4.000000 -5.800000 -26.900820 25.000355 1348.671875
3.920000 4.040000 -6.200000 38.754230 12.375257 1655.037354
3.920000 4.040000 -6.160000 -15.830675 15.058681 477.374146
3.920000 4.040000 -6.120000 -53.234150 -41.605267 4564.873047
3.920000 4.040000 -6.080000 -22.754461 -120.016823 14921.803711
3.920000 4.040000 -6.040000 72.142326 -150.651138 27900.281250
3.920000 4.040000 -6.000000 167.875641 -94.080475 37033.367188
3.920000 4.040000 -5.960000 192.480499 19.398869 37425.058594
3.920000 4.040000 -5.920000 128.244537 112.887192 29190.179688
3.920000 4.040000 -5.880000 25.839035 128.300140 17128.582031
3.920000 4.040000 -5.840000 -42.428577 72.470306 7052.129395
3.920000 4.040000 -5.800000 -43.907768 2.656747 1934.950439
3.920000 4.080000 -6.200000 20.379728 31.787487 1425.777588
3.920000 4.080000 -6.160000 -21.769974 7.904671 536.415588
3.920000 4.080000 -6.120000 -23.411766 -50.523605 3100.745605
3.920000 4.080000 -6.080000 33.729393 -92.705048 9731.897461
3.920000 4.080000 -6.040000 114.337624 -70.760620 18080.156250
3.920000 4.080000 -6.000000 154.529297 13.329376 24056.974609
3.920000 4.080000 -5.960000 117.437119 103.927979 24592.500000
3.920000 4.080000 -5.920000 26.947861 137.858185 19731.066406
3.920000 4.080000 -5.880000 -53.153519 97.750473 12380.452148
3.920000 4.080000 -5.840000 -74.347488 22.797224 6047.262207
3.920000 4.080000 -5.800000 -40.136097 -30.496637 2540.951172
3.920000 4.120000 -6.200000 -2.208277 27.419125 756.684875
3.920000 4.120000 -6.160000 -19.105534 -5.223845 392.309998
3.920000 4.120000 -6.120000 3.314849 -42.328449 1802.685913
3.920000 4.120000 -6.080000 55.216568 -45.128433 5085.444824
3.920000 4.120000 -6.040000 94.901810 1.245987 9007.906250
3.920000 4.120000 -6.000000 83.590858 68.892624 11733.625000
3.920000 4.120000 -5.960000 21.649998 107.645325 12056.238281
3.920000 4.120000 -5.920000 -49.258289 87.863754 10146.418945
3.920000 4.120000 -5.880000 -81.295540 25.465958 7257.479980
3.920000 4.120000 -5.840000 -59.756775 -33.940880 4722.855469
3.920000 4.120000 -5.800000 -10.375543 -54.991375 3131.703125
3.920000 4.160000 -6.200000 -8.816568 9.216644 162.678406
3.920000 4.160000 -6.160000 -5.931475 -13.598244 220.094620
3.920000 4.160000 -6.120000 18.438807 -24.671183 948.656860
3.920000 4.160000 -6.080000 45.526398 -7.675194 2131.561523
3.920000 4.160000 -6.040000 48.354626 30.136087 3246.353760
3.920000 4.160000 -6.000000 16.635563 59.915287 3866.583496
3.920000 4.160000 -5.960000 -30.884651 54.849243 3962.301270
3.920000 4.160000 -5.920000 -60.255901 14.244877 3833.690186
3.920000 4.160000 -5.880000 -50.511208 -34.958637 3773.488281
3.920000 4.160000 -5.840000 -10.187658 -60.800003 3800.428711
3.920000 4.160000 -5.800000 32.315384 -51.526527 3699.267090
3.920000 4.200000 -6.200000 1.835379 -2.747112 10.915237
3.920000 4.200000 -6.160000 9.550770 -10.065046 192.522369
3.920000 4.200000 -6.120000 21.779375 -6.863646 521.450806
3.920000 4.200000 -6.080000 26.574299 7.915348 768.846069
3.920000 4.200000 -6.040000 15.032139 23.280245 767.934998
3.920000 4.200000 -6.000000 -8.311665 23.627869 627.359985
3.920000 4.200000 -5.960000 -26.329216 2.855076 701.379028
3.920000 4.200000 -5.920000 -22.553978 -28.111271 1298.925415
3.920000 4.200000 -5.880000 4.568430 -48.547142 2377.695557
3.920000 4.200000 -5.840000 39.627281 -44.074669 3512.897949
3.920000 4.200000 -5.800000 62.291405 -17.359716 4181.578613
3.960000 3.800000 -6.200000 -12.679965 83.302223 7100.041992
3.960000 3.800000 -6.160000 -55.423553 73.135651 8420.593750
3.960000 3.800000 -6.120000 -79.913574 33.173637 7486.669434
3.960000 3.800000 -6.080000 -68.503708 -10.379401 4800.489746
3.960000 3.800000 -6.040000 -33.883678 -27.931076 1928.248657
3.960000 3.800000 -6.000000 -7.270918 -14.679810 268.363068
3.960000 3.800000 -5.960000 -7.743683 6.025330 96.269218
3.960000 3.800000 -5.920000 -24.621113 7.801048 667.055542
3.960000 3.800000 -5.880000 -30.983303 -11.748021 1097.981079
3.960000 3.800000 -5.840000 -13.221069 -30.360682 1096.567627
3.960000 3.800000 -5.800000 15.146187 -26.338219 923.108765
3.960000 3.840000 -6.200000 -56.571243 50.725895 5773.421875
3.960000 3.840000 -6.160000 -73.944565 33.153690 6566.965820
3.960000 3.840000 -6.120000 -79.990700 10.216610 6502.891113
3.960000 3.840000 -6.080000 -75.946777 -9.771839 5863.401855
3.960000 3.840000 -6.040000 -68.189400 -24.136162 5232.348633
3.960000 3.840000 -6.000000 -60.032875 -36.742508 4953.958008
3.960000 3.840000 -5.960000 -47.683434 -50.497223 4823.679199
3.960000 3.840000 -5.920000 -26.128349 -60.451878 4337.120117
3.960000 3.840000 -5.880000 1.372169 -56.904297 3239.981934
3.960000 3.840000 -5.840000 22.056072 -36.578373 1824.447754
3.960000 3.840000 -5.800000 24.227728 -9.447852 676.244690
3.960000 3.880000 -6.200000 -61.067978 -3.138037 3739.145020
3.960000 3.880000 -6.160000 -61.999451 -2.822847 3851.900391
3.960000 3.880000 -6.120000 -77.164223 -4.518476 5974.733887
3.960000 3.880000 -6.080000 -98.838196 -25.787754 10433.997070
3.960000 3.880000 -6.040000 -104.242218 -69.827614 15742.335938
3.960000 3.880000 -6.000000 -74.944901 -116.874695 19276.433594
3.960000 3.880000 -5.960000 -16.153748 -136.779739 18969.640625
3.960000 3.880000 -5.920000 42.994061 -113.642143 14763.026367
3.960000 3.880000 -5.880000 70.636810 -60.657188 8668.853516
3.960000 3.880000 -5.840000 57.133339 -10.785593 3380.547607
3.960000 3.880000 -5.800000 21.580933 9.211926 550.596252
3.960000 3.920000 -6.200000 -24.970228 -39.295990 2167.687012
3.960000 3.920000 -6.160000 -35.743774 -16.113791 1537.271729
3.960000 3.920000 -6.120000 -77.108696 -19.291132 6317.898926
3.960000 3.920000 -6.080000 -110.232712 -71.527473 17267.429688
3.960000 3.920000 -6.040000 -89.705673 -149.764542 30476.525391
3.960000 3.920000 -6.000000 -8.006447 -198.154541 39329.324219
3.960000 3.920000 -5.960000 91.099411 -175.045532 38940.039062
3.960000 3.920000 -5.920000 146.003647 -91.006798 29599.300781
3.960000 3.920000 -5.880000 128.226761 -1.410301 16444.089844
3.960000 3.920000 -5.840000 63.964260 40.061066 5696.315430
3.960000 3.920000 -5.800000 7.618835 23.728542 621.090332
3.960000 3.960000 -6.200000 21.356750 -34.474243 1644.584229
3.960000 3.960000 -6.160000 -17.181011 -8.681023 370.547302
3.960000 3.960000 -6.120000 -73.027504 -40.659164 6986.183594
3.960000 3.960000 -6.080000 -81.995468 -127.046570 22864.087891
3.960000 3.960000 -6.040000 -8.094341 -205.779526 42410.734375
3.960000 3.960000 -6.000000 115.193710 -206.299072 55828.898438
3.960000 3.960000 -5.960000 206.707718 -114.108231 55748.769531
3.960000 3.960000 -5.920000 205.725800 12.594210 42481.718750
3.960000 3.960000 -5.880000 123.100342 91.747314 23571.263672
3.960000 3.960000 -5.840000 27.887905 85.941833 8163.733887
3.960000 3.960000 -5.800000 -15.440878 27.013336 968.141052
3.960000 4.000000 -6.200000 43.110092 0.570339 1858.805420
3.960000 4.000000 -6.160000 -15.595285 2.712559 250.570892
3.960000 4.000000 -6.120000 -55.280918 -63.087288 7035.985840
3.960000 4.000000 -6.080000 -16.064693 -154.004089 23975.333984
3.960000 4.000000 -6.040000 98.887589 -188.336243 45249.292969
3.960000 4.000000 -6.000000 214.808578 -118.825089 60262.128906
3.960000 4.000000 -5.960000 245.858429 19.269114 60817.664062
3.960000 4.000000 -5.920000 170.022430 134.392639 46969.007812
3.960000 4.000000 -5.880000 47.209194 156.419373 26695.726562
3.960000 4.000000 -5.840000 -35.760227 92.662910 9865.208984
3.960000 4.000000 -5.800000 -38.994308 11.738020 1658.337280
3.960000 4.040000 -6.200000 30.108746 33.698944 2042.155273
3.960000 4.040000 -6.160000 -23.016466 3.790174 544.123108
3.960000 4.040000 -6.120000 -24.556807 -73.294106 5975.062500
3.960000 4.040000 -6.080000 53.021698 -130.970337 19964.529297
3.960000 4.040000 -6.040000 165.011520 -102.933243 37824.054688
3.960000 4.040000 -6.000000 225.024979 11.686680 50772.820312
3.960000 4.040000 -5.960000 179.974121 139.574402 51871.695312
3.960000 4.040000 -5.920000 58.687820 193.599396 40924.988281
3.960000 4.040000 -5.880000 -53.199825 146.595459 24320.449219
3.960000 4.040000 -5.840000 -87.695724 49.254906 10116.585938
3.960000 4.040000 -5.800000 -47.026939 -21.340542 2666.951660
3.960000 4.080000 -6.200000 1.280444 41.151695 1695.101562
3.960000 4.080000 -6.160000 -25.474155 -5.534814 679.566772
3.960000 4.080000 -6.120000 6.358749 -63.880886 4121.201172
3.960000 4.080000 -6.080000 87.613586 -73.396317 13063.160156
3.960000 4.080000 -6.040000 156.564606 -5.234108 24539.873047
3.960000 4.080000 -6.000000 149.526535 103.320282 33033.265625
3.960000 4.080000 -5.960000 59.749489 174.987015 34190.457031
3.960000 4.080000 -5.920000 -53.000755 158.204407 27837.714844
3.960000 4.080000 -5.880000 -113.188828 70.693169 17809.234375
3.960000 4.080000 -5.840000 -92.450531 -19.713125 8935.708008
3.960000 4.080000 -5.800000 -26.159410 -56.128105 3834.678955
3.960000 4.120000 -6.200000 -16.802010 25.653351 940.401978
3.960000 4.120000 -6.160000 -17.180199 -14.541113 506.603210
3.960000 4.120000 -6.120000 23.747744 -41.018692 2246.488281
3.960000 4.120000 -6.080000 78.530266 -18.603767 6513.102539
3.960000 4.120000 -6.040000 97.157166 48.899529 11830.678711
3.960000 4.120000 -6.000000 52.070347 114.109406 15732.277344
3.960000 4.120000 -5.960000 -32.561020 124.101837 16461.486328
3.960000 4.120000 -5.920000 -98.046890 67.171638 14125.220703
3.960000 4.120000 -5.880000 -100.547913 -16.444157 10380.292969
3.960000 4.120000 -5.840000 -46.253716 -70.049202 7046.296875
3.960000 4.120000 -5.800000 19.321350 -67.443481 4921.937500
3.960000 4.160000 -6.200000 -14.325893 8.001341 269.252686
3.960000 4.160000 -6.160000 -4.224937 -14.165965 218.524658
3.960000 4.160000 -6.120000 24.596272 -18.423513 944.402405
3.960000 4.160000 -6.080000 48.031078 7.512363 2363.419922
3.960000 4.160000 -6.040000 39.205578 48.112278 3851.868652
3.960000 4.160000 -6.000000 -4.232208 68.818947 4753.958984
3.960000 4.160000 -5.960000 -52.949787 46.126171 4931.303711
3.960000 4.160000 -5.920000 -68.797958 -9.244156 4818.613770
3.960000 4.160000 -5.880000 -37.580524 -59.399227 4940.563965
3.960000 4.160000 -5.840000 19.170326 -70.787445 5378.363770
3.960000 4.160000 -5.800000 63.814056 -40.497383 5712.271973
3.960000 4.200000 -6.200000 -2.659466 4.063751 23.586832
3.960000 4.200000 -6.160000 3.524290 -5.306147 40.575813
3.960000 4.200000 -6.120000 16.823076 -5.081835 308.840942
3.960000 4.200000 -6.080000 24.333944 8.340147 661.698914
3.960000 4.200000 -6.040000 14.876030 23.779072 786.740540
3.960000 4.200000 -6.000000 -7.102413 23.498566 602.626892
3.960000 4.200000 -5.960000 -21.911892 0.965736 481.063660
3.960000 4.200000 -5.920000 -11.366889 -29.732456 1013.225159
3.960000 4.200000 -5.880000 23.441319 -43.810741 2468.876465
3.960000 4.200000 -5.840000 61.047218 -26.796967 4444.840332
3.960000 4.200000 -5.800000 76.794258 13.052262 6067.719238
4.000000 3.800000 -6.200000 -61.847137 63.719643 7885.261230
4.000000 3.800000 -6.160000 -93.890442 26.449896 9515.011719
4.000000 3.800000 -6.120000 -90.410614 -26.320250 8866.834961
4.000000 3.800000 -6.080000 -51.463779 -60.033104 6252.494141
4.000000 3.800000 -6.040000 -6.395477 -55.117069 3078.793457
4.000000 3.800000 -6.000000 13.044962 -25.207207 805.574280
4.000000 3.800000 -5.960000 2.056335 -2.704376 11.542166
4.000000 3.800000 -5.920000 -15.449501 -6.465125 280.484924
4.000000 3.800000 -5.880000 -13.655163 -25.069218 814.929199
4.000000 3.800000 -5.840000 8.648516 -32.020035 1100.079468
4.000000 3.800000 -5.800000 29.169394 -15.142893 1080.160767
4.000000 3.840000 -6.200000 -81.028137 7.189796 6617.252441
4.000000 3.840000 -6.160000 -84.588264 -22.419094 7657.790039
4.000000 3.840000 -6.120000 -72.144135 -49.279129 7633.208984
4.000000 3.840000 -6.080000 -50.496376 -64.512321 6711.723633
4.000000 3.840000 -6.040000 -29.508556 -68.261009 5530.320312
4.000000 3.840000 -6.000000 -13.053719 -67.082710 4670.489258
4.000000 3.840000 -5.960000 2.415039 -64.870010 4213.950684
4.000000 3.840000 -5.920000 20.105118 -58.088547 3778.495117
4.000000 3.840000 -5.880000 35.516594 -41.425198 2977.475586
4.000000 3.840000 -5.840000 39.122765 -17.328823 1830.878784
4.000000 3.840000 -5.800000 27.177282 2.516185 744.935852
4.000000 3.880000 -6.200000 -51.566765 -43.299599 4533.986328
4.000000 3.880000 -6.160000 -49.169212 -46.712482 4599.666992
4.000000 3.880000 -6.120000 -55.352028 -57.698067 6392.914062
4.000000 3.880000 -6.080000 -55.588402 -84.974945 10310.811523
4.000000 3.880000 -6.040000 -31.979652 -118.591309 15086.596680
4.000000 3.880000 -6.000000 17.576546 -134.267776 18336.771484
4.000000 3.880000 -5.960000 72.219696 -113.455444 18087.822266
4.000000 3.880000 -5.920000 101.882233 -61.572067 14171.108398
4.000000 3.880000 -5.880000 91.300804 -6.682655 8380.495117
4.000000 3.880000 -5.840000 52.870785 21.704140 3266.389404
4.000000 3.880000 -5.800000 16.319870 15.470988 505.689636
4.000000 3.920000 -6.200000 2.285700 -52.874378 2800.924316
4.000000 3.920000 -6.160000 -16.222221 -40.015499 1864.400635
4.000000 3.920000 -6.120000 -45.136963 -64.236351 6163.654297
4.000000 3.920000 -6.080000 -40.844681 -122.486336 16671.189453
4.000000 3.920000 -6.040000 19.996811 -171.128296 29684.767578
4.000000 3.920000 -6.000000 111.831711 -161.627945 38629.921875
4.000000 3.920000 -5.960000 176.252548 -86.053635 38470.187500
4.000000 3.920000 -5.920000 170.747284 11.684753 29291.167969
4.000000 3.920000 -5.880000 105.167282 71.358780 16152.232422
4.000000 3.920000 -5.840000 31.739887 66.171776 5386.124512
4.000000 3.920000 -5.800000 -0.995317 20.935976 439.305756
4.000000 3.960000 -6.200000 39.760689 -20.995800 2021.735962
4.000000 3.960000 -6.160000 -4.714985 -19.737526 411.800995
4.000000 3.960000 -6.120000 -32.318909 -75.424652 6733.389648
4.000000 3.960000 -6.080000 8.320292 -150.081665 22593.732422
4.000000 3.960000 -6.040000 112.587448 -172.501312 42432.636719
4.000000 3.960000 -6.000000 213.465195 -103.225838 56222.964844
4.000000 3.960000 -5.960000 236.014954 23.954453 56276.875000
4.000000 3.960000 -5.920000 163.406647 126.759308 42769.656250
4.000000 3.960000 -5.880000 51.508301 144.128418 23426.105469
4.000000 3.960000 -5.840000 -21.539146 85.319427 7743.339844
4.000000 3.960000 -5.800000 -21.607763 14.018248 663.406738
4.000000 4.000000 -6.200000 38.542934 21.674969 1955.362061
4.000000 4.000000 -6.160000 -11.112112 -7.392797 178.132492
4.000000 4.000000 -6.120000 -8.517067 -83.247742 7002.727051
4.000000 4.000000 -6.080000 73.851425 -137.501556 24360.710938
4.000000 4.000000 -6.040000 188.952774 -102.903618 46292.304688
4.000000 4.000000 -6.000000 247.821228 19.537689 61797.082031
4.000000 4.000000 -5.960000 197.434967 152.782410 62323.031250
4.000000 4.000000 -5.920000 69.966827 207.394806 47907.960938
4.000000 4.000000 -5.880000 -44.961372 157.693359 26888.720703
4.000000 4.000000 -5.840000 -78.341911 58.641403 9576.269531
4.000000 4.000000 -5.800000 -35.542793 -9.360132 1350.902222
4.000000 4.040000 -6.200000 9.899662 42.898514 1938.285767
4.000000 4.040000 -6.160000 -18.749485 -9.575779 443.238708
4.000000 4.040000 -6.120000 20.721134 -75.253654 6092.477539
4.000000 4.040000 -6.080000 117.363586 -82.861252 20640.197266
4.000000 4.040000 -6.040000 198.042175 1.069029 39221.847656
4.000000 4.040000 -6.000000 187.981110 131.622955 52661.500000
4.000000 4.040000 -5.960000 80.435242 217.351013 53711.292969
4.000000 4.040000 -5.920000 -53.081856 198.482513 42212.992188
4.000000 4.040000 -5.880000 -123.952141 97.654617 24900.556641
4.000000 4.040000 -5.840000 -100.891190 -4.471041 10199.022461
4.000000 4.040000 -5.800000 -27.945534 -42.467758 2584.463379
4.000000 4.080000 -6.200000 -17.337982 35.241776 1542.588379
4.000000 4.080000 -6.160000 -16.585190 -16.861876 559.391357
4.000000 4.080000 -6.120000 39.811256 -50.419907 4127.103027
4.000000 4.080000 -6.080000 114.589584 -17.391899 13433.250977
4.000000 4.080000 -6.040000 139.693695 76.958115 25436.878906
4.000000 4.080000 -6.000000 77.885338 168.169891 34347.238281
4.000000 4.080000 -5.960000 -37.857613 184.794586 35582.238281
4.000000 4.080000 -5.920000 -128.551575 111.579941 28975.589844
4.000000 4.080000 -5.880000 -136.277008 2.833874 18579.455078
4.000000 4.080000 -5.840000 -70.716034 -66.566483 9431.853516
4.000000 4.080000 -5.800000 7.134083 -64.284859 4183.437988
4.000000 4.120000 -6.200000 -24.892817 15.953081 874.153137
4.000000 4.120000 -6.160000 -7.804147 -17.833857 378.951141
4.000000 4.120000 -6.120000 39.097458 -22.275936 2024.828491
4.000000 4.120000 -6.080000 76.597504 22.142290 6357.458984
4.000000 4.120000 -6.040000 61.746670 90.125580 11935.271484
4.000000 4.120000 -6.000000 -8.950935 126.721405 16138.433594
4.000000 4.120000 -5.960000 -89.415985 95.108162 17040.781250
4.000000 4.120000 -5.920000 -120.800354 11.884811 14733.974609
4.000000 4.120000 -5.880000 -81.889557 -65.498726 10995.982422
4.000000 4.120000 -5.840000 -5.353060 -87.805511 7738.462891
4.000000 4.120000 -5.800000 54.116394 -52.691586 5704.987305
4.000000 4.160000 -6.200000 -17.532879 5.086482 333.274170
4.000000 4.160000 -6.160000 -2.332573 -11.277298 132.618347
4.000000 4.160000 -6.120000 24.570955 -6.070792 640.586365
4.000000 4.160000 -6.080000 36.809544 24.865156 1973.218506
4.000000 4.160000 -6.040000 14.345341 57.943275 3563.211914
4.000000 4.160000 -6.000000 -32.647324 59.747349 4635.593262
4.000000 4.160000 -5.960000 -67.487183 19.103477 4919.462891
4.000000 4.160000 -5.920000 -58.071491 -38.692219 4869.385742
4.000000 4.160000 -5.880000 -6.311378 -71.504013 5152.657227
4.000000 4.160000 -5.840000 52.817020 -56.043034 5930.458984
4.000000 4.160000 -5.800000 81.467545 -5.850269 6671.186523
4.000000 4.200000 -6.200000 -11.440820 6.469583 172.747849
4.000000 4.200000 -6.160000 -4.385684 -4.871812 42.968773
4.000000 4.200000 -6.120000 10.962425 -4.690434 142.174927
4.000000 4.200000 -6.080000 18.899803 9.810398 453.446472
4.000000 4.200000 -6.040000 8.631012 24.307343 665.341309
4.000000 4.200000 -6.000000 -11.433169 20.505527 551.194031
4.000000 4.200000 -5.960000 -18.917076 -3.606422 370.862061
4.000000 4.200000 -5.920000 0.979980 -28.151577 793.471680
4.000000 4.200000 -5.880000 39.045731 -27.968420 2306.801758
4.000000 4.200000 -5.840000 68.049812 4.074664 4647.379883
4.000000 4.200000 -5.800000 65.894936 49.938416 6835.988281
4.040000 3.800000 -6.200000 -79.444946 18.457798 6652.189941
4.040000 3.800000 -6.160000 -86.132751 -29.652716 8298.134766
4.040000 3.800000 -6.120000 -54.903641 -72.657516 8293.524414
4.040000 3.800000 -6.080000 -2.658557 -81.318504 6619.767090
4.040000 3.800000 -6.040000 36.035378 -52.727940 4078.784180
4.040000 3.800000 -6.000000 39.667595 -13.324816 1751.068848
4.040000 3.800000 -5.960000 18.028214 6.195594 363.401855
4.040000 3.800000 -5.920000 -0.171253 -1.199306 1.467664
4.040000 3.800000 -5.880000 3.292377 -15.992809 266.609680
4.040000 3.800000 -5.840000 20.182003 -15.460548 646.341797
4.040000 3.800000 -5.800000 28.304890 2.544549 807.641541
4.040000 3.840000 -6.200000 -66.746834 -36.255112 5769.572754
4.040000 3.840000 -6.160000 -53.149498 -64.687233 7009.307129
4.040000 3.840000 -6.120000 -24.912083 -81.892876 7327.054688
4.040000 3.840000 -6.080000 6.661909 -80.994164 6604.435547
4.040000 3.840000 -6.040000 29.578331 -66.067192 5239.751953
4.040000 3.840000 -6.000000 40.113983 -47.413681 3857.188721
4.040000 3.840000 -5.960000 42.965778 -31.933578 2865.811523
4.040000 3.840000 -5.920000 43.455395 -19.039963 2250.891602
4.040000 3.840000 -5.880000 41.264561 -5.681656 1735.045166
4.040000 3.840000 -5.840000 32.882446 6.544152 1124.081177
4.040000 3.840000 -5.800000 19.112480 11.502253 497.588715
4.040000 3.880000 -6.200000 -18.340797 -61.469101 4114.835449
4.040000 3.880000 -6.160000 -11.359644 -65.424377 4409.390625
4.040000 3.880000 -6.120000 -4.522596 -76.293076 5841.087402
4.040000 3.880000 -6.080000 14.032661 -91.477905 8565.123047
4.040000 3.880000 -6.040000 48.594803 -96.413147 11656.950195
4.040000 3.880000 -6.000000 87.326065 -76.794655 13523.260742
4.040000 3.880000 -5.960000 108.587189 -33.579781 12918.779297
4.040000 3.880000 -5.920000 98.247620 13.850945 9844.443359
4.040000 3.880000 -5.880000 62.736538 41.006203 5617.381836
4.040000 3.880000 -5.840000 25.351809 37.352333 2037.910889
4.040000 3.880000 -5.800000 8.195719 14.266281 270.696594
4.040000 3.920000 -6.200000 28.518463 -42.454937 2615.724365
4.040000 3.920000 -6.160000 11.859051 -42.087784 1912.018677
4.040000 3.920000 -6.120000 5.914664 -71.454071 5140.667480
4.040000 3.920000 -6.080000 38.801056 -107.128479 12982.033203
4.040000 3.920000 -6.040000 104.627853 -107.972504 22605.048828
4.040000 3.920000 -6.000000 161.671936 -54.026909 29056.720703
4.040000 3.920000 -5.960000 166.343231 30.329994 28589.978516
4.040000 3.920000 -5.920000 112.439537 93.445435 21374.699219
4.040000 3.920000 -5.880000 37.997040 99.568115 11357.584961
4.040000 3.920000 -5.840000 -7.331167 57.993336 3416.973145
4.040000 3.920000 -5.800000 -3.660631 11.618488 148.389496
4.040000 3.960000 -6.200000 42.345215 0.143538 1793.137817
4.040000 3.960000 -6.160000 10.733816 -19.215691 484.457581
4.040000 3.960000 -6.120000 18.170334 -71.144684 5391.727051
4.040000 3.960000 -6.080000 83.305283 -103.723129 17698.257812
4.040000 3.960000 -6.040000 168.317261 -68.117279 32970.664062
4.040000 3.960000 -6.000000 205.857849 31.186638 43350.058594
4.040000 3.960000 -5.960000 158.872986 132.981781 42924.781250
4.040000 3.960000 -5.920000 56.290394 169.899170 32034.335938
4.040000 3.960000 -5.880000 -31.091829 126.276085 16912.351562
4.040000 3.960000 -5.840000 -51.919830 48.605137 5058.127930
4.040000 3.960000 -5.800000 -14.634157 0.359167 214.287552
4.040000 4.000000 -6.200000 22.158695 32.183182 1526.765015
4.040000 4.000000 -6.160000 -0.096088 -11.522099 132.767990
4.040000 4.000000 -6.120000 37.545059 -65.026672 5638.099609
4.040000 4.000000 -6.080000 123.369263 -65.160225 19465.830078
4.040000 4.000000 -6.040000 190.982361 15.438131 36712.597656
4.040000 4.000000 -6.000000 175.224747 133.671814 48571.867188
4.040000 4.000000 -5.960000 73.903381 207.194641 48391.332031
4.040000 4.000000 -5.920000 -45.910877 185.475342 36508.910156
4.040000 4.000000 -5.880000 -105.377533 93.336609 19816.148438
4.040000 4.000000 -5.840000 -80.630417 5.592930 6532.544922
4.040000 4.000000 -5.800000 -16.027206 -20.877127 692.725769
4.040000 4.040000 -6.200000 -7.861027 36.195560 1371.914429
4.040000 4.040000 -6.160000 -4.895981 -14.477350 233.564301
4.040000 4.040000 -6.120000 54.102299 -44.278206 4887.618164
4.040000 4.040000 -6.080000 128.976166 -4.994308 16659.794922
4.040000 4.040000 -6.040000 149.768005 95.126175 31479.445312
4.040000 4.040000 -6.000000 80.992126 187.953995 41886.429688
4.040000 4.040000 -5.960000 -39.936787 201.493042 42194.390625
4.040000 4.040000 -5.920000 -131.031250 124.173973 32588.363281
4.040000 4.040000 -5.880000 -136.018402 15.060478 18727.824219
4.040000 4.040000 -5.840000 -69.848930 -49.808125 7359.722656
4.040000 4.040000 -5.800000 2.313755 -42.228516 1788.601074
4.040000 4.080000 -6.200000 -24.417740 21.217375 1046.403076
4.040000 4.080000 -6.160000 -1.947866 -15.610197 247.472443
4.040000 4.080000 -6.120000 53.659920 -15.473198 3118.806885
4.040000 4.080000 -6.080000 94.239799 42.084045 10652.207031
4.040000 4.080000 -6.040000 70.613663 123.835175 20321.439453
4.040000 4.080000 -6.000000 -17.320580 164.486176 27355.703125
4.040000 4.080000 -5.960000 -112.656586 124.096756 28091.511719
4.040000 4.080000 -5.920000 -147.933685 26.457119 22584.353516
4.040000 4.080000 -5.880000 -103.252090 -60.275864 14294.173828
4.040000 4.080000 -5.840000 -20.544342 -82.737930 7267.634766
4.040000 4.080000 -5.800000 37.892372 -44.352592 3402.984375
4.040000 4.120000 -6.200000 -24.207977 7.013186 635.210938
4.040000 4.120000 -6.160000 -0.241776 -10.639589 113.259315
4.040000 4.120000 -6.120000 35.020275 4.009882 1242.498779
4.040000 4.120000 -6.080000 44.559788 51.359188 4623.340820
4.040000 4.120000 -6.040000 5.310886 95.460236 9140.861328
4.040000 4.120000 -6.000000 -63.392357 92.610191 12595.238281
4.040000 4.120000 -5.960000 -110.667458 33.266472 13353.944336
4.040000 4.120000 -5.920000 -97.603699 -44.821758 11535.472656
4.040000 4.120000 -5.880000 -32.226143 -87.461227 8687.990234
4.040000 4.120000 -5.840000 38.199768 -70.085205 6371.158203
4.040000 4.120000 -5.800000 69.335701 -15.097433 5035.372070
4.040000 4.160000 -6.200000 -19.678801 2.739034 394.757507
4.040000 4.160000 -6.160000 -5.276899 -6.431917 69.215225
4.040000 4.160000 -6.120000 13.097372 3.815784 186.101364
4.040000 4.160000 -6.080000 13.035534 29.605438 1046.407104
4.040000 4.160000 -6.040000 -14.172554 45.957108 2312.916992
4.040000 4.160000 -6.000000 -49.205635 29.733109 3305.252441
4.040000 4.160000 -5.960000 -58.858250 -14.763702 3682.260254
4.040000 4.160000 -5.920000 -27.042751 -55.155319 3773.419434
4.040000 4.160000 -5.880000 28.084297 -58.317265 4189.630859
4.040000 4.160000 -5.840000 68.763779 -19.651625 5114.643555
4.040000 4.160000 -5.800000 69.898964 34.044769 6044.911621
4.040000 4.200000 -6.200000 -20.769325 1.947577 435.157928
4.040000 4.200000 -6.160000 -11.828335 -10.070920 241.332932
4.040000 4.200000 -6.120000 4.133200 -8.744179 93.544006
4.040000 4.200000 -6.080000 10.807165 5.326096 145.162109
4.040000 4.200000 -6.040000 1.303387 16.216305 264.667358
4.040000 4.200000 -6.000000 -12.248204 9.739269 244.871872
4.040000 4.200000 -5.960000 -10.035545 -9.443714 189.895905
4.040000 4.200000 -5.920000 14.031796 -19.886177 592.351318
4.040000 4.200000 -5.880000 43.505287 -3.867708 1907.669067
4.040000 4.200000 -5.840000 53.139893 34.375702 4005.537109
4.040000 4.200000 -5.800000 31.669510 71.268013 6082.087891
4.080000 3.800000 -6.200000 -61.349083 -18.523647 4106.835449
4.080000 3.800000 -6.160000 -45.358795 -57.466545 5359.824219
4.080000 3.800000 -6.120000 -2.135996 -76.962700 5927.819824
4.080000 3.800000 -6.080000 43.929558 -60.447723 5583.733398
4.080000 3.800000 -6.040000 63.882271 -18.392714 4419.236328
4.080000 3.800000 -6.000000 49.317223 19.674364 2819.269043
4.080000 3.800000 -5.960000 18.705318 30.997610 1310.740723
4.080000 3.800000 -5.920000 -1.157669 18.083858 328.366150
4.080000 3.800000 -5.880000 0.369473 2.369465 5.750874
4.080000 3.800000 -5.840000 11.485745 1.067739 133.062408
4.080000 3.800000 -5.800000 14.140739 11.573437 333.904968
4.080000 3.840000 -6.200000 -31.470892 -52.012573 3695.724854
4.080000 3.840000 -6.160000 -7.741566 -69.088593 4833.165039
4.080000 3.840000 -6.120000 25.111609 -69.696648 5488.215332
4.080000 3.840000 -6.080000 52.841537 -50.483727 5340.834961
4.080000 3.840000 -6.040000 63.228703 -20.521374 4418.995605
4.080000 3.840000 -6.000000 55.340904 5.512941 3093.008301
4.080000 3.840000 -5.960000 38.754017 18.542492 1845.697754
4.080000 3.840000 -5.920000 24.261765 20.002762 988.743713
4.080000 3.840000 -5.880000 15.840582 16.919161 537.182007
4.080000 3.840000 -5.840000 11.136904 13.797084 314.390137
4.080000 3.840000 -5.800000 7.835619 10.179790 165.025070
4.080000 3.880000 -6.200000 11.703230 -50.910294 2728.823486
4.080000 3.880000 -6.160000 22.340500 -52.462845 3251.447998
4.080000 3.880000 -6.120000 37.584557 -53.954437 4323.680176
4.080000 3.880000 -6.080000 59.022430 -48.122147 5799.388184
4.080000 3.880000 -6.040000 79.471062 -28.006001 7099.985352
4.080000 3.880000 -6.000000 86.503792 4.482040 7502.994629
4.080000 3.880000 -5.960000 72.521469 36.665634 6603.731934
4.080000 3.880000 -5.920000 42.682480 52.982719 4628.962402
4.080000 3.880000 -5.880000 12.973000 46.786842 2357.307373
4.080000 3.880000 -5.840000 -0.939434 25.994438 676.593323
4.080000 3.880000 -5.800000 4.859992 7.353872 77.698959
4.080000 3.920000 -6.200000 36.686592 -20.368851 1760.796143
4.080000 3.920000 -6.160000 29.742012 -26.406639 1581.897949
4.080000 3.920000 -6.120000 41.078251 -43.347015 3566.386475
4.080000 3.920000 -6.080000 75.736420 -46.387600 7887.814453
4.080000 3.920000 -6.040000 112.419022 -15.756321 12886.297852
4.080000 3.920000 -6.000000 119.329971 40.873100 15910.251953
4.080000 3.920000 -5.960000 83.350128 90.339508 15108.470703
4.080000 3.920000 -5.920000 24.586353 100.966187 10798.660156
4.080000 3.920000 -5.880000 -19.000025 70.176941 5285.804199
4.080000 3.920000 -5.840000 -23.470390 26.555820 1256.070801
4.080000 3.920000 -5.800000 2.209623 4.416518 24.388067
4.080000 3.960000 -6.200000 31.016911 13.302732 1139.011475
4.080000 3.960000 -6.160000 20.957798 -9.995315 539.135620
4.080000 3.960000 -6.120000 47.045681 -36.597229 3552.653320
4.080000 3.960000 -6.080000 99.324409 -27.946503 10646.344727
4.080000 3.960000 -6.040000 135.021439 29.712233 19113.605469
4.080000 3.960000 -6.000000 115.361305 105.662514 24472.796875
4.080000 3.960000 -5.960000 43.628113 147.190765 23568.533203
4.080000 3.960000 -5.920000 -33.834099 125.568207 16912.121094
4.080000 3.960000 -5.880000 -66.874794 61.845642 8297.122070
4.080000 3.960000 -5.840000 -44.323906 7.329052 2018.323608
4.080000 3.960000 -5.800000 -0.057312 -2.260733 5.114197
4.080000 4.000000 -6.200000 7.551792 28.135620 848.642639
4.080000 4.000000 -6.160000 11.476950 -6.227572 170.503021
4.080000 4.000000 -6.120000 55.673111 -23.256367 3640.354004
4.080000 4.000000 -6.080000 108.432732 11.627887 11892.865234
4.080000 4.000000 -6.040000 117.576126 89.397179 21816.000000
4.080000 4.000000 -6.000000 59.342285 157.034500 28181.339844
4.080000 4.000000 -5.960000 -34.428616 161.644531 27314.285156
4.080000 4.000000 -5.920000 -100.504448 98.592651 19821.656250
4.080000 4.000000 -5.880000 -98.928116 16.466734 10057.925781
4.080000 4.000000 -5.840000 -46.109741 -26.662735 2837.009521
4.080000 4.000000 -5.800000 4.635849 -13.330700 199.198669
4.080000 4.040000 -6.200000 -12.575726 23.026215 688.355408
4.080000 4.040000 -6.160000 7.968781 -5.628174 95.177811
4.080000 4.040000 -6.120000 55.150539 -0.891382 3042.376709
4.080000 4.040000 -6.080000 86.118408 52.816963 10206.011719
4.080000 4.040000 -6.040000 59.605232 124.066315 18945.234375
4.080000 4.040000 -6.000000 -21.066940 155.718262 24691.994141
4.080000 4.040000 -5.960000 -103.811829 115.914948 24213.171875
4.080000 4.040000 -5.920000 -130.886749 29.545635 18004.287109
4.080000 4.040000 -5.880000 -89.356941 -42.249454 9769.679688
4.080000 4.040000 -5.840000 -20.226234 -55.758377 3518.097168
4.080000 4.040000 -5.800000 21.681501 -19.805191 862.333130
4.080000 4.080000 -6.200000 -20.066490 11.640469 538.164551
4.080000 4.080000 -6.160000 4.860604 -1.833803 26.988308
4.080000 4.080000 -6.120000 37.509720 18.014439 1731.499146
4.080000 4.080000 -6.080000 40.784523 67.961327 6282.119141
4.080000 4.080000 -6.040000 -4.984745 109.731819 12065.919922
4.080000 4.080000 -6.000000 -76.291161 101.317062 16085.488281
4.080000 4.080000 -5.960000 -121.373619 37.918083 16169.336914
4.080000 4.080000 -5.920000 -105.110077 -39.250191 12588.705078
4.080000 4.080000 -5.880000 -40.864655 -77.499222 7676.049316
4.080000 4.080000 -5.840000 22.301697 -58.086979 3871.462891
4.080000 4.080000 -5.800000 44.227844 -8.716145 2032.073364
4.080000 4.120000 -6.200000 -20.755135 4.498697 451.013885
4.080000 4.120000 -6.160000 -3.811883 0.503160 14.783622
4.080000 4.120000 -6.120000 11.468889 18.449244 471.909973
4.080000 4.120000 -6.080000 1.695915 48.383575 2343.846680
4.080000 4.120000 -6.040000 -36.805595 60.534828 5019.117188
4.080000 4.120000 -6.000000 -77.409798 33.274342 7099.458496
4.080000 4.120000 -5.960000 -83.918991 -22.041927 7528.243652
4.080000 4.120000 -5.920000 -44.463303 -66.748688 6432.372559
4.080000 4.120000 -5.880000 15.507627 -68.045975 4870.741211
4.080000 4.120000 -5.840000 55.120247 -27.684515 3804.674072
4.080000 4.120000 -5.800000 53.515373 21.888044 3342.981689
4.080000 4.160000 -6.200000 -22.831034 -0.126482 521.272095
4.080000 4.160000 -6.160000 -13.779392 -6.325211 229.879929
4.080000 4.160000 -6.120000 -3.897949 0.438773 15.386530
4.080000 4.160000 -6.080000 -7.723108 13.730209 248.165039
4.080000 4.160000 -6.040000 -25.538862 15.343552 887.658020
4.080000 4.160000 -6.000000 -38.932301 -4.595074 1536.838745
4.080000 4.160000 -5.960000 -27.847788 -33.538719 1900.344971
4.080000 4.160000 -5.920000 7.638477 -45.369125 2116.703857
4.080000 4.160000 -5.880000 44.238426 -24.732950 2568.757080
4.080000 4.160000 -5.840000 55.411613 17.724861 3384.617676
4.080000 4.160000 -5.800000 34.546867 54.840420 4200.958008
4.080000 4.200000 -6.200000 -25.263380 -8.923956 717.875305
4.080000 4.200000 -6.160000 -14.429694 -20.660734 635.082031
4.080000 4.200000 -6.120000 1.571865 -19.006405 363.714203
4.080000 4.200000 -6.080000 8.852233 -6.996309 127.310379
4.080000 4.200000 -6.040000 4.323070 1.829758 22.036943
4.080000 4.200000 -6.000000 -0.931694 -0.703079 1.362374
4.080000 4.200000 -5.960000 5.366470 -7.356498 82.917068
4.080000 4.200000 -5.920000 21.657871 -2.802679 476.918396
4.080000 4.200000 -5.880000 32.251587 19.335264 1414.017334
4.080000 4.200000 -5.840000 22.457985 48.130871 2820.941895
4.080000 4.200000 -5.800000 -6.844570 64.611908 4221.546875
4.120000 3.800000 -6.200000 -30.499620 -26.833244 1650.249878
4.120000 3.800000 -6.160000 -6.959915 -47.063877 2263.448975
4.120000 3.800000 -6.120000 29.876596 -45.484627 2961.462402
4.120000 3.800000 -6.080000 57.722275 -16.372639 3599.924316
4.120000 3.800000 -6.040000 57.162571 24.575699 3871.524414
4.120000 3.800000 -6.000000 29.109823 51.564098 3506.238037
4.120000 3.800000 -5.960000 -5.436080 50.073021 2536.858398
4.120000 3.800000 -5.920000 -23.687599 28.111389 1351.352539
4.120000 3.800000 -5.880000 -19.850616 6.822581 440.594574
4.120000 3.800000 -5.840000 -6.715833 0.423818 45.282040
4.120000 3.800000 -5.800000 -0.119435 5.473252 29.970757
4.120000 3.840000 -6.200000 -4.547175 -39.352020 1569.258301
4.120000 3.840000 -6.160000 18.518250 -43.868267 2267.350342
4.120000 3.840000 -6.120000 44.311428 -31.150450 2933.853271
4.120000 3.840000 -6.080000 57.619259 -2.190503 3324.777344
4.120000 3.840000 -6.040000 48.904854 29.084068 3237.567871
4.120000 3.840000 -6.000000 23.260799 45.842148 2642.567383
4.120000 3.840000 -5.960000 -3.248104 41.560486 1737.824097
4.120000 3.840000 -5.920000 -16.520340 24.142788 855.795837
4.120000 3.840000 -5.880000 -14.381312 7.639102 265.178040
4.120000 3.840000 -5.840000 -4.995823 0.438910 25.150888
4.120000 3.840000 -5.800000 2.882162 1.119616 9.560398
4.120000 3.880000 -6.200000 20.381649 -28.450541 1224.844849
4.120000 3.880000 -6.160000 32.205029 -26.040348 1715.263550
4.120000 3.880000 -6.120000 46.032532 -16.037792 2376.204590
4.120000 3.880000 -6.080000 54.472961 3.683183 2980.869385
4.120000 3.880000 -6.040000 49.850845 27.624107 3248.197998
4.120000 3.880000 -6.000000 31.224352 44.978931 2998.064453
4.120000 3.880000 -5.960000 6.643728 47.153442 2267.586182
4.120000 3.880000 -5.920000 -11.692402 34.285748 1312.224731
4.120000 3.880000 -5.880000 -15.613308 15.382801 480.405945
4.120000 3.880000 -5.840000 -6.102951 2.158765 41.906277
4.120000 3.880000 -5.800000 8.163297 1.487898 68.853249
4.120000 3.920000 -6.200000 28.227020 -5.485580 826.856262
4.120000 3.920000 -6.160000 30.998100 -8.338662 1030.415527
4.120000 3.920000 -6.120000 43.489571 -7.210807 1943.338501
4.120000 3.920000 -6.080000 57.989708 8.173874 3429.618408
4.120000 3.920000 -6.040000 59.285141 36.569115 4852.028320
4.120000 3.920000 -6.000000 38.572418 62.666985 5414.982422
4.120000 3.920000 -5.960000 3.866871 68.464119 4702.288086
4.120000 3.920000 -5.920000 -24.151550 49.260849 3009.928711
4.120000 3.920000 -5.880000 -28.668100 19.269747 1193.183105
4.120000 3.920000 -5.840000 -11.021996 0.648228 121.904579
4.120000 3.920000 -5.800000 10.451182 5.204860 136.317780
4.120000 3.960000 -6.200000 19.246639 12.704864 531.846680
4.120000 3.960000 -6.160000 23.386166 1.512350 549.199951
4.120000 3.960000 -6.120000 43.361977 0.423636 1880.440430
4.120000 3.960000 -6.080000 63.040199 22.981611 4502.221191
4.120000 3.960000 -6.040000 59.109913 61.819824 7315.672363
4.120000 3.960000 -6.000000 23.785604 90.487373 8753.719727
4.120000 3.960000 -5.960000 -24.113115 85.490776 7890.115234
4.120000 3.960000 -5.920000 -52.889896 48.701752 5169.201660
4.120000 3.960000 -5.880000 -45.418674 7.643290 2121.275879
4.120000 3.960000 -5.840000 -14.410810 -8.160015 274.257324
4.120000 3.960000 -5.800000 9.552088 7.093100 141.554443
4.120000 4.000000 -6.200000 4.709143 18.765619 374.324493
4.120000 4.000000 -6.160000 16.416698 6.555672 312.484833
4.120000 4.000000 -6.120000 40.966156 13.309755 1855.375488
4.120000 4.000000 -6.080000 54.233887 46.490273 5102.660156
4.120000 4.000000 -6.040000 33.798000 87.029434 8716.427734
4.120000 4.000000 -6.000000 -16.528713 101.960869 10669.216797
4.120000 4.000000 -5.960000 -64.874893 74.339699 9735.142578
4.120000 4.000000 -5.920000 -77.503601 21.403734 6464.927734
4.120000 4.000000 -5.880000 -49.239563 -18.772020 2776.923340
4.120000 4.000000 -5.840000 -8.160310 -20.919567 504.218933
4.120000 4.000000 -5.800000 10.757439 5.765673 148.965469
4.120000 4.040000 -6.200000 -6.583996 16.722792 323.000763
4.120000 4.040000 -6.160000 8.576330 11.158088 198.056366
4.120000 4.040000 -6.120000 27.275803 26.759583 1460.044678
4.120000 4.040000 -6.080000 25.490789 60.770718 4342.860352
4.120000 4.040000 -6.040000 -8.959583 87.243591 7691.718262
4.120000 4.040000 -6.000000 -58.960484 78.316696 9609.843750
4.120000 4.040000 -5.960000 -88.660492 32.313435 8904.840820
4.120000 4.040000 -5.920000 -75.060295 -20.629372 6059.618652
4.120000 4.040000 -5.880000 -30.098074 -43.830742 2827.027832
4.120000 4.040000 -5.840000 9.816209 -26.762753 812.602905
4.120000 4.040000 -5.800000 17.317030 7.028939 349.285492
4.120000 4.080000 -6.200000 -14.445408 12.376040 361.836182
4.120000 4.080000 -6.160000 -3.955767 12.304666 167.052887
4.120000 4.080000 -6.120000 3.687156 27.430450 766.024719
4.120000 4.080000 -6.080000 -8.318523 49.318359 2501.498291
4.120000 4.080000 -6.040000 -41.094746 55.126919 4727.755371
4.120000 4.080000 -6.000000 -72.650978 29.651154 6157.355469
4.120000 4.080000 -5.960000 -75.192078 -15.838259 5904.699219
4.120000 4.080000 -5.920000 -41.985424 -49.791321 4241.951172
4.120000 4.080000 -5.880000 4.015141 -48.052120 2325.127686
4.120000 4.080000 -5.840000 30.190277 -15.989077 1167.103394
4.120000 4.080000 -5.800000 23.673992 17.600660 870.241089
4.120000 4.120000 -6.200000 -21.579697 5.667914 497.808563
4.120000 4.120000 -6.160000 -17.399122 3.188161 312.893829
4.120000 4.120000 -6.120000 -14.488329 9.074099 292.250946
4.120000 4.120000 -6.080000 -22.870689 16.623730 799.416809
4.120000 4.120000 -6.040000 -39.801338 11.400391 1714.115356
4.120000 4.120000 -6.000000 -48.316063 -11.625435 2469.592529
4.120000 4.120000 -5.960000 -33.397549 -38.366646 2587.395752
4.120000 4.120000 -5.920000 0.645353 -46.242149 2138.752930
4.120000 4.120000 -5.880000 31.184740 -25.768116 1636.483887
4.120000 4.120000 -5.840000 37.328583 9.389479 1481.585449
4.120000 4.120000 -5.800000 18.765547 35.057846 1581.198364
4.120000 4.160000 -6.200000 -25.746155 -6.314654 702.739380
4.120000 4.160000 -6.160000 -20.838787 -15.573350 676.784302
4.120000 4.160000 -6.120000 -12.054556 -16.930588 431.957123
4.120000 4.160000 -6.080000 -8.352376 -13.044439 239.919586
4.120000 4.160000 -6.040000 -9.867712 -12.978603 265.815887
4.120000 4.160000 -6.000000 -7.404287 -19.656597 441.205261
4.120000 4.160000 -5.960000 5.893478 -24.306721 625.549744
4.120000 4.160000 -5.920000 24.233614 -15.240056 819.527344
4.120000 4.160000 -5.880000 32.832085 8.459036 1149.501099
4.120000 4.160000 -5.840000 22.273172 33.924774 1646.984497
4.120000 4.160000 -5.800000 -2.015442 46.010773 2121.053223
4.120000 4.200000 -6.200000 -20.751057 -21.179428 879.174561
4.120000 4.200000 -6.160000 -8.004853 -31.973438 1086.378418
4.120000 4.200000 -6.120000 9.254801 -30.107271 992.099121
4.120000 4.200000 -6.080000 19.874624 -18.099434 722.590210
4.120000 4.200000 -6.040000 20.880985 -5.405718 465.237305
4.120000 4.200000 -6.000000 18.075075 2.395740 332.447906
4.120000 4.200000 -5.960000 17.159191 8.270267 362.835144
4.120000 4.200000 -5.920000 16.377413 17.836021 586.343262
4.120000 4.200000 -5.880000 9.064123 30.698967 1024.584961
4.120000 4.200000 -5.840000 -7.654587 39.433643 1613.604858
4.120000 4.200000 -5.800000 -28.439106 36.985641 2176.720459
4.160000 3.800000 -6.200000 -12.618256 -13.056414 329.690308
4.160000 3.800000 -6.160000 4.010221 -19.533596 397.643250
4.160000 3.800000 -6.120000 25.892523 -10.083389 772.097473
4.160000 3.800000 -6.080000 36.378998 16.767834 1604.591797
4.160000 3.800000 -6.040000 23.024509 46.267555 2670.814941
4.160000 3.800000 -6.000000 -9.115552 57.792023 3423.011230
4.160000 3.800000 -5.960000 -39.484577 42.747604 3386.389648
4.160000 3.800000 -5.920000 -48.941654 12.629654 2554.793457
4.160000 3.800000 -5.880000 -35.692326 -11.267459 1400.897705
4.160000 3.800000 -5.840000 -14.850039 -16.526508 493.649170
4.160000 3.800000 -5.800000 -2.687289 -8.447919 78.588852
4.160000 3.840000 -6.200000 -0.388483 -19.092607 364.678558
4.160000 3.840000 -6.160000 15.257957 -17.435947 536.817505
4.160000 3.840000 -6.120000 29.288788 -1.162104 859.183533
4.160000 3.840000 -6.080000 27.805677 24.745892 1385.514893
4.160000 3.840000 -6.040000 6.439016 43.990524 1976.627197
4.160000 3.840000 -6.000000 -23.262690 42.270180 2327.920898
4.160000 3.840000 -5.960000 -42.247246 20.305363 2197.137695
4.160000 3.840000 -5.920000 -39.727657 -6.406106 1619.324951
4.160000 3.840000 -5.880000 -21.317627 -20.954159 893.518005
4.160000 3.840000 -5.840000 -2.221628 -18.475822 346.291656
4.160000 3.840000 -5.800000 6.865203 -7.167153 98.499100
4.160000 3.880000 -6.200000 11.716356 -15.030399 363.185913
4.160000 3.880000 -6.160000 21.908157 -9.257566 565.669861
4.160000 3.880000 -6.120000 27.233879 6.029649 778.040833
4.160000 3.880000 -6.080000 19.720762 23.939173 961.992432
4.160000 3.880000 -6.040000 0.457290 32.714485 1070.446655
4.160000 3.880000 -6.000000 -19.806740 25.656797 1050.578125
4.160000 3.880000 -5.960000 -28.834953 7.147869 882.546570
4.160000 3.880000 -5.920000 -22.376373 -10.755308 616.378723
4.160000 3.880000 -5.880000 -6.591778 -17.714151 357.242706
4.160000 3.880000 -5.840000 7.856215 -11.901701 203.370605
4.160000 3.880000 -5.800000 13.770796 0.908324 190.459869
4.160000 3.920000 -6.200000 18.025177 -4.882262 348.743500
4.160000 3.920000 -6.160000 23.290466 0.597036 542.802246
4.160000 3.920000 -6.120000 24.599573 10.995435 726.038574
4.160000 3.920000 -6.080000 18.314724 21.995892 819.248352
4.160000 3.920000 -6.040000 5.385880 27.360046 777.579834
4.160000 3.920000 -6.000000 -8.440715 23.213459 610.110352
4.160000 3.920000 -5.960000 -15.847046 11.191690 376.382812
4.160000 3.920000 -5.920000 -12.704981 -1.830549 164.767441
4.160000 3.920000 -5.880000 -1.290911 -7.659404 60.332916
4.160000 3.920000 -5.840000 10.438420 -2.144090 113.557739
4.160000 3.920000 -5.800000 13.641370 11.531674 319.066467
4.160000 3.960000 -6.200000 17.489201 6.683570 350.542236
4.160000 3.960000 -6.160000 20.142433 10.743420 521.138672
4.160000 3.960000 -6.120000 21.173210 17.656334 760.050964
4.160000 3.960000 -6.080000 17.664000 26.673260 1023.479614
4.160000 3.960000 -6.040000 7.434658 33.633678 1186.498535
4.160000 3.960000 -6.000000 -6.979170 32.582821 1110.349121
4.160000 3.960000 -5.960000 -17.643621 21.425694 770.357666
4.160000 3.960000 -5.920000 -16.864717 6.239739 323.353058
4.160000 3.960000 -5.880000 -5.115941 -1.759211 29.267675
4.160000 3.960000 -5.840000 7.122903 4.139439 67.870697
4.160000 3.960000 -5.800000 7.408967 18.681631 403.896118
4.160000 4.000000 -6.200000 10.622719 16.620365 389.078705
4.160000 4.000000 -6.160000 10.956221 19.874386 515.029968
4.160000 4.000000 -6.120000 11.344233 25.193943 763.426392
4.160000 4.000000 -6.080000 7.640486 33.686028 1193.125488
4.160000 4.000000 -6.040000 -4.191114 40.117081 1626.945557
4.160000 4.000000 -6.000000 -20.639185 36.186630 1735.448120
4.160000 4.000000 -5.960000 -30.585875 20.132572 1340.816162
4.160000 4.000000 -5.920000 -25.272274 1.797842 641.920044
4.160000 4.000000 -5.880000 -8.698855 -4.674466 97.520714
4.160000 4.000000 -5.840000 3.929991 5.144181 41.907421
4.160000 4.000000 -5.800000 0.296052 19.981342 399.341675
4.160000 4.040000 -6.200000 -1.906624 21.679750 473.646790
4.160000 4.040000 -6.160000 -5.051476 22.767717 543.886353
4.160000 4.040000 -6.120000 -6.420181 24.912712 661.862000
4.160000 4.040000 -6.080000 -11.069708 29.696907 1004.444763
4.160000 4.040000 -6.040000 -22.484318 30.967285 1464.517334
4.160000 4.040000 -6.000000 -34.869667 21.305965 1669.837891
4.160000 4.040000 -5.960000 -36.671154 2.772494 1352.460327
4.160000 4.040000 -5.920000 -23.122742 -11.687236 671.252686
4.160000 4.040000 -5.880000 -3.873290 -10.100949 117.031548
4.160000 4.040000 -5.840000 4.788017 5.242599 50.409954
4.160000 4.040000 -5.800000 -3.591548 18.520006 355.889832
4.160000 4.080000 -6.200000 -16.875448 17.693119 597.827209
4.160000 4.080000 -6.160000 -22.157061 13.079047 661.996826
4.160000 4.080000 -6.120000 -22.515539 9.246534 592.447876
4.160000 4.080000 -6.080000 -23.512753 8.468450 624.564209
4.160000 4.080000 -6.040000 -28.005323 5.544198 815.036316
4.160000 4.080000 -6.000000 -30.486052 -4.111675 946.305237
4.160000 4.080000 -5.960000 -23.106432 -15.919109 787.325256
4.160000 4.080000 -5.920000 -6.701460 -18.832180 399.560577
4.160000 4.080000 -5.880000 7.119825 -7.553922 107.753647
4.160000 4.080000 -5.840000 7.023688 9.794340 145.261292
4.160000 4.080000 -5.800000 -5.475164 18.726103 380.644348
4.160000 4.120000 -6.200000 -26.828554 3.326116 730.834351
4.160000 4.120000 -6.160000 -28.855064 -8.344231 902.240906
4.160000 4.120000 -6.120000 -22.479782 -16.603065 781.002380
4.160000 4.120000 -6.080000 -14.761962 -18.300493 552.823608
4.160000 4.120000 -6.040000 -9.856087 -17.540657 404.817108
4.160000 4.120000 -6.000000 -5.152173 -17.891603 346.654358
4.160000 4.120000 -5.960000 2.885900 -16.602476 283.970642
4.160000 4.120000 -5.920000 11.507315 -8.410957 203.162491
4.160000 4.120000 -5.880000 13.024683 6.028248 205.982147
4.160000 4.120000 -5.840000 3.852216 18.315388 350.292999
4.160000 4.120000 -5.800000 -9.990944 20.541225 521.760925
4.160000 4.160000 -6.200000 -24.065426 -15.496262 819.278809
4.160000 4.160000 -6.160000 -17.481897 -29.701580 1187.800537
4.160000 4.160000 -6.120000 -2.045146 -35.197380 1243.038208
4.160000 4.160000 -6.080000 12.696199 -29.568596 1035.495361
4.160000 4.160000 -6.040000 20.616611 -17.983456 748.449341
4.160000 4.160000 -6.000000 22.146152 -6.128009 528.004578
4.160000 4.160000 -5.960000 19.984936 4.428981 419.013519
4.160000 4.160000 -5.920000 14.513449 14.182212 411.775330
4.160000 4.160000 -5.880000 4.679943 21.567963 487.078857
4.160000 4.160000 -5.840000 -7.955485 23.257544 604.203064
4.160000 4.160000 -5.800000 -18.689121 18.564394 693.919983
4.160000 4.200000 -6.200000 -8.123039 -27.285412 810.477478
4.160000 4.200000 -6.160000 6.396101 -35.998425 1336.796753
4.160000 4.200000 -6.120000 25.503527 -31.877708 1666.618164
4.160000 4.200000 -6.080000 38.444847 -15.546086 1719.687012
4.160000 4.200000 -6.040000 39.205841 5.201786 1564.156616
4.160000 4.200000 -6.000000 29.077682 21.991480 1329.136719
4.160000 4.200000 -5.960000 13.440250 30.559875 1114.546387
4.160000 4.200000 -5.920000 -2.397487 30.888050 959.819580
4.160000 4.200000 -5.880000 -14.962164 25.178783 857.837463
4.160000 4.200000 -5.840000 -22.664948 16.518581 786.563354
4.160000 4.200000 -5.800000 -26.013866 8.050363 741.529602
4.200000 3.800000 -6.200000 -14.759289 1.810735 221.115372
4.200000 3.800000 -6.160000 -9.045673 -2.991989 90.776199
4.200000 3.800000 -6.120000 1.839108 2.082444 7.718894
4.200000 3.800000 -6.080000 4.463223 19.088860 384.304932
4.200000 3.800000 -6.040000 -10.902043 35.407154 1372.520996
4.200000 3.800000 -6.000000 -37.785965 34.070431 2588.573486
4.200000 3.800000 -5.960000 -56.740822 10.879484 3337.884033
4.200000 3.800000 -5.920000 -52.704453 -19.725962 3166.872803
4.200000 3.800000 -5.880000 -29.139473 -37.096359 2225.248779
4.200000 3.800000 -5.840000 -4.313547 -32.997459 1107.438965
4.200000 3.800000 -5.800000 6.474752 -17.425060 345.555145
4.200000 3.840000 -6.200000 -10.667787 -10.535430 224.796967
4.200000 3.840000 -6.160000 -1.833207 -10.557055 114.812050
4.200000 3.840000 -6.120000 4.417323 0.639754 19.922028
4.200000 3.840000 -6.080000 -2.968308 15.961378 263.576447
4.200000 3.840000 -6.040000 -23.392841 20.475756 966.481567
4.200000 3.840000 -6.000000 -42.551487 5.885790 1845.271606
4.200000 3.840000 -5.960000 -44.589321 -20.068874 2390.967285
4.200000 3.840000 -5.920000 -26.772861 -39.510418 2277.859375
4.200000 3.840000 -5.880000 -1.914948 -40.187668 1618.715698
4.200000 3.840000 -5.840000 13.766516 -25.414557 835.416626
4.200000 3.840000 -5.800000 14.754438 -8.743590 294.143829
4.200000 3.880000 -6.200000 2.420027 -16.467892 277.048004
4.200000 3.880000 -6.160000 9.616421 -9.902234 190.529785
4.200000 3.880000 -6.120000 7.557779 2.118380 61.607563
4.200000 3.880000 -6.080000 -5.487467 8.488934 102.174286
4.200000 3.880000 -6.040000 -20.336292 1.185929 414.971222
4.200000 3.880000 -6.000000 -24.523636 -16.446918 871.909790
4.200000 3.880000 -5.960000 -13.519119 -31.986752 1205.918823
4.200000 3.880000 -5.920000 5.395671 -34.607399 1226.785400
4.200000 3.880000 -5.880000 19.922306 -23.729313 959.978516
4.200000 3.880000 -5.840000 23.035412 -7.812243 591.661316
4.200000 3.880000 -5.800000 16.849730 4.229727 301.803986
4.200000 3.920000 -6.200000 17.228992 -10.046809 397.776581
4.200000 3.920000 -6.160000 17.603897 0.804543 310.544464
4.200000 3.920000 -6.120000 8.443460 7.475126 127.169525
4.200000 3.920000 -6.080000 -2.486325 3.590966 19.076847
4.200000 3.920000 -6.040000 -5.650913 -7.806292 92.871010
4.200000 3.920000 -6.000000 1.688011 -17.379051 304.880829
4.200000 3.920000 -5.960000 13.855034 -17.971354 514.931519
4.200000 3.920000 -5.920000 22.664289 -9.838480 610.465698
4.200000 3.920000 -5.880000 24.031679 1.495076 579.756836
4.200000 3.920000 -5.840000 19.081371 10.948885 483.976807
4.200000 3.920000 -5.800000 10.566492 16.631390 388.253876
4.200000 3.960000 -6.200000 23.055683 7.129866 582.399536
4.200000 3.960000 -6.160000 14.221989 16.428200 472.150696
4.200000 3.960000 -6.120000 2.773478 14.118932 207.036423
4.200000 3.960000 -6.080000 -0.533758 4.068015 16.833643
4.200000 3.960000 -6.040000 6.260951 -3.184624 49.341331
4.200000 3.960000 -6.000000 15.782461 -1.212249 250.555618
4.200000 3.960000 -5.960000 19.866295 7.285389 447.746582
4.200000 3.960000 -5.920000 17.049862 15.380594 527.260498
4.200000 3.960000 -5.880000 11.295914 19.687544 515.197083
4.200000 3.960000 -5.840000 5.355149 21.733521 501.023529
4.200000 3.960000 -5.800000 -2.102498 22.668579 518.284973
4.200000 4.000000 -6.200000 13.359728 24.718662 789.494629
4.200000 4.000000 -6.160000 -2.198199 25.980040 679.794556
4.200000 4.000000 -6.120000 -10.162663 14.769862 321.428528
4.200000 4.000000 -6.080000 -4.664064 3.929680 37.195877
4.200000 4.000000 -6.040000 6.562016 3.985614 58.945168
4.200000 4.000000 -6.000000 11.807551 13.373499 318.268738
4.200000 4.000000 -5.960000 7.466759 22.398798 557.458618
4.200000 4.000000 -5.920000 -0.589779 24.756937 613.253784
4.200000 4.000000 -5.880000 -6.059730 22.734135 553.561218
4.200000 4.000000 -5.840000 -9.512553 21.218269 540.703613
4.200000 4.000000 -5.800000 -15.117305 19.518015 609.485840
4.200000 4.040000 -6.200000 -7.708657 29.851274 950.521973
4.200000 4.040000 -6.160000 -23.240524 19.792009 931.845581
4.200000 4.040000 -6.120000 -23.085897 2.956299 541.698364
4.200000 4.040000 -6.080000 -10.108072 -4.776399 124.987106
4.200000 4.040000 -6.040000 1.804549 1.583819 5.764880
4.200000 4.040000 -6.000000 2.725862 13.482027 189.195389
4.200000 4.040000 -5.960000 -4.975389 19.985100 424.158691
4.200000 4.040000 -5.920000 -12.536890 18.831497 511.798889
4.200000 4.040000 -5.880000 -15.880376 15.446669 490.785919
4.200000 4.040000 -5.840000 -18.164547 13.454851 510.983795
4.200000 4.040000 -5.800000 -22.177692 9.862032 589.109741
4.200000 4.080000 -6.200000 -26.544804 17.235151 1001.677002
4.200000 4.080000 -6.160000 -34.490719 -1.777114 1192.767822
4.200000 4.080000 -6.120000 -24.083576 -18.768934 932.291504
4.200000 4.080000 -6.080000 -5.579203 -20.599617 455.471710
4.200000 4.080000 -6.040000 5.998490 -8.731517 112.221275
4.200000 4.080000 -6.000000 4.745641 5.162949 49.177151
4.200000 4.080000 -5.960000 -3.789470 11.937919 156.873978
4.200000 4.080000 -5.920000 -11.570847 11.651995 269.653473
4.200000 4.080000 -5.880000 -16.194931 8.967241 342.687195
4.200000 4.080000 -5.840000 -19.545929 5.614697 413.568176
4.200000 4.080000 -5.800000 -21.388401 0.041494 457.465393
4.200000 4.120000 -6.200000 -29.847210 -5.402207 920.039795
4.200000 4.120000 -6.160000 -26.315552 -26.226721 1380.349121
4.200000 4.120000 -6.120000 -7.179678 -37.266235 1440.320068
4.200000 4.120000 -6.080000 13.794662 -30.645733 1129.453613
4.200000 4.120000 -6.040000 23.386736 -12.294888 698.103638
4.200000 4.120000 -6.000000 18.727068 5.498000 380.931061
4.200000 4.120000 -5.960000 6.216567 14.605319 251.961044
4.200000 4.120000 -5.920000 -6.308015 14.649531 254.399811
4.200000 4.120000 -5.880000 -14.786587 9.203047 303.339203
4.200000 4.120000 -5.840000 -18.185301 1.601611 333.270325
4.200000 4.120000 -5.800000 -16.308350 -5.148020 292.464386
4.200000 4.160000 -6.200000 -15.439490 -22.384705 739.452881
4.200000 4.160000 -6.160000 -2.719147 -37.254726 1395.308472
4.200000 4.160000 -6.120000 19.745937 -38.236389 1851.923584
4.200000 4.160000 -6.080000 38.048584 -22.285774 1944.350464
4.200000 4.160000 -6.040000 41.391048 2.208097 1718.094604
4.200000 4.160000 -6.000000 28.905573 22.540661 1343.613525
4.200000 4.160000 -5.960000 8.358170 30.218929 983.042725
4.200000 4.160000 -5.920000 -10.067358 24.674334 710.174438
4.200000 4.160000 -5.880000 -19.405010 11.674899 512.857666
4.200000 4.160000 -5.840000 -18.527939 -0.672993 343.737427
4.200000 4.160000 -5.800000 -11.942202 -6.096381 179.782043
4.200000 4.200000 -6.200000 5.529913 -22.367710 530.894409
4.200000 4.200000 -6.160000 20.472462 -27.730400 1188.096802
4.200000 4.200000 -6.120000 39.170471 -19.292316 1906.519287
4.200000 4.200000 -6.080000 49.318222 2.773423 2439.979004
4.200000 4.200000 -6.040000 42.496346 28.666971 2627.734619
4.200000 4.200000 -6.000000 20.207867 45.188068 2450.319336
4.200000 4.200000 -5.960000 -6.841357 44.251190 2004.972046
4.200000 4.200000 -5.920000 -25.530109 28.032469 1437.605835
4.200000 4.200000 -5.880000 -28.739878 7.365722 880.234436
4.200000 4.200000 -5.840000 -19.801880 -5.748668 425.161621
4.200000 4.200000 -5.800000 -9.591204 -6.602074 135.578568
