#kx 	ky 	kz 	real 	imag 	intensity
3.800000 1.800000 -6.200000 -26.081230 -11.963970 823.367188
3.800000 1.800000 -6.160000 -7.583096 -30.838036 1008.487793
3.800000 1.800000 -6.120000 17.961128 -25.146179 954.932495
3.800000 1.800000 -6.080000 25.989883 -1.167162 676.836304
3.800000 1.800000 -6.040000 9.975778 16.964766 387.319427
3.800000 1.800000 -6.000000 -12.723758 12.201765 310.777100
3.800000 1.800000 -5.960000 -19.691111 -8.851592 466.090515
3.800000 1.800000 -5.920000 -6.262575 -24.564466 642.632874
3.800000 1.800000 -5.880000 11.727634 -21.655411 606.494263
3.800000 1.800000 -5.840000 16.734640 -7.716614 339.594330
3.800000 1.800000 -5.800000 8.244844 -0.386330 68.126717
3.800000 1.840000 -6.200000 -11.133589 -28.879335 957.972778
3.800000 1.840000 -6.160000 13.629256 -35.500023 1446.008179
3.800000 1.840000 -6.120000 33.337673 -20.428333 1528.717285
3.800000 1.840000 -6.080000 33.101124 1.978677 1099.599609
3.800000 1.840000 -6.040000 17.269495 12.515436 454.871582
3.800000 1.840000 -6.000000 3.289130 5.589087 42.056263
3.800000 1.840000 -5.960000 3.444779 -7.487966 67.936134
3.800000 1.840000 -5.920000 14.020027 -12.212183 345.698578
3.800000 1.840000 -5.880000 22.062624 -5.788624 520.267517
3.800000 1.840000 -5.840000 20.606718 2.398920 430.391663
3.800000 1.840000 -5.800000 15.111517 3.450411 240.263275
3.800000 1.880000 -6.200000 8.448097 -27.258636 814.403625
3.800000 1.880000 -6.160000 29.993128 -22.879417 1423.055420
3.800000 1.880000 -6.120000 41.230354 -4.957332 1724.517334
3.800000 1.880000 -6.080000 36.826702 13.139240 1528.845581
3.800000 1.880000 -6.040000 24.042721 20.600626 1002.438232
3.800000 1.880000 -6.000000 14.157351 17.455011 505.108002
3.800000 1.880000 -5.960000 12.149267 11.601189 282.192261
3.800000 1.880000 -5.920000 14.595429 9.525011 303.752411
3.800000 1.880000 -5.880000 16.047646 11.062573 379.907440
3.800000 1.880000 -5.840000 15.366959 12.493849 392.239685
3.800000 1.880000 -5.800000 15.259789 12.640067 392.632477
3.800000 1.920000 -6.200000 16.471010 -13.378725 450.284485
3.800000 1.920000 -6.160000 31.047733 -4.479193 984.024902
3.800000 1.920000 -6.120000 36.231026 11.860669 1453.362793
3.800000 1.920000 -6.080000 30.301712 26.854740 1639.370850
3.800000 1.920000 -6.040000 18.075529 34.128071 1491.449951
3.800000 1.920000 -6.000000 6.351756 32.926189 1124.478760
3.800000 1.920000 -5.960000 -0.462149 26.760956 716.362305
3.800000 1.920000 -5.920000 -1.640442 20.083500 406.037994
3.800000 1.920000 -5.880000 1.035385 16.045618 258.533875
3.800000 1.920000 -5.840000 4.796615 15.942049 277.156433
3.800000 1.920000 -5.800000 6.819415 19.287735 418.521149
3.800000 1.960000 -6.200000 10.529396 -2.510856 117.172577
3.800000 1.960000 -6.160000 20.205912 6.432260 449.652832
3.800000 1.960000 -6.120000 21.851749 20.814388 910.737732
3.800000 1.960000 -6.080000 13.575109 33.464546 1304.159424
3.800000 1.960000 -6.040000 -0.697604 37.952728 1440.896240
3.800000 1.960000 -6.000000 -13.642624 32.667435 1253.282471
3.800000 1.960000 -5.960000 -19.188162 21.739170 840.777100
3.800000 1.960000 -5.920000 -16.322033 12.139656 413.779999
3.800000 1.960000 -5.880000 -9.327623 8.930745 166.762756
3.800000 1.960000 -5.840000 -4.353878 12.110405 165.618164
3.800000 1.960000 -5.800000 -4.902599 17.322071 324.089630
3.800000 2.000000 -6.200000 1.292838 -2.799175 9.506811
3.800000 2.000000 -6.160000 8.283276 6.322318 108.584366
3.800000 2.000000 -6.120000 5.967787 18.820402 389.822021
3.800000 2.000000 -6.080000 -5.286642 26.148014 711.667236
3.800000 2.000000 -6.040000 -18.401363 23.278774 880.511475
3.800000 2.000000 -6.000000 -25.166618 12.675677 794.031494
3.800000 2.000000 -5.960000 -22.653091 2.015883 517.226318
3.800000 2.000000 -5.920000 -14.922293 -2.204118 227.532959
3.800000 2.000000 -5.880000 -8.916168 0.509392 79.757538
3.800000 2.000000 -5.840000 -8.506067 5.392067 101.427567
3.800000 2.000000 -5.800000 -12.101654 7.389884 201.060410
3.800000 2.040000 -6.200000 -1.044442 -9.069419 83.345215
3.800000 2.040000 -6.160000 1.778761 0.959293 4.084234
3.800000 2.040000 -6.120000 -5.151821 8.388071 96.900993
3.800000 2.040000 -6.080000 -15.050852 6.418636 267.727020
3.800000 2.040000 -6.040000 -18.820766 -2.781932 361.960388
3.800000 2.040000 -6.000000 -13.714750 -10.686379 302.293091
3.800000 2.040000 -5.960000 -5.317191 -10.935143 147.849854
3.800000 2.040000 -5.920000 -1.363698 -5.033325 27.194033
3.800000 2.040000 -5.880000 -4.154306 0.162726 17.284742
3.800000 2.040000 -5.840000 -9.215347 -0.141829 84.942741
3.800000 2.040000 -5.800000 -10.871114 -4.319178 136.836411
3.800000 2.080000 -6.200000 2.699309 -11.577978 141.335846
3.800000 2.080000 -6.160000 -1.097830 -4.020261 17.367727
3.800000 2.080000 -6.120000 -8.740417 -6.263838 115.630562
3.800000 2.080000 -6.080000 -8.783475 -16.047670 334.677124
3.800000 2.080000 -6.040000 1.872661 -21.933828 484.599701
3.800000 2.080000 -6.000000 14.252953 -15.723461 450.373901
3.800000 2.080000 -5.960000 16.617346 -1.520212 278.447205
3.800000 2.080000 -5.920000 6.793477 8.326175 115.476517
3.800000 2.080000 -5.880000 -5.686011 5.912812 67.292068
3.800000 2.080000 -5.840000 -9.635101 -4.517081 113.239197
3.800000 2.080000 -5.800000 -3.464420 -11.736881 149.756592
3.800000 2.120000 -6.200000 4.012849 -8.278278 84.632851
3.800000 2.120000 -6.160000 -4.082458 -9.422426 105.448578
3.800000 2.120000 -6.120000 -3.914842 -21.245693 466.705475
3.800000 2.120000 -6.080000 11.316830 -29.255531 983.956726
3.800000 2.120000 -6.040000 30.942259 -19.819157 1350.222412
3.800000 2.120000 -6.000000 36.596268 4.067373 1355.830444
3.800000 2.120000 -5.960000 21.224384 24.110928 1031.811279
3.800000 2.120000 -5.920000 -2.911428 24.424006 605.008484
3.800000 2.120000 -5.880000 -16.009356 7.128265 307.111633
3.800000 2.120000 -5.840000 -9.952626 -10.397640 207.165695
3.800000 2.120000 -5.800000 5.018568 -13.353252 203.495377
3.800000 2.160000 -6.200000 -1.479055 -6.546472 45.043892
3.800000 2.160000 -6.160000 -5.521760 -18.929571 388.818512
3.800000 2.160000 -6.120000 9.143805 -32.206902 1120.893677
3.800000 2.160000 -6.080000 35.153469 -26.385380 1931.954590
3.800000 2.160000 -6.040000 49.363190 2.146407 2441.331787
3.800000 2.160000 -6.000000 35.644035 33.960754 2423.830078
3.800000 2.160000 -5.960000 2.288229 43.950775 1936.906616
3.800000 2.160000 -5.920000 -24.717482 25.482065 1260.289551
3.800000 2.160000 -5.880000 -26.193413 -3.486107 698.247803
3.800000 2.160000 -5.840000 -6.900915 -18.478352 389.072083
3.800000 2.160000 -5.800000 11.553673 -11.621586 268.548615
3.800000 2.200000 -6.200000 -7.954675 -13.401589 242.879456
3.800000 2.200000 -6.160000 0.501403 -31.211733 974.423645
3.800000 2.200000 -6.120000 27.532627 -34.217751 1928.900024
3.800000 2.200000 -6.080000 51.126259 -9.783644 2709.614014
3.800000 2.200000 -6.040000 47.047886 28.674698 3035.741943
3.800000 2.200000 -6.000000 13.505855 51.724258 2857.807129
3.800000 2.200000 -5.960000 -25.092476 41.178947 2325.337891
3.800000 2.200000 -5.920000 -40.158699 7.308790 1666.139526
3.800000 2.200000 -5.880000 -24.764109 -21.405542 1071.458252
3.800000 2.200000 -5.840000 2.257205 -25.113989 635.807434
3.800000 2.200000 -5.800000 16.691250 -8.841760 356.774536
3.840000 1.800000 -6.200000 6.849049 -22.127583 536.539368
3.840000 1.800000 -6.160000 27.541279 -16.588127 1033.687988
3.840000 1.800000 -6.120000 34.343033 5.566147 1210.425781
3.840000 1.800000 -6.080000 19.223362 23.840462 937.905273
3.840000 1.800000 -6.040000 -3.629930 21.265224 465.386169
3.840000 1.800000 -6.000000 -12.785221 2.088760 167.824799
3.840000 1.800000 -5.960000 -2.016560 -13.425396 184.307770
3.840000 1.800000 -5.920000 14.194086 -11.020018 322.912872
3.840000 1.800000 -5.880000 17.525137 2.953501 315.853607
3.840000 1.800000 -5.840000 5.977620 9.977120 135.274872
3.840000 1.800000 -5.800000 -4.817300 0.747916 23.765762
3.840000 1.840000 -6.200000 19.933834 -16.600281 672.927063
3.840000 1.840000 -6.160000 37.625805 -5.932997 1450.901611
3.840000 1.840000 -6.120000 41.443520 15.407271 1954.949341
3.840000 1.840000 -6.080000 29.097157 31.968033 1868.599609
3.840000 1.840000 -6.040000 11.559565 34.330845 1312.230469
3.840000 1.840000 -6.000000 0.930618 26.373205 696.411987
3.840000 1.840000 -5.960000 -0.650520 18.400242 338.992096
3.840000 1.840000 -5.920000 0.211464 15.318630 234.705154
3.840000 1.840000 -5.880000 -1.546362 13.298190 179.233093
3.840000 1.840000 -5.840000 -3.077299 7.429424 64.666115
3.840000 1.840000 -5.800000 1.637809 -0.009552 2.682511
3.840000 1.880000 -6.200000 21.906626 -2.931136 488.491791
3.840000 1.880000 -6.160000 37.128754 9.986819 1478.280884
3.840000 1.880000 -6.120000 40.085869 33.085243 2701.510254
3.840000 1.880000 -6.080000 26.420622 54.377155 3654.924316
3.840000 1.880000 -6.040000 1.923485 62.797195 3947.187500
3.840000 1.880000 -6.000000 -22.052694 54.897346 3500.040039
3.840000 1.880000 -5.960000 -35.683708 35.597744 2540.526367
3.840000 1.880000 -5.920000 -35.220253 14.191635 1441.868652
3.840000 1.880000 -5.880000 -23.457710 -0.632751 550.664551
3.840000 1.880000 -5.840000 -7.439937 -4.237463 73.308746
3.840000 1.880000 -5.800000 4.905169 2.572403 30.677944
3.840000 1.920000 -6.200000 11.754669 4.917317 162.352249
3.840000 1.920000 -6.160000 26.218498 20.883917 1123.547607
3.840000 1.920000 -6.120000 24.905046 49.022381 3023.455078
3.840000 1.920000 -6.080000 0.639935 72.930084 5319.207031
3.840000 1.920000 -6.040000 -37.745358 74.824860 7023.471680
3.840000 1.920000 -6.000000 -69.546837 49.450172 7282.082031
3.840000 1.920000 -5.960000 -76.492577 9.517220 5941.691895
3.840000 1.920000 -5.920000 -56.176567 -22.662872 3669.412354
3.840000 1.920000 -5.880000 -23.551411 -31.104250 1522.143311
3.840000 1.920000 -5.840000 0.736996 -16.822561 283.541718
3.840000 1.920000 -5.800000 5.394585 5.059065 54.695686
3.840000 1.960000 -6.200000 1.143526 -0.139574 1.327133
3.840000 1.960000 -6.160000 12.869568 21.796120 640.696594
3.840000 1.960000 -6.120000 0.389382 52.387253 2744.575928
3.840000 1.960000 -6.080000 -37.871849 66.957443 5917.576172
3.840000 1.960000 -6.040000 -80.975159 47.539326 8816.963867
3.840000 1.960000 -6.000000 -99.726624 0.113204 9945.412109
3.840000 1.960000 -5.960000 -80.144791 -47.513302 8680.701172
3.840000 1.960000 -5.920000 -35.450264 -66.883606 5730.137695
3.840000 1.960000 -5.880000 4.650569 -50.945896 2617.112061
3.840000 1.960000 -5.840000 17.820341 -17.671310 629.839722
3.840000 1.960000 -5.800000 4.865062 6.964619 72.174736
3.840000 2.000000 -6.200000 1.312142 -11.084167 124.580490
3.840000 2.000000 -6.160000 4.223349 16.203392 280.386597
3.840000 2.000000 -6.120000 -22.058300 39.385784 2037.808594
3.840000 2.000000 -6.080000 -64.524643 32.628445 5228.044922
3.840000 2.000000 -6.040000 -91.810699 -8.933489 8509.011719
3.840000 2.000000 -6.000000 -79.897308 -61.449242 10159.589844
3.840000 2.000000 -5.960000 -33.563675 -90.287476 9278.348633
3.840000 2.000000 -5.920000 16.758270 -78.325218 6415.679688
3.840000 2.000000 -5.880000 40.169743 -38.986053 3133.520508
3.840000 2.000000 -5.840000 29.464054 -2.763312 875.766418
3.840000 2.000000 -5.800000 2.956589 9.035211 90.376450
3.840000 2.040000 -6.200000 10.953131 -15.137623 349.118713
3.840000 2.040000 -6.160000 0.552641 10.181332 103.964928
3.840000 2.040000 -6.120000 -32.102730 15.632688 1274.966064
3.840000 2.040000 -6.080000 -60.723808 -12.132904 3834.588135
3.840000 2.040000 -6.040000 -57.487770 -57.971786 6665.571777
3.840000 2.040000 -6.000000 -18.443790 -88.903244 8243.959961
3.840000 2.040000 -5.960000 31.587345 -81.931107 7710.466309
3.840000 2.040000 -5.920000 59.800388 -43.317902 5452.526855
3.840000 2.040000 -5.880000 52.443596 -1.774113 2753.478271
3.840000 2.040000 -5.840000 23.368244 16.948750 833.334961
3.840000 2.040000 -5.800000 -1.814167 9.658557 96.578918
3.840000 2.080000 -6.200000 18.268688 -8.058033 398.676849
3.840000 2.080000 -6.160000 -2.078330 5.208558 31.448532
3.840000 2.080000 -6.120000 -26.575451 -8.379618 776.472595
3.840000 2.080000 -6.080000 -28.947872 -41.743397 2580.490479
3.840000 2.080000 -6.040000 -0.219975 -67.664200 4578.492188
3.840000 2.080000 -6.000000 41.577629 -62.685040 5658.113281
3.840000 2.080000 -5.960000 66.703453 -28.174160 5243.133789
3.840000 2.080000 -5.920000 59.435242 11.444420 3663.522705
3.840000 2.080000 -5.880000 29.874451 30.737698 1837.288818
3.840000 2.080000 -5.840000 2.086782 23.857731 573.546021
3.840000 2.080000 -5.800000 -7.940138 5.086322 88.916458
3.840000 2.120000 -6.200000 14.483036 1.424922 211.788727
3.840000 2.120000 -6.160000 -4.709667 -1.952031 25.991388
3.840000 2.120000 -6.120000 -9.684315 -23.831470 661.724915
3.840000 2.120000 -6.080000 10.440702 -42.673744 1930.056763
3.840000 2.120000 -6.040000 42.505459 -36.953331 3172.262695
3.840000 2.120000 -6.000000 60.549732 -6.082816 3703.270752
3.840000 2.120000 -5.960000 49.622684 28.557262 3277.928223
3.840000 2.120000 -5.920000 18.730228 43.187984 2216.023438
3.840000 2.120000 -5.880000 -8.940302 32.129684 1112.245605
3.840000 2.120000 -5.840000 -17.429295 9.755211 398.944458
3.840000 2.120000 -5.800000 -9.559167 -5.749326 124.432419
3.840000 2.160000 -6.200000 3.640232 1.603932 15.823886
3.840000 2.160000 -6.160000 -3.049939 -12.792194 172.942368
3.840000 2.160000 -6.120000 10.988242 -27.153233 858.039490
3.840000 2.160000 -6.080000 36.259674 -21.351013 1770.629639
3.840000 2.160000 -6.040000 49.267769 6.865735 2474.451416
3.840000 2.160000 -6.000000 34.994350 37.939915 2664.041748
3.840000 2.160000 -5.960000 1.758193 48.185776 2324.960205
3.840000 2.160000 -5.920000 -26.501562 31.397432 1688.131592
3.840000 2.160000 -5.880000 -32.209045 3.072301 1046.861694
3.840000 2.160000 -5.840000 -18.201414 -15.738159 578.981140
3.840000 2.160000 -5.800000 -1.128997 -17.311218 300.952911
3.840000 2.200000 -6.200000 -1.869513 -9.163654 87.467636
3.840000 2.200000 -6.160000 7.127120 -22.407391 552.887024
3.840000 2.200000 -6.120000 28.477793 -19.602566 1195.245239
3.840000 2.200000 -6.080000 41.177849 4.719625 1717.890137
3.840000 2.200000 -6.040000 28.409466 34.248611 1980.065186
3.840000 2.200000 -6.000000 -4.915634 44.712753 2023.393799
3.840000 2.200000 -5.960000 -35.278961 26.457748 1944.617554
3.840000 2.200000 -5.920000 -41.613041 -6.690553 1776.408691
3.840000 2.200000 -5.880000 -23.356508 -30.742178 1490.607910
3.840000 2.200000 -5.840000 1.715808 -32.955029 1088.977905
3.840000 2.200000 -5.800000 15.868573 -20.158991 658.196533
3.880000 1.800000 -6.200000 36.358055 2.274849 1327.083130
3.880000 1.800000 -6.160000 37.991676 25.835327 2110.831543
3.880000 1.800000 -6.120000 17.710131 43.919838 2242.600830
3.880000 1.800000 -6.080000 -10.025522 38.983082 1620.191772
3.880000 1.800000 -6.040000 -22.014545 15.193348 715.478027
3.880000 1.800000 -6.000000 -10.458908 -4.968658 134.076324
3.880000 1.800000 -5.960000 8.836792 -4.063259 94.598969
3.880000 1.800000 -5.920000 13.556108 12.131348 330.937683
3.880000 1.800000 -5.880000 -1.090745 21.507374 463.756866
3.880000 1.800000 -5.840000 -17.534941 10.078817 409.056702
3.880000 1.800000 -5.800000 -15.320611 -12.646158 394.646423
3.880000 1.840000 -6.200000 27.889517 19.326006 1151.319580
3.880000 1.840000 -6.160000 27.642658 36.040409 2063.027832
3.880000 1.840000 -6.120000 14.912535 50.050728 2727.459229
3.880000 1.840000 -6.080000 -3.587814 53.065475 2828.816895
3.880000 1.840000 -6.040000 -18.458210 46.093967 2465.359375
3.880000 1.840000 -6.000000 -26.508430 35.883682 1990.335571
3.880000 1.840000 -5.960000 -30.944517 26.254307 1646.851807
3.880000 1.840000 -5.920000 -34.013840 15.205864 1388.159546
3.880000 1.840000 -5.880000 -32.278618 0.804981 1042.557129
3.880000 1.840000 -5.840000 -21.011738 -12.360538 594.276062
3.880000 1.840000 -5.800000 -2.474574 -15.413955 243.713516
3.880000 1.880000 -6.200000 8.201149 23.718132 629.808655
3.880000 1.880000 -6.160000 13.833386 39.314194 1736.968384
3.880000 1.880000 -6.120000 4.861891 61.974922 3864.528809
3.880000 1.880000 -6.080000 -22.593048 77.404312 6501.873535
3.880000 1.880000 -6.040000 -59.370316 71.754555 8673.550781
3.880000 1.880000 -6.000000 -87.580681 42.091732 9442.089844
3.880000 1.880000 -5.960000 -91.872452 -0.010788 8440.547852
3.880000 1.880000 -5.920000 -69.832207 -34.906281 6094.985352
3.880000 1.880000 -5.880000 -33.891582 -47.220337 3378.399658
3.880000 1.880000 -5.840000 -3.149354 -35.391739 1262.493652
3.880000 1.880000 -5.800000 9.087336 -11.558210 216.171890
3.880000 1.920000 -6.200000 -7.102152 10.564351 162.046082
3.880000 1.920000 -6.160000 1.896191 35.422043 1258.316650
3.880000 1.920000 -6.120000 -18.229105 68.817749 5068.183105
3.880000 1.920000 -6.080000 -68.461990 80.364120 11145.435547
3.880000 1.920000 -6.040000 -121.799591 48.607269 17197.806641
3.880000 1.920000 -6.000000 -141.457764 -17.516727 20317.134766
3.880000 1.920000 -5.960000 -110.504433 -81.696579 18885.560547
3.880000 1.920000 -5.920000 -46.821793 -107.204590 13685.104492
3.880000 1.920000 -5.880000 10.544800 -84.951401 7327.933594
3.880000 1.920000 -5.840000 31.816238 -38.351471 2483.108398
3.880000 1.920000 -5.800000 17.092964 -1.859847 295.628479
3.880000 1.960000 -6.200000 -4.962997 -8.937300 104.506668
3.880000 1.960000 -6.160000 -4.842434 28.231762 820.481567
3.880000 1.960000 -6.120000 -46.964390 58.305275 5605.159180
3.880000 1.960000 -6.080000 -112.080788 42.426174 14362.083008
3.880000 1.960000 -6.040000 -152.130402 -26.980463 23871.603516
3.880000 1.960000 -6.000000 -129.428207 -112.812469 29478.312500
3.880000 1.960000 -5.960000 -51.041775 -159.986359 28200.898438
3.880000 1.960000 -5.920000 34.487946 -140.149109 20831.191406
3.880000 1.960000 -5.880000 76.362854 -73.907227 11293.564453
3.880000 1.960000 -5.840000 61.106644 -10.937418 3853.649170
3.880000 1.960000 -5.800000 17.571247 12.242234 458.621033
3.880000 2.000000 -6.200000 12.004917 -17.370493 445.852081
3.880000 2.000000 -6.160000 -7.566846 22.001244 541.311890
3.880000 2.000000 -6.120000 -65.394821 29.269030 5133.158691
3.880000 2.000000 -6.080000 -118.514313 -22.054234 14532.032227
3.880000 2.000000 -6.040000 -115.563309 -109.567474 25359.910156
3.880000 2.000000 -6.000000 -43.678387 -174.262970 32275.382812
3.880000 2.000000 -5.960000 55.734890 -168.705536 31567.937500
3.880000 2.000000 -5.920000 119.454414 -97.497070 23775.035156
3.880000 2.000000 -5.880000 114.126755 -12.326579 13176.860352
3.880000 2.000000 -5.840000 59.905167 32.946026 4674.069336
3.880000 2.000000 -5.800000 6.677493 24.579334 648.732605
3.880000 2.040000 -6.200000 27.624748 -7.774851 823.575012
3.880000 2.040000 -6.160000 -9.818378 17.319088 396.351379
3.880000 2.040000 -6.120000 -62.209110 -5.794191 3903.546143
3.880000 2.040000 -6.080000 -78.799667 -74.996346 11833.839844
3.880000 2.040000 -6.040000 -29.922581 -142.986969 21340.634766
3.880000 2.040000 -6.000000 61.637424 -154.610764 27703.660156
3.880000 2.040000 -5.960000 135.830688 -95.176743 27508.589844
3.880000 2.040000 -5.920000 144.995239 -4.223154 21041.455078
3.880000 2.040000 -5.880000 92.273132 58.494385 11935.923828
3.880000 2.040000 -5.840000 24.163563 62.336014 4469.656250
3.880000 2.040000 -5.800000 -12.777345 25.062460 791.387451
3.880000 2.080000 -6.200000 27.788309 9.852420 869.260315
3.880000 2.080000 -6.160000 -12.776318 11.209036 288.876770
3.880000 2.080000 -6.120000 -39.790615 -30.376469 2506.022949
3.880000 2.080000 -6.080000 -17.853388 -86.818665 7856.224121
3.880000 2.080000 -6.040000 49.406059 -109.116364 14347.339844
3.880000 2.080000 -6.000000 117.274017 -70.537300 18728.707031
3.880000 2.080000 -5.960000 136.488754 7.720226 18688.781250
3.880000 2.080000 -5.920000 94.991638 73.561890 14434.762695
3.880000 2.080000 -5.880000 26.203121 87.852158 8404.605469
3.880000 2.080000 -5.840000 -22.340456 54.041473 3419.576904
3.880000 2.080000 -5.800000 -28.401346 8.195499 873.802673
3.880000 2.120000 -6.200000 13.789587 18.837830 545.016541
3.880000 2.120000 -6.160000 -13.262304 1.595098 178.433060
3.880000 2.120000 -6.120000 -11.160797 -36.150009 1431.386475
3.880000 2.120000 -6.080000 28.007589 -59.438049 4317.306641
3.880000 2.120000 -6.040000 77.700111 -40.313213 7662.462402
3.880000 2.120000 -6.000000 97.846756 14.980392 9798.399414
3.880000 2.120000 -5.960000 69.851692 69.282288 9679.293945
3.880000 2.120000 -5.920000 12.701733 85.933792 7545.950684
3.880000 2.120000 -5.880000 -34.490250 58.750820 4641.236328
3.880000 2.120000 -5.840000 -45.711342 13.357445 2267.948242
3.880000 2.120000 -5.800000 -25.694693 -18.397312 998.678345
3.880000 2.160000 -6.200000 -0.004282 12.193563 148.682999
3.880000 2.160000 -6.160000 -7.065071 -8.725361 126.047142
3.880000 2.160000 -6.120000 10.858996 -26.734201 832.635315
3.880000 2.160000 -6.080000 40.726467 -19.713057 2047.249756
3.880000 2.160000 -6.040000 55.157253 13.499645 3224.562988
3.880000 2.160000 -6.000000 37.101875 49.749184 3851.530273
3.880000 2.160000 -5.960000 -3.990509 61.146450 3754.812500
3.880000 2.160000 -5.920000 -40.128689 39.103325 3139.381836
3.880000 2.160000 -5.880000 -48.756851 0.361198 2377.360840
3.880000 2.160000 -5.840000 -29.815947 -29.252117 1744.677002
3.880000 2.160000 -5.800000 -1.364610 -36.197556 1312.125244
3.880000 2.200000 -6.200000 -1.082850 -1.594733 3.715737
3.880000 2.200000 -6.160000 5.573654 -13.364885 209.685776
3.880000 2.200000 -6.120000 21.504765 -11.530323 595.403259
3.880000 2.200000 -6.080000 29.546404 6.889996 920.462036
3.880000 2.200000 -6.040000 17.217852 27.941818 1077.199585
3.880000 2.200000 -6.000000 -10.380470 32.431705 1159.569702
3.880000 2.200000 -5.960000 -33.890697 13.400969 1328.165283
3.880000 2.200000 -5.920000 -36.267368 -17.493877 1621.357788
3.880000 2.200000 -5.880000 -16.663740 -40.332321 1904.376465
3.880000 2.200000 -5.840000 10.831409 -43.341866 1995.836792
3.880000 2.200000 -5.800000 30.631779 -29.906607 1832.710938
3.920000 1.800000 -6.200000 33.759914 44.120644 3086.363037
3.920000 1.800000 -6.160000 7.978210 64.154160 4179.408203
3.920000 1.800000 -6.120000 -28.168180 57.536316 4103.874023
3.920000 1.800000 -6.080000 -47.051529 25.539888 2866.132324
3.920000 1.800000 -6.040000 -34.945564 -6.305193 1260.947998
3.920000 1.800000 -6.000000 -7.061325 -12.822979 214.291107
3.920000 1.800000 -5.960000 7.429193 5.269630 82.961922
3.920000 1.800000 -5.920000 -4.599163 22.494160 527.139526
3.920000 1.800000 -5.880000 -26.986677 15.740345 976.039185
3.920000 1.800000 -5.840000 -31.981485 -11.364543 1151.968262
3.920000 1.800000 -5.800000 -9.835662 -32.618187 1160.686401
3.920000 1.840000 -6.200000 1.634384 49.243073 2427.551270
3.920000 1.840000 -6.160000 -14.815069 56.399342 3400.372070
3.920000 1.840000 -6.120000 -34.136230 52.892242 3962.871582
3.920000 1.840000 -6.080000 -48.039768 40.384945 3938.763184
3.920000 1.840000 -6.040000 -54.045738 25.784824 3585.799072
3.920000 1.840000 -6.000000 -56.055855 12.917412 3309.118408
3.920000 1.840000 -5.960000 -56.959061 -0.779816 3244.942627
3.920000 1.840000 -5.920000 -53.041939 -18.265217 3147.065430
3.920000 1.840000 -5.880000 -38.125214 -35.136826 2688.128418
3.920000 1.840000 -5.840000 -13.278687 -40.815048 1842.191650
3.920000 1.840000 -5.800000 9.883288 -29.059929 942.158875
3.920000 1.880000 -6.200000 -23.410202 28.316406 1349.856445
3.920000 1.880000 -6.160000 -26.164341 40.524582 2326.814453
3.920000 1.880000 -6.120000 -45.734222 54.282684 5038.229004
3.920000 1.880000 -6.080000 -80.844543 51.827473 9221.927734
3.920000 1.880000 -6.040000 -114.165161 21.561420 13498.578125
3.920000 1.880000 -6.000000 -122.983253 -29.878250 16017.590820
3.920000 1.880000 -5.960000 -96.432617 -79.026741 15544.475586
3.920000 1.880000 -5.920000 -45.310909 -100.929108 12239.763672
3.920000 1.880000 -5.880000 4.313278 -86.862701 7563.733398
3.920000 1.880000 -5.840000 29.251596 -50.129089 3368.581543
3.920000 1.880000 -5.800000 24.658049 -15.293215 841.901733
3.920000 1.920000 -6.200000 -22.944698 -3.079268 535.941040
3.920000 1.920000 -6.160000 -26.519688 26.795979 1421.318359
3.920000 1.920000 -6.120000 -68.190430 48.224392 6975.526367
3.920000 1.920000 -6.080000 -128.653229 25.234455 17188.429688
3.920000 1.920000 -6.040000 -161.905487 -47.772926 28495.638672
3.920000 1.920000 -6.000000 -132.767731 -133.877426 35550.437500
3.920000 1.920000 -5.960000 -49.434769 -179.586761 34695.199219
3.920000 1.920000 -5.920000 40.000504 -157.673492 26460.970703
3.920000 1.920000 -5.880000 85.268188 -88.609375 15122.285156
3.920000 1.920000 -5.840000 72.366882 -21.677345 5706.873047
3.920000 1.920000 -5.800000 29.194361 5.906366 887.195801
3.920000 1.960000 -6.200000 0.895927 -20.498846 421.005371
3.920000 1.960000 -6.160000 -23.064980 20.116562 936.669312
3.920000 1.960000 -6.120000 -89.723389 22.918816 8575.558594
3.920000 1.960000 -6.080000 -148.613556 -42.461399 23888.958984
3.920000 1.960000 -6.040000 -139.539612 -148.743103 41595.812500
3.920000 1.960000 -6.000000 -48.171360 -225.463593 53154.312500
3.920000 1.960000 -5.960000 75.149185 -216.269089 52419.718750
3.920000 1.960000 -5.920000 154.134155 -127.290619 39960.238281
3.920000 1.960000 -5.880000 148.543228 -21.381844 22522.273438
3.920000 1.960000 -5.840000 82.900604 35.866600 8158.923340
3.920000 1.960000 -5.800000 18.140537 27.467468 1083.540894
3.920000 2.000000 -6.200000 27.097940 -11.850893 874.742065
3.920000 2.000000 -6.160000 -22.410553 17.731752 816.647949
3.920000 2.000000 -6.120000 -91.886551 -16.697847 8721.957031
3.920000 2.000000 -6.080000 -112.716751 -113.941452 25687.720703
3.920000 2.000000 -6.040000 -42.810246 -210.122223 45984.066406
3.920000 2.000000 -6.000000 88.069366 -228.064148 59769.468750
3.920000 2.000000 -5.960000 196.484802 -145.052597 59646.531250
3.920000 2.000000 -5.920000 213.731354 -14.860428 45901.921875
3.920000 2.000000 -5.880000 141.716843 77.723503 26124.607422
3.920000 2.000000 -5.840000 45.362961 87.029495 9631.930664
3.920000 2.000000 -5.800000 -7.793560 36.616940 1401.539917
3.920000 2.040000 -6.200000 34.592216 12.765909 1359.589844
3.920000 2.040000 -6.160000 -25.151258 13.666862 819.368958
3.920000 2.040000 -6.120000 -67.919502 -50.948349 7208.792969
3.920000 2.040000 -6.080000 -36.334866 -143.071457 21789.664062
3.920000 2.040000 -6.040000 70.603210 -186.380783 39722.609375
3.920000 2.040000 -6.000000 186.478455 -132.445236 52315.953125
3.920000 2.040000 -5.960000 229.719269 -7.493507 52827.093750
3.920000 2.040000 -5.920000 172.722198 106.731102 41224.484375
3.920000 2.040000 -5.880000 63.272175 141.439316 24008.449219
3.920000 2.040000 -5.840000 -20.347214 94.601196 9363.395508
3.920000 2.040000 -5.800000 -35.689075 22.419989 1776.365967
3.920000 2.080000 -6.200000 20.236423 31.587814 1407.302856
3.920000 2.080000 -6.160000 -26.598244 5.109315 733.571655
3.920000 2.080000 -6.120000 -29.967216 -62.388794 4790.395508
3.920000 2.080000 -6.080000 34.432266 -115.503830 14526.715820
3.920000 2.080000 -6.040000 131.057709 -97.654221 26712.468750
3.920000 2.080000 -6.000000 188.258743 -5.036316 35466.718750
3.920000 2.080000 -5.960000 159.112381 104.256546 36186.179688
3.920000 2.080000 -5.920000 62.717274 157.522949 28746.937500
3.920000 2.080000 -5.880000 -33.110603 127.677078 17397.748047
3.920000 2.080000 -5.840000 -70.381172 50.812794 7535.449219
3.920000 2.080000 -5.800000 -44.919315 -11.800477 2156.996094
3.920000 2.120000 -6.200000 -0.752972 31.235422 976.218567
3.920000 2.120000 -6.160000 -22.093586 -5.008842 513.215027
3.920000 2.120000 -6.120000 1.688660 -50.186573 2521.543701
3.920000 2.120000 -6.080000 63.084290 -58.418510 7392.350098
3.920000 2.120000 -6.040000 115.634987 -8.341599 13441.032227
3.920000 2.120000 -6.000000 112.049896 72.321541 17785.585938
3.920000 2.120000 -5.960000 47.061501 126.727448 18274.630859
3.920000 2.120000 -5.920000 -36.211845 116.697632 14929.634766
3.920000 2.120000 -5.880000 -82.825569 53.857563 9760.711914
3.920000 2.120000 -5.840000 -70.810745 -13.859295 5206.241699
3.920000 2.120000 -5.800000 -23.237255 -44.913353 2557.179199
3.920000 2.160000 -6.200000 -10.842886 16.947254 404.777588
3.920000 2.160000 -6.160000 -11.731664 -10.907038 256.595398
3.920000 2.160000 -6.120000 15.531700 -28.208843 1036.972534
3.920000 2.160000 -6.080000 50.380398 -12.391663 2691.737793
3.920000 2.160000 -6.040000 59.756310 31.379410 4555.483887
3.920000 2.160000 -6.000000 28.188011 70.732765 5797.687988
3.920000 2.160000 -5.960000 -26.017204 72.873993 5987.513672
3.920000 2.160000 -5.920000 -64.919273 33.239449 5319.373047
3.920000 2.160000 -5.880000 -62.610138 -20.861057 4355.212891
3.920000 2.160000 -5.840000 -24.933037 -54.166187 3555.632080
3.920000 2.160000 -5.800000 19.342487 -51.454895 3021.738037
3.920000 2.200000 -6.200000 -6.063051 4.468901 56.731663
3.920000 2.200000 -6.160000 -0.477441 -9.189158 84.668587
3.920000 2.200000 -6.120000 15.050826 -10.789162 342.933380
3.920000 2.200000 -6.080000 24.841171 3.859760 631.981567
3.920000 2.200000 -6.040000 15.911949 22.659889 766.660706
3.920000 2.200000 -6.000000 -8.431648 26.688862 783.388062
3.920000 2.200000 -5.960000 -29.542267 7.474960 928.620605
3.920000 2.200000 -5.920000 -28.893351 -24.307972 1425.703125
3.920000 2.200000 -5.880000 -3.865027 -47.146179 2237.700684
3.920000 2.200000 -5.840000 30.543821 -46.046227 3053.179932
3.920000 2.200000 -5.800000 54.553242 -23.075844 3508.550781
3.960000 1.800000 -6.200000 -2.396946 69.387070 4820.310547
3.960000 1.800000 -6.160000 -43.743843 65.728394 6233.745605
3.960000 1.800000 -6.120000 -72.161537 29.681076 6088.253906
3.960000 1.800000 -6.080000 -64.529839 -15.509514 4404.645020
3.960000 1.800000 -6.040000 -28.598606 -36.406395 2143.305664
3.960000 1.800000 -6.000000 2.741837 -21.957504 489.649658
3.960000 1.800000 -5.960000 3.570086 5.496704 42.959267
3.960000 1.800000 -5.920000 -19.596603 13.264740 559.980164
3.960000 1.800000 -5.880000 -35.752312 -8.248298 1346.262207
3.960000 1.800000 -5.840000 -22.327780 -36.633606 1840.550903
3.960000 1.800000 -5.800000 11.709665 -41.859146 1889.304321
3.960000 1.840000 -6.200000 -39.765362 47.096542 3799.368164
3.960000 1.840000 -6.160000 -59.643097 36.292297 4874.429688
3.960000 1.840000 -6.120000 -71.123604 15.615688 5302.416504
3.960000 1.840000 -6.080000 -70.393021 -5.996674 4991.137207
3.960000 1.840000 -6.040000 -62.560307 -21.298531 4367.419434
3.960000 1.840000 -6.000000 -54.788246 -31.548737 3997.074707
3.960000 1.840000 -5.960000 -47.275967 -42.750942 4062.660156
3.960000 1.840000 -5.920000 -33.383064 -55.603607 4206.190430
3.960000 1.840000 -5.880000 -9.567303 -61.643673 3891.475586
3.960000 1.840000 -5.840000 16.497250 -51.536327 2928.152100
3.960000 1.840000 -5.800000 30.350327 -26.974850 1648.784912
3.960000 1.880000 -6.200000 -47.054611 5.242476 2241.620117
3.960000 1.880000 -6.160000 -53.904808 10.519203 3016.381836
3.960000 1.880000 -6.120000 -75.971107 9.304361 5858.180664
3.960000 1.880000 -6.080000 -102.718567 -14.281300 10755.058594
3.960000 1.880000 -6.040000 -111.666580 -61.120369 16205.124023
3.960000 1.880000 -6.000000 -86.021111 -111.644142 19864.044922
3.960000 1.880000 -5.960000 -30.425789 -137.818848 19919.763672
3.960000 1.880000 -5.920000 29.483231 -123.981956 16240.786133
3.960000 1.880000 -5.880000 64.662903 -79.267395 10464.611328
3.960000 1.880000 -5.840000 63.316101 -30.841032 4960.098145
3.960000 1.880000 -5.800000 37.685692 -3.515518 1432.570312
3.960000 1.920000 -6.200000 -20.897818 -24.909660 1057.209961
3.960000 1.920000 -6.160000 -39.547935 0.089706 1564.047241
3.960000 1.920000 -6.120000 -89.157379 -5.490330 7979.181641
3.960000 1.920000 -6.080000 -128.960434 -63.954544 20720.976562
3.960000 1.920000 -6.040000 -112.026108 -151.474274 35494.304688
3.960000 1.920000 -6.000000 -29.182419 -210.898941 45329.976562
3.960000 1.920000 -5.960000 77.089142 -197.855225 45089.425781
3.960000 1.920000 -5.920000 144.401672 -118.901878 34989.500000
3.960000 1.920000 -5.880000 140.222092 -26.333950 20355.710938
3.960000 1.920000 -5.840000 84.939087 25.432203 7861.445312
3.960000 1.920000 -5.800000 29.186430 21.654739 1320.775391
3.960000 1.960000 -6.200000 15.688940 -22.798285 765.904602
3.960000 1.960000 -6.160000 -30.876642 1.369282 955.242004
3.960000 1.960000 -6.120000 -94.738663 -37.235588 10361.903320
3.960000 1.960000 -6.080000 -108.071777 -135.659637 30083.046875
3.960000 1.960000 -6.040000 -30.904453 -229.151611 53465.546875
3.960000 1.960000 -6.000000 104.669495 -241.416626 69237.687500
3.960000 1.960000 -5.960000 214.118622 -152.019424 68956.687500
3.960000 1.960000 -5.920000 229.518173 -17.036865 52968.847656
3.960000 1.960000 -5.880000 154.806427 77.735886 30007.896484
3.960000 1.960000 -5.840000 56.873528 87.347107 10864.115234
3.960000 1.960000 -5.800000 3.994122 37.203255 1400.035156
3.960000 2.000000 -6.200000 34.008801 5.011986 1181.718506
3.960000 2.000000 -6.160000 -31.383801 2.761734 992.570129
3.960000 2.000000 -6.120000 -76.055222 -73.643829 11207.810547
3.960000 2.000000 -6.080000 -34.230000 -179.828918 33510.132812
3.960000 2.000000 -6.040000 94.262512 -227.209045 60509.371094
3.960000 2.000000 -6.000000 231.241425 -160.198853 79136.265625
3.960000 2.000000 -5.960000 281.465149 -10.650778 79336.070312
3.960000 2.000000 -5.920000 213.588104 124.984695 61241.054688
3.960000 2.000000 -5.880000 84.866608 166.341324 34871.777344
3.960000 2.000000 -5.840000 -12.239393 112.328003 12767.382812
3.960000 2.000000 -5.800000 -28.675562 30.463793 1750.330566
3.960000 2.040000 -6.200000 23.796093 33.198193 1668.374023
3.960000 2.040000 -6.160000 -33.955494 -2.665134 1160.078491
3.960000 2.040000 -6.120000 -35.388988 -91.813934 9682.179688
3.960000 2.040000 -6.080000 52.691216 -162.133087 29063.503906
3.960000 2.040000 -6.040000 184.435806 -137.914536 53036.984375
3.960000 2.040000 -6.000000 264.373901 -12.506994 70049.984375
3.960000 2.040000 -5.960000 228.269379 137.296051 70957.117188
3.960000 2.040000 -5.920000 100.175491 213.311218 55536.804688
3.960000 2.040000 -5.880000 -29.060120 177.708817 32424.914062
3.960000 2.040000 -5.840000 -80.636139 78.470314 12659.777344
3.960000 2.040000 -5.800000 -48.770691 -1.324842 2380.335449
3.960000 2.080000 -6.200000 -1.270938 41.221924 1700.862183
3.960000 2.080000 -6.160000 -30.690277 -11.915425 1083.870483
3.960000 2.080000 -6.120000 5.916742 -80.444695 6506.356445
3.960000 2.080000 -6.080000 101.484558 -95.471359 19413.894531
3.960000 2.080000 -6.040000 187.907715 -20.567028 35732.312500
3.960000 2.080000 -6.000000 190.590851 106.552490 47678.304688
3.960000 2.080000 -5.960000 95.900917 199.388367 48952.710938
3.960000 2.080000 -5.920000 -33.665909 195.071259 39186.191406
3.960000 2.080000 -5.880000 -112.489601 106.379242 23970.453125
3.960000 2.080000 -5.840000 -102.766953 5.435415 10590.590820
3.960000 2.080000 -5.800000 -37.676346 -41.979050 3181.747559
3.960000 2.120000 -6.200000 -19.527403 29.211901 1234.654541
3.960000 2.120000 -6.160000 -21.082232 -17.427275 748.170410
3.960000 2.120000 -6.120000 26.732340 -50.410294 3255.815674
3.960000 2.120000 -6.080000 93.897186 -26.711193 9530.169922
3.960000 2.120000 -6.040000 121.825943 52.455803 17593.171875
3.960000 2.120000 -6.000000 75.356049 134.094818 23659.953125
3.960000 2.120000 -5.960000 -21.608765 155.660339 24697.080078
3.960000 2.120000 -5.920000 -103.220718 99.329842 20520.933594
3.960000 2.120000 -5.880000 -116.948776 6.919334 13724.893555
3.960000 2.120000 -5.840000 -65.182190 -57.946728 7606.541016
3.960000 2.120000 -5.800000 3.924684 -62.880596 3969.372559
3.960000 2.160000 -6.200000 -21.320255 12.924562 621.597595
3.960000 2.160000 -6.160000 -11.140652 -15.665791 369.531128
3.960000 2.160000 -6.120000 24.147322 -23.406212 1130.943848
3.960000 2.160000 -6.080000 55.191814 6.430901 3087.492920
3.960000 2.160000 -6.040000 48.445580 56.448875 5533.449707
3.960000 2.160000 -6.000000 -0.789474 85.678337 7341.400391
3.960000 2.160000 -5.960000 -59.621010 65.130310 7796.622070
3.960000 2.160000 -5.920000 -83.931778 5.003555 7069.579102
3.960000 2.160000 -5.880000 -55.882511 -53.034134 5935.474609
3.960000 2.160000 -5.840000 2.464531 -71.139984 5066.971191
3.960000 2.160000 -5.800000 50.700626 -44.665390 4565.550781
3.960000 2.200000 -6.200000 -14.056740 5.826005 231.534271
3.960000 2.200000 -6.160000 -6.345840 -9.875895 137.802979
3.960000 2.200000 -6.120000 12.297045 -11.910824 293.085022
3.960000 2.200000 -6.080000 24.122414 4.184307 599.399292
3.960000 2.200000 -6.040000 14.927261 24.096783 803.478027
3.960000 2.200000 -6.000000 -10.099739 26.446213 801.406860
3.960000 2.200000 -5.960000 -28.519608 3.507111 825.667847
3.960000 2.200000 -5.920000 -20.257160 -29.510551 1281.225098
3.960000 2.200000 -5.880000 13.765301 -46.487381 2350.560059
3.960000 2.200000 -5.840000 51.781700 -32.589558 3743.423828
3.960000 2.200000 -5.800000 69.515175 4.110329 4849.254395
4.000000 1.800000 -6.200000 -44.755421 58.097298 5378.343750
4.000000 1.800000 -6.160000 -78.982994 27.466238 6992.707520
4.000000 1.800000 -6.120000 -81.049728 -23.234257 7108.889160
4.000000 1.800000 -6.080000 -45.361549 -59.424389 5588.928223
4.000000 1.800000 -6.040000 0.944265 -56.475220 3190.342041
4.000000 1.800000 -6.000000 22.220196 -24.086357 1073.889648
4.000000 1.800000 -5.960000 8.286865 3.021008 77.798622
4.000000 1.800000 -5.920000 -16.923347 -0.480002 286.630096
4.000000 1.800000 -5.880000 -21.061356 -26.304985 1135.532959
4.000000 1.800000 -5.840000 3.539060 -43.225266 1880.948486
4.000000 1.800000 -5.800000 33.608597 -30.491489 2059.268555
4.000000 1.840000 -6.200000 -64.256836 14.322433 4334.073242
4.000000 1.840000 -6.160000 -73.752731 -10.243574 5544.395996
4.000000 1.840000 -6.120000 -67.999207 -37.500977 6030.215332
4.000000 1.840000 -6.080000 -49.690659 -55.984886 5603.468750
4.000000 1.840000 -6.040000 -29.359848 -61.623837 4659.498047
4.000000 1.840000 -6.000000 -14.734718 -60.464653 3873.086182
4.000000 1.840000 -5.960000 -3.728302 -60.229172 3641.453369
4.000000 1.840000 -5.920000 10.706398 -60.459549 3769.984131
4.000000 1.840000 -5.880000 29.492851 -53.133251 3692.970703
4.000000 1.840000 -5.840000 43.453991 -33.515312 3011.525391
4.000000 1.840000 -5.800000 42.118092 -8.665400 1849.022705
4.000000 1.880000 -6.200000 -44.041542 -27.144188 2676.464355
4.000000 1.880000 -6.160000 -50.027466 -28.924177 3339.355469
4.000000 1.880000 -6.120000 -63.499928 -43.372726 5913.434082
4.000000 1.880000 -6.080000 -67.674019 -76.442657 10423.252930
4.000000 1.880000 -6.040000 -45.476589 -115.884750 15497.395508
4.000000 1.880000 -6.000000 3.978409 -137.614441 18953.562500
4.000000 1.880000 -5.960000 60.855247 -123.937378 19063.833984
4.000000 1.880000 -5.920000 97.329224 -78.579185 15647.666016
4.000000 1.880000 -5.880000 97.763626 -25.267151 10196.155273
4.000000 1.880000 -5.840000 69.643463 9.471956 4939.929688
4.000000 1.880000 -5.800000 36.371876 14.992226 1547.680176
4.000000 1.920000 -6.200000 -2.423502 -36.702084 1352.916382
4.000000 1.920000 -6.160000 -29.670675 -26.405853 1577.618164
4.000000 1.920000 -6.120000 -65.115799 -58.017357 7606.081055
4.000000 1.920000 -6.080000 -62.949203 -126.479309 19959.617188
4.000000 1.920000 -6.040000 1.006866 -185.704666 34487.238281
4.000000 1.920000 -6.000000 101.112061 -184.613968 44305.964844
4.000000 1.920000 -5.960000 177.694489 -112.510117 44233.859375
4.000000 1.920000 -5.920000 185.040649 -11.131752 34363.957031
4.000000 1.920000 -5.880000 128.242126 58.969322 19923.423828
4.000000 1.920000 -5.840000 55.703270 67.023651 7595.024414
4.000000 1.920000 -5.800000 16.049665 31.833359 1270.954468
4.000000 1.960000 -6.200000 27.390402 -12.370344 903.259521
4.000000 1.960000 -6.160000 -24.039944 -17.365801 879.489929
4.000000 1.960000 -6.120000 -54.943077 -84.181427 10105.253906
4.000000 1.960000 -6.080000 -10.521290 -172.126923 29738.375000
4.000000 1.960000 -6.040000 105.674866 -204.857071 53133.593750
4.000000 1.960000 -6.000000 223.650955 -137.589066 68950.500000
4.000000 1.960000 -5.960000 262.001953 -1.934834 68648.765625
4.000000 1.960000 -5.920000 197.232697 116.815491 52546.597656
4.000000 1.960000 -5.880000 82.419617 150.579590 29467.207031
4.000000 1.960000 -5.840000 -1.349447 101.790154 10363.056641
4.000000 1.960000 -5.800000 -13.375433 31.655983 1181.003418
4.000000 2.000000 -6.200000 26.253187 21.662800 1158.506714
4.000000 2.000000 -6.160000 -27.157909 -15.774464 986.385742
4.000000 2.000000 -6.120000 -22.426655 -104.179893 11356.405273
4.000000 2.000000 -6.080000 71.456543 -169.799484 33937.902344
4.000000 2.000000 -6.040000 205.444916 -137.810699 61199.402344
4.000000 2.000000 -6.000000 282.572998 -5.034906 79872.851562
4.000000 2.000000 -5.960000 240.522690 148.172211 79806.171875
4.000000 2.000000 -5.920000 107.471710 222.905365 61236.968750
4.000000 2.000000 -5.880000 -22.638054 184.242706 34457.855469
4.000000 2.000000 -5.840000 -71.541351 84.444946 12249.113281
4.000000 2.000000 -5.800000 -37.365799 8.727732 1472.376221
4.000000 2.040000 -6.200000 2.338099 38.917389 1520.029785
4.000000 2.040000 -6.160000 -26.675835 -22.089886 1199.563232
4.000000 2.040000 -6.120000 20.325459 -98.120399 10040.737305
4.000000 2.040000 -6.080000 133.233200 -110.016632 29854.746094
4.000000 2.040000 -6.040000 232.158112 -17.700748 54210.707031
4.000000 2.040000 -6.000000 231.709106 132.785187 71321.015625
4.000000 2.040000 -5.960000 118.711006 240.504181 71934.562500
4.000000 2.040000 -5.920000 -32.176888 234.386505 55972.386719
4.000000 2.040000 -5.880000 -121.920898 132.321487 32373.681641
4.000000 2.040000 -5.840000 -109.679825 19.708143 12418.075195
4.000000 2.040000 -5.800000 -37.623623 -28.731956 2241.062256
4.000000 2.080000 -6.200000 -21.291344 32.557884 1513.337158
4.000000 2.080000 -6.160000 -18.425413 -26.807085 1058.115723
4.000000 2.080000 -6.120000 48.202591 -65.941628 6671.788086
4.000000 2.080000 -6.080000 137.956390 -29.055542 19876.189453
4.000000 2.080000 -6.040000 173.287872 80.702652 36541.605469
4.000000 2.080000 -6.000000 108.720543 192.032303 48696.562500
4.000000 2.080000 -5.960000 -22.550461 222.238266 49898.371094
4.000000 2.080000 -5.920000 -132.622131 149.131104 39828.714844
4.000000 2.080000 -5.880000 -153.040619 29.540817 24294.091797
4.000000 2.080000 -5.840000 -89.382675 -52.619568 10758.082031
4.000000 2.080000 -5.800000 -6.906336 -57.414932 3344.171875
4.000000 2.120000 -6.200000 -29.520081 15.836027 1122.214966
4.000000 2.120000 -6.160000 -9.137359 -23.566397 638.866394
4.000000 2.120000 -6.120000 47.212044 -29.013960 3070.786865
4.000000 2.120000 -6.080000 93.943634 23.632748 9383.913086
4.000000 2.120000 -6.040000 79.946381 106.208466 17671.662109
4.000000 2.120000 -6.000000 -0.952286 154.985306 24021.351562
4.000000 2.120000 -5.960000 -97.227036 125.550690 25216.072266
4.000000 2.120000 -5.920000 -140.916534 34.164352 21024.671875
4.000000 2.120000 -5.880000 -105.380417 -55.197952 14151.845703
4.000000 2.120000 -5.840000 -25.055237 -85.969284 8018.482422
4.000000 2.120000 -5.800000 39.400261 -53.494049 4413.994141
4.000000 2.160000 -6.200000 -25.541592 4.578037 673.331360
4.000000 2.160000 -6.160000 -6.638699 -16.207993 306.771362
4.000000 2.160000 -6.120000 27.126995 -9.830032 832.503357
4.000000 2.160000 -6.080000 43.040596 28.531542 2666.541748
4.000000 2.160000 -6.040000 16.903778 70.227310 5217.612793
4.000000 2.160000 -6.000000 -39.349693 75.545654 7255.544434
4.000000 2.160000 -5.960000 -83.149086 31.146729 7883.889160
4.000000 2.160000 -5.920000 -77.585487 -34.508568 7210.349121
4.000000 2.160000 -5.880000 -24.340136 -74.282318 6110.305176
4.000000 2.160000 -5.840000 38.368973 -62.421227 5368.587402
4.000000 2.160000 -5.800000 69.816322 -13.601870 5059.329590
4.000000 2.200000 -6.200000 -21.547150 1.891272 467.856567
4.000000 2.200000 -6.160000 -10.339421 -13.153187 279.909943
4.000000 2.200000 -6.120000 9.965759 -11.846764 239.662170
4.000000 2.200000 -6.080000 19.591904 6.936729 431.960907
4.000000 2.200000 -6.040000 6.991776 24.938992 670.838257
4.000000 2.200000 -6.000000 -16.927856 21.463493 747.233887
4.000000 2.200000 -5.960000 -27.040358 -4.872864 754.925720
4.000000 2.200000 -5.920000 -7.876438 -32.232716 1100.986328
4.000000 2.200000 -5.880000 30.470123 -34.547302 2121.944580
4.000000 2.200000 -5.840000 60.347824 -5.118152 3668.055420
4.000000 2.200000 -5.800000 60.480141 37.913002 5095.243164
4.040000 1.800000 -6.200000 -62.497700 21.477993 4367.266602
4.040000 1.800000 -6.160000 -73.768799 -21.355145 5897.877441
4.040000 1.800000 -6.120000 -48.695362 -64.164612 6488.335449
4.040000 1.800000 -6.080000 0.481371 -76.052094 5784.152832
4.040000 1.800000 -6.040000 39.605503 -49.554611 4024.255371
4.040000 1.800000 -6.000000 43.317776 -9.234386 1961.703613
4.040000 1.800000 -5.960000 18.431503 11.127577 463.543274
4.040000 1.800000 -5.920000 -4.202602 0.329456 17.770409
4.040000 1.800000 -5.880000 -1.014294 -21.691586 471.553650
4.040000 1.800000 -5.840000 22.043938 -26.526217 1189.575317
4.040000 1.800000 -5.800000 38.445629 -6.748794 1523.612671
4.040000 1.840000 -6.200000 -55.790459 -22.544479 3620.828613
4.040000 1.840000 -6.160000 -49.833374 -48.724205 4857.413086
4.040000 1.840000 -6.120000 -28.118679 -69.198990 5579.160156
4.040000 1.840000 -6.080000 1.129257 -73.560471 5412.418457
4.040000 1.840000 -6.040000 24.450287 -62.264023 4474.625000
4.040000 1.840000 -6.000000 34.995163 -45.787560 3321.161865
4.040000 1.840000 -5.960000 37.260345 -33.828629 2532.709473
4.040000 1.840000 -5.920000 39.801109 -26.466763 2284.617676
4.040000 1.840000 -5.880000 44.548229 -16.902523 2270.239990
4.040000 1.840000 -5.840000 45.047485 -2.014790 2033.335205
4.040000 1.840000 -5.800000 35.482643 11.941687 1401.621826
4.040000 1.880000 -6.200000 -19.279135 -44.114220 2317.749268
4.040000 1.880000 -6.160000 -20.818180 -50.329281 2966.433350
4.040000 1.880000 -6.120000 -19.109058 -68.246605 5022.755371
4.040000 1.880000 -6.080000 -0.747688 -91.377876 8350.474609
4.040000 1.880000 -6.040000 36.920982 -102.485840 11866.506836
4.040000 1.880000 -6.000000 80.253113 -87.160522 14037.518555
4.040000 1.880000 -5.960000 107.627563 -46.740799 13768.394531
4.040000 1.880000 -5.920000 105.254654 0.800095 11079.182617
4.040000 1.880000 -5.880000 77.478928 33.188652 7104.470703
4.040000 1.880000 -5.840000 43.141247 39.384769 3412.327148
4.040000 1.880000 -5.800000 21.403812 25.926865 1130.325562
4.040000 1.920000 -6.200000 16.925789 -30.375885 1209.176758
4.040000 1.920000 -6.160000 -6.413759 -36.606274 1381.155640
4.040000 1.920000 -6.120000 -13.954247 -76.072662 5981.770996
4.040000 1.920000 -6.080000 23.366241 -121.422318 15289.360352
4.040000 1.920000 -6.040000 98.171310 -128.338013 26108.250000
4.040000 1.920000 -6.000000 166.187439 -75.191010 33271.953125
4.040000 1.920000 -5.960000 181.015884 14.053345 32964.246094
4.040000 1.920000 -5.920000 133.408371 86.873207 25344.746094
4.040000 1.920000 -5.880000 58.840363 104.688126 14421.791992
4.040000 1.920000 -5.840000 6.653879 72.292870 5270.532715
4.040000 1.920000 -5.800000 -0.069523 28.602856 818.128174
4.040000 1.960000 -6.200000 27.072741 2.252504 738.007080
4.040000 1.960000 -6.160000 -7.344082 -26.241272 742.539917
4.040000 1.960000 -6.120000 3.682041 -89.081924 7949.146973
4.040000 1.960000 -6.080000 79.306519 -129.606613 23087.398438
4.040000 1.960000 -6.040000 178.785202 -94.668976 40926.363281
4.040000 1.960000 -6.000000 229.320023 12.781837 52751.046875
4.040000 1.960000 -5.960000 188.383057 128.980255 52124.082031
4.040000 1.960000 -5.920000 82.370300 180.753738 39456.781250
4.040000 1.960000 -5.880000 -15.801739 146.356018 21669.779297
4.040000 1.960000 -5.840000 -49.130463 69.388130 7228.514648
4.040000 1.960000 -5.800000 -20.308674 15.192591 643.257080
4.040000 2.000000 -6.200000 10.424068 26.258152 798.151733
4.040000 2.000000 -6.160000 -10.297070 -26.544312 810.630127
4.040000 2.000000 -6.120000 35.989243 -88.541039 9134.741211
4.040000 2.000000 -6.080000 136.473175 -90.705765 26852.464844
4.040000 2.000000 -6.040000 218.876221 -1.826658 47910.136719
4.040000 2.000000 -6.000000 210.291046 133.206406 61966.273438
4.040000 2.000000 -5.960000 104.180573 224.647278 61319.992188
4.040000 2.000000 -5.920000 -29.856239 213.449158 46451.937500
4.040000 2.000000 -5.880000 -105.058578 120.602974 25582.382812
4.040000 2.000000 -5.840000 -89.873062 24.169933 8661.353516
4.040000 2.000000 -5.800000 -26.445875 -11.727894 836.927856
4.040000 2.040000 -6.200000 -13.464918 27.983765 964.395081
4.040000 2.040000 -6.160000 -5.780161 -29.622225 910.886475
4.040000 2.040000 -6.120000 64.515953 -62.951290 8125.172852
4.040000 2.040000 -6.080000 153.357468 -18.130821 23847.240234
4.040000 2.040000 -6.040000 182.659134 97.334511 42838.367188
4.040000 2.040000 -6.000000 110.374916 208.863464 55806.566406
4.040000 2.040000 -5.960000 -25.402397 234.609238 55686.777344
4.040000 2.040000 -5.920000 -134.521027 157.013733 42749.218750
4.040000 2.040000 -5.880000 -151.120163 37.539322 24246.503906
4.040000 2.040000 -5.840000 -86.313667 -39.334068 8997.218750
4.040000 2.040000 -5.800000 -9.282954 -38.116737 1539.058838
4.040000 2.080000 -6.200000 -26.417072 15.163569 927.795532
4.040000 2.080000 -6.160000 1.998756 -25.643387 661.578308
4.040000 2.080000 -6.120000 68.014008 -23.880119 5196.165527
4.040000 2.080000 -6.080000 117.223839 44.232243 15697.919922
4.040000 2.080000 -6.040000 92.983467 141.998199 28809.414062
4.040000 2.080000 -6.000000 -6.881195 195.241730 38166.683594
4.040000 2.080000 -5.960000 -119.506134 156.466492 38763.480469
4.040000 2.080000 -5.920000 -167.726471 49.418709 30574.378906
4.040000 2.080000 -5.880000 -125.871399 -50.400223 18383.791016
4.040000 2.080000 -5.840000 -38.154999 -81.302597 8065.916016
4.040000 2.080000 -5.800000 25.862434 -44.194332 2622.004639
4.040000 2.120000 -6.200000 -26.689545 3.240260 722.831055
4.040000 2.120000 -6.160000 2.803391 -16.033413 264.929352
4.040000 2.120000 -6.120000 45.127014 3.168644 2046.487671
4.040000 2.120000 -6.080000 56.831230 61.121044 6965.570801
4.040000 2.120000 -6.040000 10.825653 115.905632 13551.309570
4.040000 2.120000 -6.000000 -70.973732 116.538628 18618.523438
4.040000 2.120000 -5.960000 -130.121140 51.084396 19541.126953
4.040000 2.120000 -5.920000 -121.375336 -38.194023 16190.754883
4.040000 2.120000 -5.880000 -52.663589 -89.833237 10843.463867
4.040000 2.120000 -5.840000 23.418358 -75.491737 6247.421875
4.040000 2.120000 -5.800000 57.300201 -19.799110 3675.317871
4.040000 2.160000 -6.200000 -24.301483 -1.826114 593.896790
4.040000 2.160000 -6.160000 -5.330704 -11.450282 159.525360
4.040000 2.160000 -6.120000 16.760818 3.387092 292.397430
4.040000 2.160000 -6.080000 15.179863 36.200119 1540.876831
4.040000 2.160000 -6.040000 -19.045383 56.655884 3572.615723
4.040000 2.160000 -6.000000 -62.297623 38.309746 5348.630371
4.040000 2.160000 -5.960000 -76.342834 -12.991043 5996.995605
4.040000 2.160000 -5.920000 -43.615829 -60.259495 5533.547363
4.040000 2.160000 -5.880000 15.086014 -67.055450 4724.021484
4.040000 2.160000 -5.840000 58.510448 -29.315117 4282.848633
4.040000 2.160000 -5.800000 60.757248 23.377548 4237.953125
4.040000 2.200000 -6.200000 -25.600075 -6.140400 693.068359
4.040000 2.200000 -6.160000 -12.615810 -18.206127 490.621765
4.040000 2.200000 -6.120000 5.547043 -13.685223 218.055008
4.040000 2.200000 -6.080000 10.844803 3.851370 132.442795
4.040000 2.200000 -6.040000 -2.143402 15.652725 249.601990
4.040000 2.200000 -6.000000 -18.486267 7.292358 394.920563
4.040000 2.200000 -5.960000 -17.020748 -14.690369 505.512817
4.040000 2.200000 -5.920000 7.551083 -27.316788 803.225769
4.040000 2.200000 -5.880000 37.628830 -13.126121 1588.223877
4.040000 2.200000 -5.840000 48.296074 22.665178 2846.221191
4.040000 2.200000 -5.800000 29.714815 56.814095 4110.811523
4.080000 1.800000 -6.200000 -48.305767 -10.488420 2443.453857
4.080000 1.800000 -6.160000 -38.182522 -45.915039 3566.095947
4.080000 1.800000 -6.120000 -1.113379 -67.048866 4496.790039
4.080000 1.800000 -6.080000 42.390560 -54.980568 4819.822266
4.080000 1.800000 -6.040000 63.175598 -16.158627 4252.257324
4.080000 1.800000 -6.000000 49.633022 21.170673 2911.634521
4.080000 1.800000 -5.960000 18.321606 31.972193 1357.902344
4.080000 1.800000 -5.920000 -2.250179 16.488762 276.942566
4.080000 1.800000 -5.880000 1.457146 -2.624393 9.010715
4.080000 1.800000 -5.840000 17.473557 -4.433659 324.982483
4.080000 1.800000 -5.800000 23.725788 10.133305 665.596863
4.080000 1.840000 -6.200000 -26.821926 -37.165001 2100.653076
4.080000 1.840000 -6.160000 -10.860744 -54.753792 3115.933594
4.080000 1.840000 -6.120000 17.033688 -61.009163 4012.264404
4.080000 1.840000 -6.080000 44.907135 -48.300835 4349.621582
4.080000 1.840000 -6.040000 58.461815 -22.151274 3908.462646
4.080000 1.840000 -6.000000 53.598808 2.640505 2879.804443
4.080000 1.840000 -5.960000 39.285164 14.875851 1764.614990
4.080000 1.840000 -5.920000 27.969908 15.608952 1025.955078
4.080000 1.840000 -5.880000 24.020931 14.057846 774.628174
4.080000 1.840000 -5.840000 22.192106 16.258816 756.838684
4.080000 1.840000 -5.800000 16.565825 19.312279 647.390625
4.080000 1.880000 -6.200000 5.343930 -36.949474 1393.821289
4.080000 1.880000 -6.160000 9.308489 -43.712517 1997.432129
4.080000 1.880000 -6.120000 23.269630 -53.722210 3427.551758
4.080000 1.880000 -6.080000 48.973721 -54.785202 5399.843750
4.080000 1.880000 -6.040000 76.050644 -37.349747 7178.704102
4.080000 1.880000 -6.000000 89.115150 -3.975746 7957.316895
4.080000 1.880000 -5.960000 79.769455 31.135620 7332.592773
4.080000 1.880000 -5.920000 53.191105 52.123775 5546.181641
4.080000 1.880000 -5.880000 24.150681 52.423996 3331.530762
4.080000 1.880000 -5.840000 6.448759 38.104485 1493.538330
4.080000 1.880000 -5.800000 4.385334 22.058901 505.826233
4.080000 1.920000 -6.200000 23.132101 -14.342029 740.787903
4.080000 1.920000 -6.160000 13.348530 -28.708422 1002.356689
4.080000 1.920000 -6.120000 28.382172 -54.432919 3768.490234
4.080000 1.920000 -6.080000 71.617485 -62.111000 8986.839844
4.080000 1.920000 -6.040000 117.793335 -30.207798 14787.780273
4.080000 1.920000 -6.000000 131.646240 32.504776 18387.292969
4.080000 1.920000 -5.960000 98.277946 90.513100 17851.175781
4.080000 1.920000 -5.920000 37.304596 109.678719 13421.053711
4.080000 1.920000 -5.880000 -12.812595 84.879028 7368.611816
4.080000 1.920000 -5.840000 -26.122150 42.339149 2474.970459
4.080000 1.920000 -5.800000 -7.915514 15.611592 306.377167
4.080000 1.960000 -6.200000 17.607285 9.517256 400.594635
4.080000 1.960000 -6.160000 9.514364 -22.277191 586.796387
4.080000 1.960000 -6.120000 43.669155 -54.947250 4926.195312
4.080000 1.960000 -6.080000 107.053589 -46.088963 13584.663086
4.080000 1.960000 -6.040000 152.026154 18.788179 23464.947266
4.080000 1.960000 -6.000000 135.676605 106.320564 29712.203125
4.080000 1.960000 -5.960000 59.839272 159.128265 28902.542969
4.080000 1.960000 -5.920000 -27.291592 143.973541 21473.210938
4.080000 1.960000 -5.880000 -71.240784 79.662354 11421.339844
4.080000 1.960000 -5.840000 -56.159519 18.668262 3502.395508
4.080000 1.960000 -5.800000 -13.361862 0.655237 178.968704
4.080000 2.000000 -6.200000 0.001175 18.301996 334.963074
4.080000 2.000000 -6.160000 9.559307 -22.019150 576.223328
4.080000 2.000000 -6.120000 63.802937 -40.403679 5703.271973
4.080000 2.000000 -6.080000 126.765976 0.473799 16069.836914
4.080000 2.000000 -6.040000 140.752960 90.441864 27991.126953
4.080000 2.000000 -6.000000 78.590210 171.379028 35547.191406
4.080000 2.000000 -5.960000 -26.605291 183.999298 34563.582031
4.080000 2.000000 -5.920000 -105.959900 120.012688 25630.544922
4.080000 2.000000 -5.880000 -113.016869 29.594620 13648.654297
4.080000 2.000000 -5.840000 -61.111591 -23.512779 4287.477539
4.080000 2.000000 -5.800000 -5.728737 -16.243612 296.673370
4.080000 2.040000 -6.200000 -13.493260 12.981590 350.589752
4.080000 2.040000 -6.160000 13.983810 -17.910965 516.349609
4.080000 2.040000 -6.120000 70.097992 -9.771008 5009.201172
4.080000 2.040000 -6.080000 106.942314 53.988544 14351.420898
4.080000 2.040000 -6.040000 78.391777 138.346405 25285.000000
4.080000 2.040000 -6.000000 -12.895070 179.423599 32359.111328
4.080000 2.040000 -5.960000 -109.884804 139.986298 31670.833984
4.080000 2.040000 -5.920000 -147.272217 45.155079 23728.085938
4.080000 2.040000 -5.880000 -107.487473 -38.029125 12999.771484
4.080000 2.040000 -5.840000 -33.207722 -58.877903 4569.360352
4.080000 2.040000 -5.800000 14.639992 -23.628626 772.641296
4.080000 2.080000 -6.200000 -17.701580 4.860569 336.971069
4.080000 2.080000 -6.160000 13.236064 -7.699081 234.469238
4.080000 2.080000 -6.120000 51.399017 18.417089 2981.048096
4.080000 2.080000 -6.080000 54.889828 78.794617 9221.484375
4.080000 2.080000 -6.040000 1.526703 129.879898 16871.117188
4.080000 2.080000 -6.000000 -82.432617 123.728439 22103.863281
4.080000 2.080000 -5.960000 -138.433136 53.775459 22055.533203
4.080000 2.080000 -5.920000 -125.615784 -34.472267 16967.662109
4.080000 2.080000 -5.880000 -57.242134 -81.296097 9885.716797
4.080000 2.080000 -5.840000 12.296184 -63.997368 4246.859375
4.080000 2.080000 -5.800000 37.068161 -12.389296 1527.543213
4.080000 2.120000 -6.200000 -18.878445 0.311869 356.492920
4.080000 2.120000 -6.160000 2.083918 -1.157990 5.683654
4.080000 2.120000 -6.120000 19.049158 23.202179 901.211548
4.080000 2.120000 -6.080000 5.431347 60.510590 3691.031006
4.080000 2.120000 -6.040000 -41.989441 76.039810 7545.166016
4.080000 2.120000 -6.000000 -92.000450 45.216068 10508.576172
4.080000 2.120000 -5.960000 -103.051048 -18.695587 10969.043945
4.080000 2.120000 -5.920000 -61.590134 -71.624680 8923.439453
4.080000 2.120000 -5.880000 3.654942 -76.485687 5863.418945
4.080000 2.120000 -5.840000 46.839569 -35.431477 3449.334961
4.080000 2.120000 -5.800000 45.174660 14.942156 2264.017822
4.080000 2.160000 -6.200000 -22.372913 -4.694596 522.586487
4.080000 2.160000 -6.160000 -11.088018 -8.194341 190.091370
4.080000 2.160000 -6.120000 -1.944445 3.162174 13.780210
4.080000 2.160000 -6.080000 -10.393955 19.699640 496.110138
4.080000 2.160000 -6.040000 -34.433117 20.368481 1600.514526
4.080000 2.160000 -6.000000 -51.879074 -4.533028 2711.986572
4.080000 2.160000 -5.960000 -40.662872 -39.353680 3202.181396
4.080000 2.160000 -5.920000 -2.191418 -54.781757 3005.843262
4.080000 2.160000 -5.880000 37.193478 -35.017071 2609.549805
4.080000 2.160000 -5.840000 49.383423 7.063301 2488.612549
4.080000 2.160000 -5.800000 29.200966 42.151043 2629.406738
4.080000 2.200000 -6.200000 -24.038315 -15.733669 825.388916
4.080000 2.200000 -6.160000 -11.903387 -25.198921 776.676270
4.080000 2.200000 -6.120000 2.911205 -21.014524 450.085358
4.080000 2.200000 -6.080000 7.323158 -8.365864 123.616325
4.080000 2.200000 -6.040000 0.394935 -1.247795 1.712966
4.080000 2.200000 -6.000000 -5.405186 -6.413742 70.352119
4.080000 2.200000 -5.960000 1.703476 -15.008897 228.168808
4.080000 2.200000 -5.920000 18.797718 -11.605286 488.036865
4.080000 2.200000 -5.880000 29.887205 8.988098 974.030945
4.080000 2.200000 -5.840000 21.596067 35.260296 1709.678589
4.080000 2.200000 -5.800000 -3.802580 49.568649 2471.510742
4.120000 1.800000 -6.200000 -21.442989 -17.152473 754.009155
4.120000 1.800000 -6.160000 -4.291270 -35.817062 1301.276978
4.120000 1.800000 -6.120000 27.216574 -37.735718 2164.726318
4.120000 1.800000 -6.080000 54.138435 -14.115182 3130.208496
4.120000 1.800000 -6.040000 56.294571 23.441677 3718.590820
4.120000 1.800000 -6.000000 31.185556 50.384411 3511.127930
4.120000 1.800000 -5.960000 -2.436022 50.196907 2525.663574
4.120000 1.800000 -5.920000 -21.033829 28.616812 1261.343872
4.120000 1.800000 -5.880000 -16.896645 6.877537 332.797119
4.120000 1.800000 -5.840000 -2.642590 0.958625 7.902242
4.120000 1.800000 -5.800000 3.991369 7.963561 79.349327
4.120000 1.840000 -6.200000 -3.691621 -25.970005 688.069214
4.120000 1.840000 -6.160000 12.626849 -33.220848 1263.062012
4.120000 1.840000 -6.120000 36.044319 -27.264872 2042.566162
4.120000 1.840000 -6.080000 52.452171 -4.049674 2767.630127
4.120000 1.840000 -6.040000 49.062836 25.833166 3074.514404
4.120000 1.840000 -6.000000 27.105869 44.773628 2739.405762
4.120000 1.840000 -5.960000 1.583607 43.382332 1884.534546
4.120000 1.840000 -5.920000 -11.991039 28.036831 929.848938
4.120000 1.840000 -5.880000 -10.456629 13.417813 289.378815
4.120000 1.840000 -5.840000 -2.885881 8.417835 79.188263
4.120000 1.840000 -5.800000 1.009356 10.036076 101.741615
4.120000 1.880000 -6.200000 12.515908 -18.202209 487.968384
4.120000 1.880000 -6.160000 20.381517 -22.212557 908.803955
4.120000 1.880000 -6.120000 36.502422 -19.498774 1712.629028
4.120000 1.880000 -6.080000 51.546249 -2.897492 2665.411377
4.120000 1.880000 -6.040000 53.158966 23.306240 3369.056641
4.120000 1.880000 -6.000000 37.222824 45.744522 3478.099854
4.120000 1.880000 -5.960000 11.856192 52.724781 2920.471924
4.120000 1.880000 -5.920000 -9.188065 43.158127 1947.044434
4.120000 1.880000 -5.880000 -16.988401 26.092617 969.430420
4.120000 1.880000 -5.840000 -12.440121 12.621010 314.046509
4.120000 1.880000 -5.800000 -2.933653 8.334261 78.066223
4.120000 1.920000 -6.200000 16.291573 -3.419366 277.107422
4.120000 1.920000 -6.160000 19.671249 -13.664315 573.671570
4.120000 1.920000 -6.120000 38.410057 -17.219931 1771.858521
4.120000 1.920000 -6.080000 60.677032 -0.610895 3682.075439
4.120000 1.920000 -6.040000 66.641479 33.803688 5583.776367
4.120000 1.920000 -6.000000 45.607319 67.076607 6579.298828
4.120000 1.920000 -5.960000 6.630285 78.047607 6135.389648
4.120000 1.920000 -5.920000 -27.516727 60.677208 4438.894043
4.120000 1.920000 -5.880000 -38.182140 28.992567 2298.444824
4.120000 1.920000 -5.840000 -24.970850 5.418739 652.906067
4.120000 1.920000 -5.800000 -4.321480 2.999723 27.673529
4.120000 1.960000 -6.200000 9.861053 6.559720 140.270294
4.120000 1.960000 -6.160000 18.562977 -9.917398 442.938904
4.120000 1.960000 -6.120000 46.208317 -11.356187 2264.171387
4.120000 1.960000 -6.080000 72.005142 16.541496 5458.361816
4.120000 1.960000 -6.040000 69.158699 63.630203 8831.728516
4.120000 1.960000 -6.000000 29.421766 99.355331 10737.122070
4.120000 1.960000 -5.960000 -26.192804 97.176407 10129.316406
4.120000 1.960000 -5.920000 -62.678070 58.057121 7299.169922
4.120000 1.960000 -5.880000 -59.888332 10.702328 3701.152100
4.120000 1.960000 -5.840000 -28.844679 -12.667600 992.483582
4.120000 1.960000 -5.800000 -0.473945 -3.022091 9.357660
4.120000 2.000000 -6.200000 2.029450 8.906370 83.442101
4.120000 2.000000 -6.160000 19.893524 -4.800221 418.794403
4.120000 2.000000 -6.120000 50.719780 5.608681 2603.953369
4.120000 2.000000 -6.080000 66.519737 46.412575 6579.002930
4.120000 2.000000 -6.040000 42.921616 94.935989 10855.107422
4.120000 2.000000 -6.000000 -15.200592 114.218292 13276.875977
4.120000 2.000000 -5.960000 -72.437210 85.044373 12479.695312
4.120000 2.000000 -5.920000 -90.839264 25.418106 8897.851562
4.120000 2.000000 -5.880000 -62.696091 -23.089331 4463.916992
4.120000 2.000000 -5.840000 -16.792690 -30.963749 1240.748169
4.120000 2.000000 -5.800000 8.392425 -5.068669 96.124199
4.120000 2.040000 -6.200000 -3.094454 8.522745 82.212830
4.120000 2.040000 -6.160000 17.265774 4.955009 322.659058
4.120000 2.040000 -6.120000 39.081680 26.401001 2224.390625
4.120000 2.040000 -6.080000 35.817440 67.823929 5882.974609
4.120000 2.040000 -6.040000 -5.027132 99.623138 9950.041992
4.120000 2.040000 -6.000000 -63.826054 90.784546 12315.599609
4.120000 2.040000 -5.960000 -100.400146 39.143101 11612.372070
4.120000 2.040000 -5.920000 -88.233932 -22.197496 8277.956055
4.120000 2.040000 -5.880000 -39.122536 -51.814362 4215.300781
4.120000 2.040000 -5.840000 6.958083 -36.059444 1348.698486
4.120000 2.040000 -5.800000 18.116642 0.630530 328.610291
4.120000 2.080000 -6.200000 -8.534508 8.342134 142.429016
4.120000 2.080000 -6.160000 4.731750 12.172592 170.561447
4.120000 2.080000 -6.120000 12.064497 33.087246 1240.317993
4.120000 2.080000 -6.080000 -4.351065 60.059944 3626.128662
4.120000 2.080000 -6.040000 -44.471092 67.272652 6503.288086
4.120000 2.080000 -6.000000 -82.960693 38.087440 8333.129883
4.120000 2.080000 -5.960000 -88.385071 -14.626415 8025.853027
4.120000 2.080000 -5.920000 -52.763660 -55.270981 5838.885254
4.120000 2.080000 -5.880000 -1.494964 -56.114719 3151.096680
4.120000 2.080000 -5.840000 28.502621 -22.396637 1314.008789
4.120000 2.080000 -5.800000 21.931328 13.636560 666.938965
4.120000 2.120000 -6.200000 -16.572483 4.560030 295.441071
4.120000 2.120000 -6.160000 -12.143802 6.125295 184.991150
4.120000 2.120000 -6.120000 -11.980785 16.033524 400.613098
4.120000 2.120000 -6.080000 -25.677517 25.339167 1301.408203
4.120000 2.120000 -6.040000 -48.362404 18.090836 2666.200439
4.120000 2.120000 -6.000000 -60.216301 -10.203167 3730.107422
4.120000 2.120000 -5.960000 -44.616776 -42.777126 3820.539062
4.120000 2.120000 -5.920000 -6.978073 -54.036476 2968.634277
4.120000 2.120000 -5.880000 26.991737 -33.625523 1859.229736
4.120000 2.120000 -5.840000 34.068405 2.693934 1167.913574
4.120000 2.120000 -5.800000 14.660035 27.698174 982.105469
4.120000 2.160000 -6.200000 -22.020258 -7.177731 536.411560
4.120000 2.160000 -6.160000 -18.606808 -13.385317 525.380005
4.120000 2.160000 -6.120000 -13.404613 -13.163962 352.973572
4.120000 2.160000 -6.080000 -13.834699 -10.382084 299.186554
4.120000 2.160000 -6.040000 -18.015804 -13.819004 515.534058
4.120000 2.160000 -6.000000 -15.579068 -24.681868 851.901978
4.120000 2.160000 -5.960000 -0.231895 -32.237236 1039.293213
4.120000 2.160000 -5.920000 20.419933 -24.147055 1000.053955
4.120000 2.160000 -5.880000 30.197878 -0.637223 912.317871
4.120000 2.160000 -5.840000 20.127365 23.690407 966.346191
4.120000 2.160000 -5.800000 -2.406783 33.377228 1119.831909
4.120000 2.200000 -6.200000 -16.280113 -22.798124 784.796509
4.120000 2.200000 -6.160000 -5.778389 -31.852345 1047.961670
4.120000 2.200000 -6.120000 8.518110 -30.440147 999.160828
4.120000 2.200000 -6.080000 17.333176 -20.811268 733.547852
4.120000 2.200000 -6.040000 18.537636 -10.833679 461.012573
4.120000 2.200000 -6.000000 17.173346 -4.646759 316.516174
4.120000 2.200000 -5.960000 17.479345 0.774406 306.127228
4.120000 2.200000 -5.920000 17.111927 9.827691 389.401550
4.120000 2.200000 -5.880000 10.377748 21.090240 552.495911
4.120000 2.200000 -5.840000 -4.005128 27.667021 781.505127
4.120000 2.200000 -5.800000 -20.239159 24.531567 1011.421326
4.160000 1.800000 -6.200000 -6.627461 -3.093132 53.490715
4.160000 1.800000 -6.160000 4.099848 -10.138256 119.592987
4.160000 1.800000 -6.120000 22.645725 -5.433720 542.354187
4.160000 1.800000 -6.080000 34.596375 16.382011 1465.279541
4.160000 1.800000 -6.040000 25.511700 44.410904 2623.175293
4.160000 1.800000 -6.000000 -3.639210 58.416042 3425.677979
4.160000 1.800000 -5.960000 -34.599472 46.818649 3389.109375
4.160000 1.800000 -5.920000 -47.020966 17.981216 2534.295410
4.160000 1.800000 -5.880000 -36.281994 -7.254187 1369.006226
4.160000 1.800000 -5.840000 -16.066586 -14.604136 471.415955
4.160000 1.800000 -5.800000 -3.531645 -7.735015 72.302979
4.160000 1.840000 -6.200000 -1.567230 -7.056031 52.243790
4.160000 1.840000 -6.160000 9.217680 -9.465288 174.557312
4.160000 1.840000 -6.120000 23.519199 0.720490 553.671814
4.160000 1.840000 -6.080000 26.721222 23.568325 1269.489624
4.160000 1.840000 -6.040000 10.044167 44.803696 2108.256348
4.160000 1.840000 -6.000000 -18.763260 47.725224 2629.756836
4.160000 1.840000 -5.960000 -40.700562 29.075726 2501.933594
4.160000 1.840000 -5.920000 -42.218723 2.485562 1788.598633
4.160000 1.840000 -5.880000 -26.584995 -14.114331 905.976318
4.160000 1.840000 -5.840000 -8.820266 -14.160707 278.322723
4.160000 1.840000 -5.800000 -0.419414 -5.534329 30.804708
4.160000 1.880000 -6.200000 3.746453 -6.687464 58.758083
4.160000 1.880000 -6.160000 12.396671 -6.873437 200.921600
4.160000 1.880000 -6.120000 21.563519 3.975831 480.792542
4.160000 1.880000 -6.080000 19.552639 22.607634 893.410767
4.160000 1.880000 -6.040000 2.669562 36.187313 1316.648193
4.160000 1.880000 -6.000000 -19.960251 33.859840 1544.900391
4.160000 1.880000 -5.960000 -33.944283 16.787746 1434.042725
4.160000 1.880000 -5.920000 -31.914446 -3.097270 1028.125000
4.160000 1.880000 -5.880000 -18.612785 -13.755349 535.645386
4.160000 1.880000 -5.840000 -4.896817 -12.185852 172.473816
4.160000 1.880000 -5.800000 2.021596 -3.959546 19.764854
4.160000 1.920000 -6.200000 7.872179 -3.912307 77.277344
4.160000 1.920000 -6.160000 15.276873 -3.532218 245.859406
4.160000 1.920000 -6.120000 21.816980 5.952943 511.418152
4.160000 1.920000 -6.080000 19.081959 20.794210 796.520386
4.160000 1.920000 -6.040000 5.080905 31.375160 1010.216309
4.160000 1.920000 -6.000000 -13.528991 29.885681 1076.187500
4.160000 1.920000 -5.960000 -26.280750 16.518944 963.553345
4.160000 1.920000 -5.920000 -26.545044 -0.719043 705.156372
4.160000 1.920000 -5.880000 -15.868221 -11.832799 391.815582
4.160000 1.920000 -5.840000 -2.311019 -11.479202 137.112885
4.160000 1.920000 -5.800000 5.225960 -1.792544 30.523869
4.160000 1.960000 -6.200000 10.862221 1.199085 119.425644
4.160000 1.960000 -6.160000 17.698860 3.103513 322.881470
4.160000 1.960000 -6.120000 22.747408 12.342228 669.775146
4.160000 1.960000 -6.080000 19.639397 26.096012 1066.707764
4.160000 1.960000 -6.040000 5.818622 36.526978 1368.076416
4.160000 1.960000 -6.000000 -13.835978 35.341621 1440.464478
4.160000 1.960000 -5.960000 -28.553776 20.568750 1238.391602
4.160000 1.960000 -5.920000 -28.983471 -0.060395 840.045227
4.160000 1.960000 -5.880000 -15.249439 -13.451671 413.492859
4.160000 1.960000 -5.840000 1.688198 -11.221531 128.772766
4.160000 1.960000 -5.800000 8.096977 2.754264 73.147018
4.160000 2.000000 -6.200000 10.469018 9.262064 195.386169
4.160000 2.000000 -6.160000 14.635866 13.626854 399.899719
4.160000 2.000000 -6.120000 16.399008 22.771572 787.471924
4.160000 2.000000 -6.080000 10.547445 34.912575 1330.136475
4.160000 2.000000 -6.040000 -5.610062 42.403439 1829.524414
4.160000 2.000000 -6.000000 -26.212664 36.279221 2003.285645
4.160000 2.000000 -5.960000 -38.164146 15.680960 1702.394531
4.160000 2.000000 -5.920000 -31.711546 -7.770799 1066.007446
4.160000 2.000000 -5.880000 -11.029873 -17.874332 441.149841
4.160000 2.000000 -5.840000 7.161278 -8.522058 123.909370
4.160000 2.000000 -5.800000 8.051311 9.303849 151.385208
4.160000 2.040000 -6.200000 3.081131 17.144497 303.427155
4.160000 2.040000 -6.160000 1.677989 21.415527 461.440460
4.160000 2.040000 -6.120000 -0.925633 27.059113 733.052368
4.160000 2.040000 -6.080000 -8.951200 33.562054 1206.535522
4.160000 2.040000 -6.040000 -24.152344 33.967464 1737.124390
4.160000 2.040000 -6.000000 -39.116108 21.188532 1979.023804
4.160000 2.040000 -5.960000 -41.097656 -1.604505 1691.591797
4.160000 2.040000 -5.920000 -24.956684 -19.692375 1010.625732
4.160000 2.040000 -5.880000 -1.331346 -19.243990 372.103638
4.160000 2.040000 -5.840000 11.159817 -1.869473 128.036438
4.160000 2.040000 -5.800000 3.827978 15.112085 243.028534
4.160000 2.080000 -6.200000 -10.481562 17.685503 422.640137
4.160000 2.080000 -6.160000 -16.621187 16.628098 552.757446
4.160000 2.080000 -6.120000 -19.992609 14.805665 618.912109
4.160000 2.080000 -6.080000 -24.504486 13.777965 790.302124
4.160000 2.080000 -6.040000 -31.695244 8.703790 1080.344482
4.160000 2.080000 -6.000000 -35.242737 -4.231627 1259.957153
4.160000 2.080000 -5.960000 -26.848442 -19.350262 1095.271484
4.160000 2.080000 -5.920000 -7.669472 -24.173111 643.160095
4.160000 2.080000 -5.880000 9.150808 -12.458736 238.957397
4.160000 2.080000 -5.840000 10.331001 6.963004 155.213013
4.160000 2.080000 -5.800000 -3.186576 17.349236 311.150238
4.160000 2.120000 -6.200000 -21.857998 6.393929 518.654419
4.160000 2.120000 -6.160000 -26.870981 -2.739671 729.555420
4.160000 2.120000 -6.120000 -24.264305 -11.018152 710.156189
4.160000 2.120000 -6.080000 -19.358934 -14.769300 592.900574
4.160000 2.120000 -6.040000 -15.642782 -16.952940 532.098816
4.160000 2.120000 -6.000000 -10.548670 -20.178436 518.443726
4.160000 2.120000 -5.960000 -0.902245 -20.947987 439.632202
4.160000 2.120000 -5.920000 9.757832 -13.481921 276.977478
4.160000 2.120000 -5.880000 12.650549 1.336583 161.822845
4.160000 2.120000 -5.840000 3.677743 13.896177 206.629547
4.160000 2.120000 -5.800000 -10.166080 15.070157 330.458832
4.160000 2.160000 -6.200000 -20.724205 -11.527890 562.384949
4.160000 2.160000 -6.160000 -18.312836 -25.014412 961.080811
4.160000 2.160000 -6.120000 -6.295605 -32.665478 1106.668091
4.160000 2.160000 -6.080000 7.236186 -30.458906 980.107361
4.160000 2.160000 -6.040000 15.941767 -21.812649 729.931580
4.160000 2.160000 -6.000000 19.136993 -11.635835 501.617188
4.160000 2.160000 -5.960000 18.521061 -1.709553 345.952271
4.160000 2.160000 -5.920000 14.046375 7.773451 257.727203
4.160000 2.160000 -5.880000 4.902853 14.535309 235.313171
4.160000 2.160000 -5.840000 -6.531974 14.998271 267.614807
4.160000 2.160000 -5.800000 -14.661059 9.147579 298.624878
4.160000 2.200000 -6.200000 -5.151641 -22.911341 551.468933
4.160000 2.200000 -6.160000 5.103014 -32.925743 1110.145386
4.160000 2.200000 -6.120000 22.237602 -32.635208 1559.567749
4.160000 2.200000 -6.080000 36.279175 -20.010059 1716.580933
4.160000 2.200000 -6.040000 39.714935 -0.893186 1578.073853
4.160000 2.200000 -6.000000 31.694132 16.225441 1267.782959
4.160000 2.200000 -5.960000 16.694252 25.482437 928.052673
4.160000 2.200000 -5.920000 0.854801 25.438858 647.866211
4.160000 2.200000 -5.880000 -10.758476 18.312767 451.102234
4.160000 2.200000 -5.840000 -15.673085 8.616008 319.881195
4.160000 2.200000 -5.800000 -15.088179 1.217813 229.136200
4.200000 1.800000 -6.200000 -11.715993 11.290775 264.746094
4.200000 1.800000 -6.160000 -10.000067 4.354263 118.960945
4.200000 1.800000 -6.120000 0.133545 5.119287 26.224928
4.200000 1.800000 -6.080000 5.700188 19.425674 409.848999
4.200000 1.800000 -6.040000 -6.125621 37.079544 1412.415771
4.200000 1.800000 -6.000000 -32.628937 39.761784 2645.646973
4.200000 1.800000 -5.960000 -55.222759 19.348179 3423.905273
4.200000 1.800000 -5.920000 -56.040695 -12.496513 3296.722412
4.200000 1.800000 -5.880000 -34.836014 -34.314865 2391.057861
4.200000 1.800000 -5.840000 -8.654160 -34.525841 1266.928223
4.200000 1.800000 -5.800000 5.217655 -20.614746 452.191650
4.200000 1.840000 -6.200000 -13.849677 0.225458 191.864380
4.200000 1.840000 -6.160000 -7.620152 -3.820311 72.661499
4.200000 1.840000 -6.120000 0.325179 3.448262 11.996254
4.200000 1.840000 -6.080000 -3.300390 18.576828 355.991119
4.200000 1.840000 -6.040000 -22.160437 26.561413 1196.593628
4.200000 1.840000 -6.000000 -44.078163 15.468863 2182.170166
4.200000 1.840000 -5.960000 -51.301941 -10.587198 2743.978027
4.200000 1.840000 -5.920000 -37.262489 -34.101009 2551.372070
4.200000 1.840000 -5.880000 -12.561226 -40.125755 1767.860718
4.200000 1.840000 -5.840000 5.732046 -29.132856 881.579712
4.200000 1.840000 -5.800000 9.871297 -14.037994 294.507812
4.200000 1.880000 -6.200000 -6.300612 -9.372885 127.548683
4.200000 1.880000 -6.160000 0.674569 -7.277704 53.420021
4.200000 1.880000 -6.120000 1.645377 2.820209 10.660842
4.200000 1.880000 -6.080000 -9.067136 11.186727 207.355804
4.200000 1.880000 -6.040000 -25.352989 7.125413 693.545532
4.200000 1.880000 -6.000000 -34.059227 -9.893706 1257.916260
4.200000 1.880000 -5.960000 -27.205122 -28.861649 1573.113403
4.200000 1.880000 -5.920000 -9.260414 -37.079926 1460.676147
4.200000 1.880000 -5.880000 7.577799 -31.102753 1024.804199
4.200000 1.880000 -5.840000 14.575529 -18.026377 537.396301
4.200000 1.880000 -5.800000 12.535656 -7.096447 207.502228
4.200000 1.920000 -6.200000 7.283718 -9.460741 142.558167
4.200000 1.920000 -6.160000 9.448771 -1.810015 92.555420
4.200000 1.920000 -6.120000 2.819988 5.071060 33.667980
4.200000 1.920000 -6.080000 -8.159174 3.427171 78.317627
4.200000 1.920000 -6.040000 -14.366608 -7.090004 256.667572
4.200000 1.920000 -6.000000 -10.528317 -19.140409 477.200745
4.200000 1.920000 -5.960000 0.488229 -24.629066 606.829285
4.200000 1.920000 -5.920000 11.275408 -21.367233 583.693481
4.200000 1.920000 -5.880000 16.650726 -13.211527 451.791138
4.200000 1.920000 -5.840000 16.480444 -4.987090 296.476105
4.200000 1.920000 -5.800000 12.945396 1.325108 169.339188
4.200000 1.960000 -6.200000 16.831619 2.561104 289.862671
4.200000 1.960000 -6.160000 10.376831 10.839653 225.176697
4.200000 1.960000 -6.120000 -0.152798 9.717741 94.457840
4.200000 1.960000 -6.080000 -4.953727 0.477422 24.767342
4.200000 1.960000 -6.040000 -0.440430 -8.282590 68.795273
4.200000 1.960000 -6.000000 8.260306 -9.822589 164.715912
4.200000 1.960000 -5.960000 13.899614 -5.116264 219.375427
4.200000 1.960000 -5.920000 14.437646 0.321918 208.549255
4.200000 1.960000 -5.880000 12.970575 3.568127 180.967346
4.200000 1.960000 -5.840000 11.705003 6.356455 177.411621
4.200000 1.960000 -5.800000 8.531350 10.256490 177.979523
4.200000 2.000000 -6.200000 12.992939 19.378096 544.327026
4.200000 2.000000 -6.160000 -1.135109 21.525665 464.642761
4.200000 2.000000 -6.120000 -9.723049 11.210474 220.212402
4.200000 2.000000 -6.080000 -5.617499 -0.401478 31.717484
4.200000 2.000000 -6.040000 5.210029 -2.542751 33.609978
4.200000 2.000000 -6.000000 11.632194 4.528082 155.811447
4.200000 2.000000 -5.960000 9.538544 11.982510 234.564362
4.200000 2.000000 -5.920000 4.329952 13.636488 204.702286
4.200000 2.000000 -5.880000 2.245795 12.015560 149.417282
4.200000 2.000000 -5.840000 2.241003 12.709382 166.550491
4.200000 2.000000 -5.800000 -1.340107 15.227317 233.667068
4.200000 2.040000 -6.200000 -3.894361 27.819998 789.118347
4.200000 2.040000 -6.160000 -19.873180 19.486631 774.672119
4.200000 2.040000 -6.120000 -21.264847 2.620638 459.061432
4.200000 2.040000 -6.080000 -8.918751 -6.630305 123.505066
4.200000 2.040000 -6.040000 3.776979 -1.749411 17.326012
4.200000 2.040000 -6.000000 6.031878 9.489394 126.432144
4.200000 2.040000 -5.960000 -0.389369 15.759878 248.525375
4.200000 2.040000 -5.920000 -6.356017 14.517026 251.143005
4.200000 2.040000 -5.880000 -7.506057 11.910175 198.193176
4.200000 2.040000 -5.840000 -8.003358 12.380280 217.325073
4.200000 2.040000 -5.800000 -12.280630 12.237436 300.568726
4.200000 2.080000 -6.200000 -22.089684 19.794167 879.763184
4.200000 2.080000 -6.160000 -32.500641 2.072238 1060.585815
4.200000 2.080000 -6.120000 -24.090454 -16.108612 839.837402
4.200000 2.080000 -6.080000 -5.706482 -19.758654 422.968323
4.200000 2.080000 -6.040000 6.769260 -8.744038 122.281082
4.200000 2.080000 -6.000000 6.127371 5.055329 63.101028
4.200000 2.080000 -5.960000 -2.084561 11.534386 137.387451
4.200000 2.080000 -5.920000 -8.977939 10.805513 197.362503
4.200000 2.080000 -5.880000 -12.166501 8.553293 221.182571
4.200000 2.080000 -5.840000 -14.812651 6.823311 265.972198
4.200000 2.080000 -5.800000 -17.594540 2.741458 317.083405
4.200000 2.120000 -6.200000 -27.389168 0.420323 750.343201
4.200000 2.120000 -6.160000 -27.824242 -20.679749 1201.840454
4.200000 2.120000 -6.120000 -10.683867 -34.392853 1297.013306
4.200000 2.120000 -6.080000 10.678799 -30.213539 1026.894775
4.200000 2.120000 -6.040000 21.378357 -12.854991 622.284912
4.200000 2.120000 -6.000000 17.295149 4.621175 320.477417
4.200000 2.120000 -5.960000 5.133790 13.128000 198.700195
4.200000 2.120000 -5.920000 -6.515869 12.493626 198.547241
4.200000 2.120000 -5.880000 -13.792134 7.031624 239.666702
4.200000 2.120000 -5.840000 -16.486473 -0.032570 271.804871
4.200000 2.120000 -5.800000 -14.447399 -6.633746 252.733932
4.200000 2.160000 -6.200000 -15.620194 -15.207743 475.265930
4.200000 2.160000 -6.160000 -7.317447 -32.660126 1120.228882
4.200000 2.160000 -6.120000 14.090994 -38.037544 1645.410889
4.200000 2.160000 -6.080000 34.171104 -25.216194 1803.520874
4.200000 2.160000 -6.040000 39.827354 -1.634679 1588.890259
4.200000 2.160000 -6.000000 28.699783 18.894892 1180.694458
4.200000 2.160000 -5.960000 8.761899 26.585728 783.571777
4.200000 2.160000 -5.920000 -8.951881 20.655064 506.767822
4.200000 2.160000 -5.880000 -17.158604 7.336487 348.241730
4.200000 2.160000 -5.840000 -14.865305 -4.995403 245.931351
4.200000 2.160000 -5.800000 -6.600655 -9.972073 143.010864
4.200000 2.200000 -6.200000 3.037929 -14.785404 227.837189
4.200000 2.200000 -6.160000 14.527029 -25.101910 841.140503
4.200000 2.200000 -6.120000 34.370750 -22.185902 1673.562744
4.200000 2.200000 -6.080000 48.585800 -2.782322 2368.321289
4.200000 2.200000 -6.040000 45.478085 23.819777 2635.637939
4.200000 2.200000 -6.000000 24.644867 42.391403 2404.400391
4.200000 2.200000 -5.960000 -2.669459 42.632336 1824.641968
4.200000 2.200000 -5.920000 -21.584330 26.138039 1149.080322
4.200000 2.200000 -5.880000 -23.790932 4.734499 588.423889
4.200000 2.200000 -5.840000 -12.733139 -8.224249 229.771088
4.200000 2.200000 -5.800000 -0.339839 -7.291476 53.281116
