#kx 	ky 	kz 	real 	imag 	intensity
4.800000 2.800000 -7.200000 -24.558777 -16.080509 861.716309
4.800000 2.800000 -7.160000 -6.239962 -33.949142 1191.481445
4.800000 2.800000 -7.120000 18.957424 -28.815046 1189.690796
4.800000 2.800000 -7.080000 27.966038 -6.011612 818.238708
4.800000 2.800000 -7.040000 14.057742 11.845612 337.938629
4.800000 2.800000 -7.000000 -6.609763 8.105412 109.386658
4.800000 2.800000 -6.960000 -12.288376 -11.304868 278.804199
4.800000 2.800000 -6.920000 1.954489 -25.270973 642.442078
4.800000 2.800000 -6.880000 20.511312 -20.256638 831.045288
4.800000 2.800000 -6.840000 25.276875 -3.606178 651.924927
4.800000 2.800000 -6.800000 15.018623 6.322544 265.533630
4.800000 2.840000 -7.200000 -7.806309 -31.967350 1082.849854
4.800000 2.840000 -7.160000 16.307560 -38.359261 1737.369385
4.800000 2.840000 -7.120000 36.618504 -24.279436 1930.405762
4.800000 2.840000 -7.080000 38.661053 -2.029341 1498.795166
4.800000 2.840000 -7.040000 25.159401 10.411783 741.400696
4.800000 2.840000 -7.000000 11.790065 6.608168 182.673508
4.800000 2.840000 -6.960000 10.744391 -3.921931 130.823486
4.800000 2.840000 -6.920000 19.612225 -7.491395 440.760345
4.800000 2.840000 -6.880000 26.461950 -0.643097 700.648376
4.800000 2.840000 -6.840000 24.088051 8.114402 646.077698
4.800000 2.840000 -6.800000 17.213276 9.750633 391.371735
4.800000 2.880000 -7.200000 11.521771 -28.158314 925.641846
4.800000 2.880000 -7.160000 32.787483 -25.010656 1700.552002
4.800000 2.880000 -7.120000 46.086105 -7.899810 2186.336182
4.800000 2.880000 -7.080000 44.459511 11.972622 2119.991699
4.800000 2.880000 -7.040000 32.393250 23.345764 1594.347412
4.800000 2.880000 -7.000000 20.186613 23.588566 963.919800
4.800000 2.880000 -6.960000 14.558738 18.431578 551.679932
4.800000 2.880000 -6.920000 14.688466 14.724246 432.554443
4.800000 2.880000 -6.880000 15.999977 14.486832 465.867554
4.800000 2.880000 -6.840000 16.061398 15.540017 499.460632
4.800000 2.880000 -6.800000 15.961619 16.251848 518.895874
4.800000 2.920000 -7.200000 17.217169 -13.600368 481.400940
4.800000 2.920000 -7.160000 33.349548 -6.909962 1159.939941
4.800000 2.920000 -7.120000 41.944878 10.023193 1859.837158
4.800000 2.920000 -7.080000 37.793980 28.870438 2261.887207
4.800000 2.920000 -7.040000 23.480671 40.375122 2181.492432
4.800000 2.920000 -7.000000 7.146677 40.317482 1676.574341
4.800000 2.920000 -6.960000 -3.171042 31.541763 1004.938293
4.800000 2.920000 -6.920000 -4.359960 21.144020 466.078827
4.800000 2.920000 -6.880000 0.837993 15.453984 239.527863
4.800000 2.920000 -6.840000 6.741629 16.459547 316.366241
4.800000 2.920000 -6.800000 8.800713 21.713202 548.915649
4.800000 2.960000 -7.200000 9.469558 -4.827479 112.977081
4.800000 2.960000 -7.160000 23.128578 2.837326 542.981567
4.800000 2.960000 -7.120000 28.215199 20.189003 1203.693237
4.800000 2.960000 -7.080000 19.355001 37.665150 1793.279541
4.800000 2.960000 -7.040000 0.695647 44.536316 1983.967285
4.800000 2.960000 -7.000000 -16.639433 37.106880 1653.791260
4.800000 2.960000 -6.960000 -22.861538 21.617764 989.977600
4.800000 2.960000 -6.920000 -16.813812 9.176178 366.906525
4.800000 2.960000 -6.880000 -6.047944 6.987561 85.403641
4.800000 2.960000 -6.840000 0.081376 13.455902 181.067917
4.800000 2.960000 -6.800000 -2.085537 21.046715 447.313660
4.800000 3.000000 -7.200000 1.412249 -8.088312 67.415237
4.800000 3.000000 -7.160000 13.403353 2.601902 186.419769
4.800000 3.000000 -7.120000 12.611213 20.022470 559.942017
4.800000 3.000000 -7.080000 -1.778495 31.195072 976.295532
4.800000 3.000000 -7.040000 -19.557224 27.744778 1152.257690
4.800000 3.000000 -7.000000 -28.094589 13.044538 959.465942
4.800000 3.000000 -6.960000 -22.983477 -1.088112 529.424133
4.800000 3.000000 -6.920000 -10.982939 -4.893960 144.575790
4.800000 3.000000 -6.880000 -2.975130 1.514106 11.143914
4.800000 3.000000 -6.840000 -4.173525 9.922413 115.872589
4.800000 3.000000 -6.800000 -10.877563 12.731520 280.412964
4.800000 3.040000 -7.200000 2.674755 -14.913979 229.581070
4.800000 3.040000 -7.160000 8.836548 -0.434391 78.273277
4.800000 3.040000 -7.120000 0.425068 11.878769 141.285828
4.800000 3.040000 -7.080000 -13.784136 11.161372 314.578613
4.800000 3.040000 -7.040000 -20.310110 -0.841954 413.209473
4.800000 3.040000 -7.000000 -13.893824 -12.159042 340.880646
4.800000 3.040000 -6.960000 -1.781786 -12.684424 164.069382
4.800000 3.040000 -6.920000 4.396362 -3.538419 31.848408
4.800000 3.040000 -6.880000 0.201442 5.401054 29.211962
4.800000 3.040000 -6.840000 -8.404929 6.215092 109.270203
4.800000 3.040000 -6.800000 -12.607872 0.380174 159.102966
4.800000 3.080000 -7.200000 9.068334 -14.407428 289.808655
4.800000 3.080000 -7.160000 5.163625 -1.767125 29.785751
4.800000 3.080000 -7.120000 -6.078140 -1.471559 39.109276
4.800000 3.080000 -7.080000 -9.413475 -12.714230 250.265137
4.800000 3.080000 -7.040000 1.312014 -21.581276 467.472839
4.800000 3.080000 -7.000000 16.458256 -16.170185 532.349060
4.800000 3.080000 -6.960000 20.839972 0.533989 434.589569
4.800000 3.080000 -6.920000 9.777684 13.745137 284.531921
4.800000 3.080000 -6.880000 -6.266567 12.315721 190.946838
4.800000 3.080000 -6.840000 -12.976368 -0.182451 168.419418
4.800000 3.080000 -6.800000 -6.839828 -10.232277 151.482742
4.800000 3.120000 -7.200000 9.285460 -6.999767 135.216492
4.800000 3.120000 -7.160000 -1.642457 -5.294842 30.733013
4.800000 3.120000 -7.120000 -4.791903 -17.771008 338.771057
4.800000 3.120000 -7.080000 9.764642 -28.419714 903.028320
4.800000 3.120000 -7.040000 31.488590 -20.200577 1399.594604
4.800000 3.120000 -7.000000 39.087852 5.530721 1558.449097
4.800000 3.120000 -6.960000 22.744442 28.610962 1335.896729
4.800000 3.120000 -6.920000 -4.866209 29.838333 914.006104
4.800000 3.120000 -6.880000 -20.834511 10.166062 537.425659
4.800000 3.120000 -6.840000 -14.584919 -10.901678 331.566467
4.800000 3.120000 -6.800000 2.964150 -15.529404 249.948578
4.800000 3.160000 -7.200000 -0.271741 -3.842309 14.837181
4.800000 3.160000 -7.160000 -7.217119 -16.755827 332.844543
4.800000 3.160000 -7.120000 6.589493 -32.599380 1106.140991
4.800000 3.160000 -7.080000 34.519978 -28.464518 2001.857666
4.800000 3.160000 -7.040000 51.091076 1.340896 2612.096191
4.800000 3.160000 -7.000000 37.141811 36.208420 2690.563965
4.800000 3.160000 -6.960000 0.605757 47.668785 2272.679932
4.800000 3.160000 -6.920000 -29.661026 27.124752 1615.528687
4.800000 3.160000 -6.880000 -31.301003 -5.881647 1014.346497
4.800000 3.160000 -6.840000 -8.883106 -23.347349 624.008301
4.800000 3.160000 -6.800000 13.114885 -15.560031 414.114777
4.800000 3.200000 -7.200000 -10.111970 -13.186796 276.143524
4.800000 3.200000 -7.160000 -2.268054 -33.580154 1132.770874
4.800000 3.200000 -7.120000 26.756933 -38.718155 2215.028809
4.800000 3.200000 -7.080000 53.411301 -13.663486 3039.458008
4.800000 3.200000 -7.040000 50.396069 27.927013 3319.681641
4.800000 3.200000 -7.000000 14.521113 53.614388 3085.365234
4.800000 3.200000 -6.960000 -27.785271 42.325218 2563.445312
4.800000 3.200000 -6.920000 -44.258087 4.645021 1980.354492
4.800000 3.200000 -6.880000 -26.348785 -27.540716 1452.749512
4.800000 3.200000 -6.840000 5.041335 -31.257912 1002.472107
4.800000 3.200000 -6.800000 22.074959 -11.703163 624.267822
4.840000 2.800000 -7.200000 10.663937 -23.490906 665.542175
4.840000 2.800000 -7.160000 31.019508 -17.213581 1258.517334
4.840000 2.800000 -7.120000 38.102394 4.722551 1474.094971
4.840000 2.800000 -7.080000 24.198261 23.214071 1124.448975
4.840000 2.800000 -7.040000 2.460063 21.920166 486.545593
4.840000 2.800000 -7.000000 -6.490135 4.415066 61.614662
4.840000 2.800000 -6.960000 3.916309 -9.828011 111.927269
4.840000 2.800000 -6.920000 19.879332 -6.365833 435.711670
4.840000 2.800000 -6.880000 22.843056 9.138061 605.309326
4.840000 2.800000 -6.840000 9.847432 17.973848 420.031158
4.840000 2.800000 -6.800000 -3.697972 9.510858 104.131409
4.840000 2.840000 -7.200000 24.349356 -16.534019 866.264893
4.840000 2.840000 -7.160000 41.197056 -5.193336 1724.168091
4.840000 2.840000 -7.120000 44.961548 16.115564 2281.252197
4.840000 2.840000 -7.080000 33.229168 33.102867 2199.977539
4.840000 2.840000 -7.040000 16.082268 36.589027 1597.396240
4.840000 2.840000 -7.000000 5.219894 29.879061 920.005615
4.840000 2.840000 -6.960000 3.084827 22.896280 533.755798
4.840000 2.840000 -6.920000 3.299382 20.753120 441.577942
4.840000 2.840000 -6.880000 0.447966 19.742741 389.976501
4.840000 2.840000 -6.840000 -2.933528 14.369584 215.090530
4.840000 2.840000 -6.800000 -0.213996 6.111737 37.399128
4.840000 2.880000 -7.200000 25.021393 -1.454392 628.185303
4.840000 2.880000 -7.160000 39.029213 11.113896 1646.798096
4.840000 2.880000 -7.120000 41.927391 33.456753 2877.260254
4.840000 2.880000 -7.080000 28.975401 54.573177 3817.805664
4.840000 2.880000 -7.040000 5.199852 63.577839 4069.180176
4.840000 2.880000 -7.000000 -18.451380 56.702621 3555.640625
4.840000 2.880000 -6.960000 -32.225491 38.602543 2528.638672
4.840000 2.880000 -6.920000 -32.478428 18.399931 1393.405762
4.840000 2.880000 -6.880000 -22.084047 4.381357 506.901428
4.840000 2.880000 -6.840000 -7.712742 0.633248 59.887390
4.840000 2.880000 -6.800000 3.619142 6.313637 52.960197
4.840000 2.920000 -7.200000 12.708744 5.850860 195.744736
4.840000 2.920000 -7.160000 26.808607 20.128824 1123.870972
4.840000 2.920000 -7.120000 26.574085 46.857174 2901.776855
4.840000 2.920000 -7.080000 4.216537 70.482086 4985.503906
4.840000 2.920000 -7.040000 -32.336662 73.420624 6436.247559
4.840000 2.920000 -7.000000 -63.131378 50.091446 6494.723633
4.840000 2.920000 -6.960000 -70.326401 12.537188 5102.983887
4.840000 2.920000 -6.920000 -51.484970 -17.758713 2966.073975
4.840000 2.920000 -6.880000 -20.971909 -25.486458 1089.380493
4.840000 2.920000 -6.840000 1.561574 -11.744216 140.365112
4.840000 2.920000 -6.800000 5.593246 9.092464 113.957321
4.840000 2.960000 -7.200000 1.449495 -1.567288 4.557430
4.840000 2.960000 -7.160000 14.711389 18.461870 557.265625
4.840000 2.960000 -7.120000 4.958488 48.292191 2356.722412
4.840000 2.960000 -7.080000 -30.222670 63.893887 4995.838379
4.840000 2.960000 -7.040000 -71.087372 47.329544 7293.500000
4.840000 2.960000 -7.000000 -89.492355 3.777094 8023.148438
4.840000 2.960000 -6.960000 -71.765137 -40.368706 6779.867188
4.840000 2.960000 -6.920000 -30.344427 -57.951649 4279.177734
4.840000 2.960000 -6.880000 6.555931 -42.293137 1831.689575
4.840000 2.960000 -6.840000 17.859554 -10.535236 429.954895
4.840000 2.960000 -6.800000 4.526313 12.802464 184.390579
4.840000 3.000000 -7.200000 3.470612 -14.342372 217.748779
4.840000 3.000000 -7.160000 9.352535 12.511742 244.013611
4.840000 3.000000 -7.120000 -13.574018 36.845184 1541.821533
4.840000 3.000000 -7.080000 -53.237862 33.213940 3937.435791
4.840000 3.000000 -7.040000 -79.637276 -3.625087 6355.236816
4.840000 3.000000 -7.000000 -69.686996 -51.319084 7489.925781
4.840000 3.000000 -6.960000 -27.719265 -77.205872 6729.104492
4.840000 3.000000 -6.920000 17.682014 -65.279236 4574.032227
4.840000 3.000000 -6.880000 37.703430 -28.336815 2224.523926
4.840000 3.000000 -6.840000 25.981009 5.039149 700.405823
4.840000 3.000000 -6.800000 -0.105867 15.251148 232.608734
4.840000 3.040000 -7.200000 15.722023 -17.621532 557.700439
4.840000 3.040000 -7.160000 7.923882 9.284863 148.996567
4.840000 3.040000 -7.120000 -22.498798 17.573767 815.033203
4.840000 3.040000 -7.080000 -50.147659 -5.869649 2549.240723
4.840000 3.040000 -7.040000 -48.470631 -46.701080 4530.393066
4.840000 3.040000 -7.000000 -13.895898 -73.914879 5656.505371
4.840000 3.040000 -6.960000 30.190426 -66.422440 5323.402344
4.840000 3.040000 -6.920000 53.592072 -30.692974 3814.168701
4.840000 3.040000 -6.880000 44.437138 6.451361 2016.279297
4.840000 3.040000 -6.840000 16.287016 21.822861 741.504150
4.840000 3.040000 -6.800000 -7.323149 13.407269 233.383377
4.840000 3.080000 -7.200000 23.641537 -7.769337 619.284851
4.840000 3.080000 -7.160000 4.053568 7.826935 77.692329
4.840000 3.080000 -7.120000 -20.106668 -2.899842 412.687195
4.840000 3.080000 -7.080000 -23.401289 -32.591755 1609.842773
4.840000 3.080000 -7.040000 2.066767 -55.043194 3034.024658
4.840000 3.080000 -7.000000 38.507645 -48.808601 3865.118164
4.840000 3.080000 -6.960000 58.288597 -16.565533 3671.977539
4.840000 3.080000 -6.920000 48.298973 18.176933 2663.191650
4.840000 3.080000 -6.880000 19.586014 32.705437 1453.257568
4.840000 3.080000 -6.840000 -5.361032 23.519623 581.913330
4.840000 3.080000 -6.800000 -13.202734 4.937631 198.692383
4.840000 3.120000 -7.200000 17.647703 3.667963 324.895386
4.840000 3.120000 -7.160000 -2.320441 1.424221 7.412850
4.840000 3.120000 -7.120000 -7.827441 -19.105892 426.303955
4.840000 3.120000 -7.080000 11.005130 -35.936195 1412.523071
4.840000 3.120000 -7.040000 39.994865 -28.606949 2417.946777
4.840000 3.120000 -7.000000 53.746380 1.642450 2891.371094
4.840000 3.120000 -6.960000 39.538338 32.753807 2636.092041
4.840000 3.120000 -6.920000 8.457410 42.559788 1882.863403
4.840000 3.120000 -6.880000 -16.401340 28.155231 1061.720947
4.840000 3.120000 -6.840000 -21.405485 5.423296 487.606934
4.840000 3.120000 -6.800000 -11.771118 -8.523099 211.202438
4.840000 3.160000 -7.200000 3.937201 2.900513 23.914530
4.840000 3.160000 -7.160000 -3.285433 -12.311866 162.376114
4.840000 3.160000 -7.120000 11.178667 -26.745472 840.282837
4.840000 3.160000 -7.080000 36.376335 -19.788641 1714.828125
4.840000 3.160000 -7.040000 47.631958 9.574318 2360.470947
4.840000 3.160000 -7.000000 30.566063 39.950970 2530.364258
4.840000 3.160000 -6.960000 -4.357070 47.234993 2250.128662
4.840000 3.160000 -6.920000 -31.571497 26.992189 1725.337646
4.840000 3.160000 -6.880000 -34.153000 -2.863944 1174.629517
4.840000 3.160000 -6.840000 -17.314014 -20.543083 721.793335
4.840000 3.160000 -6.800000 0.523890 -19.896824 396.158081
4.840000 3.200000 -7.200000 -2.233052 -10.818962 122.036461
4.840000 3.200000 -7.160000 7.998798 -25.749344 727.009460
4.840000 3.200000 -7.120000 31.569515 -22.860312 1519.228149
4.840000 3.200000 -7.080000 45.475487 3.494495 2080.231201
4.840000 3.200000 -7.040000 31.592142 35.261505 2241.437256
4.840000 3.200000 -7.000000 -4.314703 46.020515 2136.504639
4.840000 3.200000 -6.960000 -36.355774 25.720634 1983.293335
4.840000 3.200000 -6.920000 -41.875446 -9.951207 1852.579468
4.840000 3.200000 -6.880000 -21.093903 -34.709839 1649.725708
4.840000 3.200000 -6.840000 5.929022 -35.337879 1283.919067
4.840000 3.200000 -6.800000 20.051569 -20.298605 814.098755
4.880000 2.800000 -7.200000 38.699497 4.620360 1518.998901
4.880000 2.800000 -7.160000 40.029846 28.326874 2404.800293
4.880000 2.800000 -7.120000 20.349518 46.662170 2591.460938
4.880000 2.800000 -7.080000 -6.876538 43.030788 1898.935547
4.880000 2.800000 -7.040000 -19.615829 20.870073 820.340698
4.880000 2.800000 -7.000000 -9.736546 1.274547 96.424782
4.880000 2.800000 -6.960000 8.393169 1.486460 72.654854
4.880000 2.800000 -6.920000 13.143341 16.998535 461.697632
4.880000 2.800000 -6.880000 -1.247684 26.761801 717.750671
4.880000 2.800000 -6.840000 -18.566566 16.156948 605.764343
4.880000 2.800000 -6.800000 -18.182760 -6.946378 378.864929
4.880000 2.840000 -7.200000 29.907373 22.026672 1379.625244
4.880000 2.840000 -7.160000 28.131201 39.143543 2323.581299
4.880000 2.840000 -7.120000 14.341784 52.661064 2978.874512
4.880000 2.840000 -7.080000 -4.529869 54.789364 3022.394287
4.880000 2.840000 -7.040000 -18.965942 46.920780 2561.266602
4.880000 2.840000 -7.000000 -25.781208 36.414299 1990.671875
4.880000 2.840000 -6.960000 -28.827024 27.759254 1601.573486
4.880000 2.840000 -6.920000 -31.593443 18.829315 1352.688721
4.880000 2.840000 -6.880000 -31.401115 6.365461 1026.549072
4.880000 2.840000 -6.840000 -22.724874 -6.658515 560.755737
4.880000 2.840000 -6.800000 -5.838127 -11.586541 168.331665
4.880000 2.880000 -7.200000 9.146070 26.416094 781.460571
4.880000 2.880000 -7.160000 12.125227 40.676521 1801.600464
4.880000 2.880000 -7.120000 2.368899 60.054417 3612.144531
4.880000 2.880000 -7.080000 -22.803120 72.216919 5735.265625
4.880000 2.880000 -7.040000 -54.932755 65.834991 7351.853516
4.880000 2.880000 -7.000000 -78.767273 39.274368 7746.759277
4.880000 2.880000 -6.960000 -81.910637 2.837299 6717.402832
4.880000 2.880000 -6.920000 -62.901802 -27.092110 4690.619141
4.880000 2.880000 -6.880000 -32.175438 -38.004028 2479.564941
4.880000 2.880000 -6.840000 -5.352603 -28.483643 839.968201
4.880000 2.880000 -6.800000 6.363144 -8.017734 104.773651
4.880000 2.920000 -7.200000 -7.123903 12.175584 198.994843
4.880000 2.920000 -7.160000 0.254439 32.997635 1088.908569
4.880000 2.920000 -7.120000 -17.170227 61.227531 4043.627197
4.880000 2.920000 -7.080000 -60.252213 70.741257 8634.654297
4.880000 2.920000 -7.040000 -105.782364 43.234306 13059.113281
4.880000 2.920000 -7.000000 -122.330292 -13.479988 15146.410156
4.880000 2.920000 -6.960000 -95.573280 -68.302719 13799.513672
4.880000 2.920000 -6.920000 -40.868752 -89.899414 9752.160156
4.880000 2.920000 -6.880000 8.447530 -70.475647 5038.177734
4.880000 2.920000 -6.840000 26.824718 -29.834003 1609.633301
4.880000 2.920000 -6.800000 13.899912 2.643820 200.197327
4.880000 2.960000 -7.200000 -4.763577 -8.889995 101.723663
4.880000 2.960000 -7.160000 -2.999584 23.040808 539.876343
4.880000 2.960000 -7.120000 -37.867180 49.751308 3909.115967
4.880000 2.960000 -7.080000 -93.129570 37.496624 10079.114258
4.880000 2.960000 -7.040000 -127.599342 -20.627413 16707.082031
4.880000 2.960000 -7.000000 -108.791588 -93.129684 20508.746094
4.880000 2.960000 -6.960000 -42.444084 -132.929291 19471.697266
4.880000 2.960000 -6.920000 30.135248 -115.546059 14259.024414
4.880000 2.960000 -6.880000 65.386932 -58.290588 7673.243164
4.880000 2.960000 -6.840000 51.340427 -3.587715 2648.711182
4.880000 2.960000 -6.800000 12.260479 16.873053 435.019226
4.880000 3.000000 -7.200000 13.484016 -18.034950 507.078125
4.880000 3.000000 -7.160000 -1.146950 17.781723 317.505157
4.880000 3.000000 -7.120000 -49.803970 26.746700 3195.821533
4.880000 3.000000 -7.080000 -95.732254 -14.446267 9373.358398
4.880000 3.000000 -7.040000 -94.753845 -87.194534 16581.177734
4.880000 3.000000 -7.000000 -35.381615 -141.398010 21245.255859
4.880000 3.000000 -6.960000 47.598000 -136.486176 20894.046875
4.880000 3.000000 -6.920000 100.525787 -75.939865 15872.296875
4.880000 3.000000 -6.880000 94.726761 -3.429088 8984.917969
4.880000 3.000000 -6.840000 46.868019 35.050102 3425.121094
4.880000 3.000000 -6.800000 -0.720489 27.120628 736.047607
4.880000 3.040000 -7.200000 30.126245 -7.831136 968.917419
4.880000 3.040000 -7.160000 -1.409215 17.117765 295.003784
4.880000 3.040000 -7.120000 -47.040623 0.535841 2213.107178
4.880000 3.040000 -7.080000 -63.117851 -56.018341 7121.917480
4.880000 3.040000 -7.040000 -24.119780 -112.459061 13228.803711
4.880000 3.040000 -7.000000 50.962334 -122.062759 17496.476562
4.880000 3.040000 -6.960000 111.609375 -72.281052 17681.203125
4.880000 3.040000 -6.920000 117.682449 3.743545 13863.172852
4.880000 3.040000 -6.880000 71.683327 55.753277 8246.927734
4.880000 3.040000 -6.840000 12.607862 57.728859 3491.579346
4.880000 3.040000 -6.800000 -20.147579 24.137127 988.525879
4.880000 3.080000 -7.200000 30.057024 10.706025 1018.043640
4.880000 3.080000 -7.160000 -6.256261 14.478797 248.776367
4.880000 3.080000 -7.120000 -31.213806 -19.265022 1345.442749
4.880000 3.080000 -7.080000 -14.658464 -66.047699 4577.168945
4.880000 3.080000 -7.040000 39.913208 -84.271721 8694.787109
4.880000 3.080000 -7.000000 94.597992 -51.851059 11637.312500
4.880000 3.080000 -6.960000 108.361389 12.918308 11909.073242
4.880000 3.080000 -6.920000 71.745560 66.372406 9552.721680
4.880000 3.080000 -6.880000 13.051718 76.223572 5980.379883
4.880000 3.080000 -6.840000 -28.113939 45.666119 2875.787842
4.880000 3.080000 -6.800000 -33.229103 4.666750 1125.951904
4.880000 3.120000 -7.200000 15.089664 19.545200 609.712830
4.880000 3.120000 -7.160000 -10.037921 4.914424 124.911423
4.880000 3.120000 -7.120000 -9.161627 -27.265205 827.326843
4.880000 3.120000 -7.080000 23.307589 -46.286545 2685.687988
4.880000 3.120000 -7.040000 63.544868 -29.076630 4883.400391
4.880000 3.120000 -7.000000 77.645172 17.530315 6336.084961
4.880000 3.120000 -6.960000 51.322296 61.356850 6398.641113
4.880000 3.120000 -6.920000 2.025600 72.247925 5223.865723
4.880000 3.120000 -6.880000 -37.167019 46.463902 3540.281250
4.880000 3.120000 -6.840000 -45.319511 6.240672 2092.804199
4.880000 3.120000 -6.800000 -27.031307 -22.125528 1220.230591
4.880000 3.160000 -7.200000 1.103709 11.618284 136.202698
4.880000 3.160000 -7.160000 -4.947704 -8.026762 88.908691
4.880000 3.160000 -7.120000 11.765568 -23.429201 687.356079
4.880000 3.160000 -7.080000 37.656090 -15.378849 1654.490112
4.880000 3.160000 -7.040000 47.822563 15.094513 2514.841797
4.880000 3.160000 -7.000000 28.693382 45.836044 2924.252930
4.880000 3.160000 -6.960000 -9.114197 52.599537 2849.779785
4.880000 3.160000 -6.920000 -40.013519 29.875641 2493.635498
4.880000 3.160000 -6.880000 -45.282272 -5.879255 2085.049805
4.880000 3.160000 -6.840000 -26.598606 -32.059845 1735.319458
4.880000 3.160000 -6.800000 -0.253042 -38.037636 1446.925781
4.880000 3.200000 -7.200000 1.329643 -3.168911 11.809951
4.880000 3.200000 -7.160000 9.756647 -14.557495 307.112823
4.880000 3.200000 -7.120000 26.397352 -10.966164 817.076904
4.880000 3.200000 -7.080000 33.407082 9.125072 1199.300049
4.880000 3.200000 -7.040000 19.157934 30.380383 1289.994141
4.880000 3.200000 -7.000000 -9.663628 33.583878 1221.262573
4.880000 3.200000 -6.960000 -32.870476 13.078972 1251.527588
4.880000 3.200000 -6.920000 -34.097603 -18.183289 1493.278442
4.880000 3.200000 -6.880000 -13.863907 -40.278999 1814.605713
4.880000 3.200000 -6.840000 13.206638 -42.568329 1986.477905
4.880000 3.200000 -6.800000 32.335667 -29.303904 1904.314087
4.920000 2.800000 -7.200000 31.963720 47.130264 3242.941162
4.920000 2.800000 -7.160000 6.495293 66.787033 4502.696777
4.920000 2.800000 -7.120000 -28.958279 60.947544 4553.185059
4.920000 2.800000 -7.080000 -48.481495 30.551895 3283.873535
4.920000 2.800000 -7.040000 -38.629559 -0.792587 1492.870972
4.920000 2.800000 -7.000000 -12.793591 -9.057835 245.720337
4.920000 2.800000 -6.960000 1.815695 6.241550 42.253700
4.920000 2.800000 -6.920000 -8.090019 21.974236 548.315430
4.920000 2.800000 -6.880000 -28.494270 15.929377 1065.668457
4.920000 2.800000 -6.840000 -33.301117 -9.744187 1203.913574
4.920000 2.800000 -6.800000 -12.079099 -30.853819 1097.862793
4.920000 2.840000 -7.200000 0.133502 51.241299 2625.688477
4.920000 2.840000 -7.160000 -18.048454 57.706261 3655.759277
4.920000 2.840000 -7.120000 -38.283649 52.291225 4200.010254
4.920000 2.840000 -7.080000 -51.491920 37.314087 4043.759033
4.920000 2.840000 -7.040000 -54.870506 21.009598 3452.175781
4.920000 2.840000 -7.000000 -53.248665 8.709328 2911.272705
4.920000 2.840000 -6.960000 -51.620548 -1.792519 2667.894043
4.920000 2.840000 -6.920000 -48.111374 -15.093552 2542.519531
4.920000 2.840000 -6.880000 -36.310837 -29.470421 2186.982666
4.920000 2.840000 -6.840000 -14.865534 -35.772045 1500.623291
4.920000 2.840000 -6.800000 7.176930 -26.514585 754.531616
4.920000 2.880000 -7.200000 -24.635546 29.815044 1495.846924
4.920000 2.880000 -7.160000 -29.881035 38.206520 2352.614258
4.920000 2.880000 -7.120000 -47.662323 46.179092 4404.205566
4.920000 2.880000 -7.080000 -75.825760 40.354286 7378.014160
4.920000 2.880000 -7.040000 -100.387634 13.088158 10248.976562
4.920000 2.880000 -7.000000 -104.414497 -29.158630 11752.613281
4.920000 2.880000 -6.960000 -80.771774 -67.891785 11133.374023
4.920000 2.880000 -6.920000 -38.585453 -84.375496 8608.061523
4.920000 2.880000 -6.880000 1.983307 -72.349060 5238.320312
4.920000 2.880000 -6.840000 23.029579 -41.974712 2292.238037
4.920000 2.880000 -6.800000 20.158405 -12.132909 553.568787
4.920000 2.920000 -7.200000 -24.119272 -1.979984 585.659668
4.920000 2.920000 -7.160000 -27.304014 20.637711 1171.424316
4.920000 2.920000 -7.120000 -60.672607 36.152210 4988.147461
4.920000 2.920000 -7.080000 -108.191147 15.905315 11958.303711
4.920000 2.920000 -7.040000 -132.839462 -43.783554 19563.322266
4.920000 2.920000 -7.000000 -107.082047 -112.642113 24154.808594
4.920000 2.920000 -6.960000 -38.427643 -147.872345 23342.914062
4.920000 2.920000 -6.920000 34.080097 -128.291168 17620.076172
4.920000 2.920000 -6.880000 70.189384 -70.869583 9949.047852
4.920000 2.920000 -6.840000 58.788147 -15.373684 3692.396240
4.920000 2.920000 -6.800000 22.190620 8.016911 556.694519
4.920000 2.960000 -7.200000 -0.283209 -19.981846 399.354370
4.920000 2.960000 -7.160000 -18.357458 13.215469 511.644897
4.920000 2.960000 -7.120000 -71.354202 16.021296 5348.104492
4.920000 2.960000 -7.080000 -118.156410 -36.196774 15271.143555
4.920000 2.960000 -7.040000 -110.084869 -121.131058 26791.412109
4.920000 2.960000 -7.000000 -35.867241 -181.739838 34315.828125
4.920000 2.960000 -6.960000 63.527756 -172.702972 33862.093750
4.920000 2.960000 -6.920000 126.388313 -99.295685 25833.638672
4.920000 2.960000 -6.880000 120.215271 -12.551645 14609.254883
4.920000 2.960000 -6.840000 64.826515 34.182701 5370.934082
4.920000 2.960000 -6.800000 9.722624 26.613794 802.823486
4.920000 3.000000 -7.200000 26.114067 -12.101116 828.381531
4.920000 3.000000 -7.160000 -13.201283 14.288523 378.435730
4.920000 3.000000 -7.120000 -69.735275 -11.324299 4991.248535
4.920000 3.000000 -7.080000 -87.598541 -88.246849 15461.010742
4.920000 3.000000 -7.040000 -32.437546 -164.883057 28238.617188
4.920000 3.000000 -7.000000 71.942429 -178.769196 37134.140625
4.920000 3.000000 -6.960000 158.221924 -111.340317 37430.843750
4.920000 3.000000 -6.920000 170.706024 -5.853035 29174.804688
4.920000 3.000000 -6.880000 110.559677 69.009613 16985.769531
4.920000 3.000000 -6.840000 30.145351 75.650856 6631.794434
4.920000 3.000000 -6.800000 -15.229767 32.334316 1277.453857
4.920000 3.040000 -7.200000 34.174870 11.703077 1304.883789
4.920000 3.040000 -7.160000 -15.367813 15.409346 473.617615
4.920000 3.040000 -7.120000 -52.097118 -34.750538 3921.709717
4.920000 3.040000 -7.080000 -29.183453 -108.251205 12569.997070
4.920000 3.040000 -7.040000 54.751755 -143.422668 23567.816406
4.920000 3.040000 -7.000000 146.553879 -100.754303 31629.468750
4.920000 3.040000 -6.960000 180.364609 -0.762165 32531.972656
4.920000 3.040000 -6.920000 133.282318 90.911865 26029.142578
4.920000 3.040000 -6.880000 43.206154 118.223282 15843.515625
4.920000 3.040000 -6.840000 -26.490763 78.416351 6850.884766
4.920000 3.040000 -6.800000 -40.140038 16.216751 1874.205688
4.920000 3.080000 -7.200000 20.840343 29.893276 1327.927856
4.920000 3.080000 -7.160000 -19.642561 10.025676 486.344360
4.920000 3.080000 -7.120000 -25.129940 -44.026161 2569.816895
4.920000 3.080000 -7.080000 24.315365 -87.465118 8241.383789
4.920000 3.080000 -7.040000 100.428009 -74.403030 15621.595703
4.920000 3.080000 -7.000000 145.619507 -1.182243 21206.439453
4.920000 3.080000 -6.960000 121.607666 85.928108 22172.064453
4.920000 3.080000 -6.920000 42.981064 128.182922 18278.232422
4.920000 3.080000 -6.880000 -35.909737 102.735992 11844.193359
4.920000 3.080000 -6.840000 -67.364967 37.629211 5953.996582
4.920000 3.080000 -6.800000 -46.155552 -17.555803 2438.541260
4.920000 3.120000 -7.200000 1.284574 29.443939 868.595703
4.920000 3.120000 -7.160000 -18.107531 -0.337814 327.996765
4.920000 3.120000 -7.120000 -0.433804 -37.665768 1418.898315
4.920000 3.120000 -7.080000 48.050911 -45.277206 4358.915527
4.920000 3.120000 -7.040000 89.741989 -5.804394 8087.315430
4.920000 3.120000 -7.000000 86.274261 58.531082 10869.135742
4.920000 3.120000 -6.960000 32.994762 101.763405 11444.445312
4.920000 3.120000 -6.920000 -35.516640 92.459030 9810.103516
4.920000 3.120000 -6.880000 -74.346458 39.181015 7062.547852
4.920000 3.120000 -6.840000 -64.316856 -19.488598 4516.463867
4.920000 3.120000 -6.800000 -22.660753 -48.645821 2879.925537
4.920000 3.160000 -7.200000 -7.343926 15.936895 307.917877
4.920000 3.160000 -7.160000 -8.260893 -7.912257 130.846161
4.920000 3.160000 -7.120000 14.211813 -22.352377 701.604370
4.920000 3.160000 -7.080000 42.513409 -9.120478 1890.572998
4.920000 3.160000 -7.040000 49.288532 26.993141 3157.989014
4.920000 3.160000 -7.000000 21.987637 58.933392 3956.600586
4.920000 3.160000 -6.960000 -24.008690 59.429695 4108.305664
4.920000 3.160000 -6.920000 -56.959194 24.517241 3845.444824
4.920000 3.160000 -6.880000 -54.704414 -23.216637 3531.585205
4.920000 3.160000 -6.840000 -21.185257 -53.855667 3349.248047
4.920000 3.160000 -6.800000 20.022987 -53.168808 3227.842041
4.920000 3.200000 -7.200000 -1.769621 5.082617 28.964552
4.920000 3.200000 -7.160000 4.363948 -6.391386 59.893856
4.920000 3.200000 -7.120000 18.350319 -6.213026 375.335876
4.920000 3.200000 -7.080000 25.862864 8.298321 737.749817
4.920000 3.200000 -7.040000 15.827911 25.451811 898.317444
4.920000 3.200000 -7.000000 -7.922497 28.092995 851.982300
4.920000 3.200000 -6.960000 -28.000019 8.959600 864.275513
4.920000 3.200000 -6.920000 -27.448978 -21.882713 1232.299561
4.920000 3.200000 -6.880000 -3.716774 -44.575302 2000.771973
4.920000 3.200000 -6.840000 29.725826 -44.885803 2898.360107
4.920000 3.200000 -6.800000 54.533501 -23.739630 3537.472656
4.960000 2.800000 -7.200000 -6.870916 69.220001 4838.618164
4.960000 2.800000 -7.160000 -46.973839 65.355309 6477.857910
4.960000 2.800000 -7.120000 -74.908348 30.644228 6550.329590
4.960000 2.800000 -7.080000 -68.872185 -13.454830 4924.410156
4.960000 2.800000 -7.040000 -35.347321 -35.665691 2521.474609
4.960000 2.800000 -7.000000 -4.443998 -24.748474 632.236145
4.960000 2.800000 -6.960000 -0.815266 -0.315605 0.764265
4.960000 2.800000 -6.920000 -19.738014 7.489422 445.680634
4.960000 2.800000 -6.880000 -33.286240 -11.187447 1233.132690
4.960000 2.800000 -6.840000 -20.109873 -36.604229 1744.276611
4.960000 2.800000 -6.800000 12.472275 -40.851265 1824.383423
4.960000 2.840000 -7.200000 -42.403404 45.904060 3905.231445
4.960000 2.840000 -7.160000 -63.158340 33.322075 5099.336914
4.960000 2.840000 -7.120000 -73.929131 9.916857 5563.860352
4.960000 2.840000 -7.080000 -70.133614 -13.986069 5114.333984
4.960000 2.840000 -7.040000 -57.464111 -29.140556 4151.295898
4.960000 2.840000 -7.000000 -45.419792 -35.683495 3336.269287
4.960000 2.840000 -6.960000 -36.957298 -40.857395 3035.168701
4.960000 2.840000 -6.920000 -26.303970 -48.594105 3053.285889
4.960000 2.840000 -6.880000 -7.784359 -53.245010 2895.627441
4.960000 2.840000 -6.840000 14.468699 -45.422905 2272.583496
4.960000 2.840000 -6.800000 27.918896 -23.988503 1354.912964
4.960000 2.880000 -7.200000 -48.443710 4.483316 2366.893066
4.960000 2.880000 -7.160000 -55.225651 4.083281 3066.545654
4.960000 2.880000 -7.120000 -71.003067 -2.244752 5046.474609
4.960000 2.880000 -7.080000 -87.176514 -24.548708 8202.383789
4.960000 2.880000 -7.040000 -87.984718 -61.411499 11512.682617
4.960000 2.880000 -7.000000 -63.280849 -97.593826 13529.020508
4.960000 2.880000 -6.960000 -18.443230 -113.527756 13228.704102
4.960000 2.880000 -6.920000 27.277466 -99.504700 10645.246094
4.960000 2.880000 -6.880000 53.324261 -63.255959 6844.792969
4.960000 2.880000 -6.840000 51.640427 -24.706066 3277.123291
4.960000 2.880000 -6.800000 31.055651 -2.077313 968.768677
4.960000 2.920000 -7.200000 -22.398586 -25.054110 1129.405029
4.960000 2.920000 -7.160000 -35.809948 -7.900167 1344.765015
4.960000 2.920000 -7.120000 -71.954147 -14.465540 5386.651367
4.960000 2.920000 -7.080000 -98.903969 -60.799435 13478.566406
4.960000 2.920000 -7.040000 -81.427956 -127.108727 22787.140625
4.960000 2.920000 -7.000000 -14.480923 -169.235062 28850.203125
4.960000 2.920000 -6.960000 67.783142 -154.563385 28484.394531
4.960000 2.920000 -6.920000 117.562836 -90.157532 21949.400391
4.960000 2.920000 -6.880000 111.259537 -17.265091 12676.767578
4.960000 2.920000 -6.840000 65.847366 22.521650 4843.100098
4.960000 2.920000 -6.800000 20.751759 18.496693 772.763123
4.960000 2.960000 -7.200000 13.386298 -23.472830 730.166748
4.960000 2.960000 -7.160000 -21.670849 -4.169975 487.014404
4.960000 2.960000 -7.120000 -70.007835 -33.847168 6046.728027
4.960000 2.960000 -7.080000 -78.503609 -109.409431 18133.240234
4.960000 2.960000 -7.040000 -16.887514 -179.708038 32580.166016
4.960000 2.960000 -7.000000 88.558487 -185.791077 42360.929688
4.960000 2.960000 -6.960000 171.566208 -113.197601 42248.660156
4.960000 2.960000 -6.920000 180.074249 -6.877686 32474.037109
4.960000 2.960000 -6.880000 118.513443 66.131134 18418.763672
4.960000 2.960000 -6.840000 39.887733 71.417480 6691.487793
4.960000 2.960000 -6.800000 -2.311375 29.447334 872.487976
4.960000 3.000000 -7.200000 31.727837 2.556641 1013.192078
4.960000 3.000000 -7.160000 -19.661264 2.768270 394.228638
4.960000 3.000000 -7.120000 -55.172459 -55.469845 6120.903809
4.960000 3.000000 -7.080000 -23.188011 -137.113693 19337.847656
4.960000 3.000000 -7.040000 76.142807 -172.739349 35636.609375
4.960000 3.000000 -7.000000 181.408493 -119.204987 47118.871094
4.960000 3.000000 -6.960000 218.258942 -1.910517 47640.613281
4.960000 3.000000 -6.920000 162.608566 103.431541 37139.628906
4.960000 3.000000 -6.880000 59.700584 133.928513 21501.005859
4.960000 3.000000 -6.840000 -17.660393 88.772789 8192.497070
4.960000 3.000000 -6.800000 -30.438200 21.064342 1370.190552
4.960000 3.040000 -7.200000 23.314192 29.002241 1384.681519
4.960000 3.040000 -7.160000 -23.874367 2.650131 577.008606
4.960000 3.040000 -7.120000 -27.354515 -66.360733 5152.016602
4.960000 3.040000 -7.080000 39.333939 -121.632744 16341.683594
4.960000 3.040000 -7.040000 140.789398 -103.598457 30554.294922
4.960000 3.040000 -7.000000 202.358810 -6.437014 40990.523438
4.960000 3.040000 -6.960000 173.259125 110.150719 42151.906250
4.960000 3.040000 -6.920000 71.638229 168.951630 33676.687500
4.960000 3.040000 -6.880000 -31.367214 139.333832 20397.818359
4.960000 3.040000 -6.840000 -72.870651 58.142353 8690.665039
4.960000 3.040000 -6.800000 -46.646858 -8.923054 2255.550293
4.960000 3.080000 -7.200000 1.253659 36.932892 1365.610107
4.960000 3.080000 -7.160000 -24.457523 -4.281351 616.500427
4.960000 3.080000 -7.120000 1.502096 -58.810574 3460.939941
4.960000 3.080000 -7.080000 74.574219 -72.660774 10840.902344
4.960000 3.080000 -7.040000 142.092697 -16.215885 20453.289062
4.960000 3.080000 -7.000000 144.976334 82.313728 27793.687500
4.960000 3.080000 -6.960000 70.887100 155.287216 29139.099609
4.960000 3.080000 -6.920000 -32.251324 151.845917 24097.330078
4.960000 3.080000 -6.880000 -96.324783 80.000854 15678.600586
4.960000 3.080000 -6.840000 -89.056000 -4.004294 7947.005371
4.960000 3.080000 -6.800000 -34.357323 -46.305557 3324.630371
4.960000 3.120000 -7.200000 -14.505939 26.994799 939.141479
4.960000 3.120000 -7.160000 -17.838543 -10.369234 425.734650
4.960000 3.120000 -7.120000 18.042892 -38.195084 1784.410400
4.960000 3.120000 -7.080000 70.691116 -22.071632 5484.390625
4.960000 3.120000 -7.040000 94.034622 38.701050 10340.281250
4.960000 3.120000 -7.000000 58.690430 103.371841 14130.303711
4.960000 3.120000 -6.960000 -18.451988 121.482750 15098.534180
4.960000 3.120000 -6.920000 -85.406250 76.358505 13124.848633
4.960000 3.120000 -6.880000 -98.074829 -0.561295 9618.987305
4.960000 3.120000 -6.840000 -55.146000 -57.496624 6346.943359
4.960000 3.120000 -6.800000 6.103989 -64.915932 4251.336914
4.960000 3.160000 -7.200000 -15.771236 13.886916 441.578339
4.960000 3.160000 -7.160000 -8.756514 -9.759030 171.915192
4.960000 3.160000 -7.120000 18.946571 -17.539127 666.593567
4.960000 3.160000 -7.080000 44.574814 4.949699 2011.413574
4.960000 3.160000 -7.040000 40.412384 45.085255 3665.840820
4.960000 3.160000 -7.000000 0.811470 69.762108 4867.410156
4.960000 3.160000 -6.960000 -48.603867 53.550564 5229.999023
4.960000 3.160000 -6.920000 -70.581139 2.541851 4988.158203
4.960000 3.160000 -6.880000 -47.523731 -49.302361 4689.227539
4.960000 3.160000 -6.840000 4.558559 -68.137207 4663.459473
4.960000 3.160000 -6.800000 51.285572 -46.360184 4779.476562
4.960000 3.200000 -7.200000 -10.063965 9.318257 188.113312
4.960000 3.200000 -7.160000 -3.963203 -3.866012 30.653034
4.960000 3.200000 -7.120000 11.558805 -5.720999 166.335815
4.960000 3.200000 -7.080000 21.492510 8.125758 527.955933
4.960000 3.200000 -7.040000 12.950493 25.673111 826.823914
4.960000 3.200000 -7.000000 -10.271660 27.690058 872.246338
4.960000 3.200000 -6.960000 -28.200146 6.144146 832.998779
4.960000 3.200000 -6.920000 -21.506897 -26.078094 1142.613647
4.960000 3.200000 -6.880000 10.692684 -44.545959 2098.676025
4.960000 3.200000 -6.840000 49.043228 -33.503540 3527.725586
4.960000 3.200000 -6.800000 69.586662 1.672357 4845.100586
5.000000 2.800000 -7.200000 -47.864189 54.228279 5231.687012
5.000000 2.800000 -7.160000 -80.389732 24.321018 7054.020996
5.000000 2.800000 -7.120000 -82.568176 -24.698877 7427.538574
5.000000 2.800000 -7.080000 -48.798660 -60.731705 6069.649414
5.000000 2.800000 -7.040000 -3.703199 -60.319740 3652.184570
5.000000 2.800000 -7.000000 19.511950 -31.289616 1359.756226
5.000000 2.800000 -6.960000 10.199730 -5.078533 129.825989
5.000000 2.800000 -6.920000 -10.887161 -5.670152 150.680908
5.000000 2.800000 -6.880000 -14.204525 -26.790483 919.498535
5.000000 2.800000 -6.840000 8.167142 -40.492428 1706.338867
5.000000 2.800000 -6.800000 35.665649 -27.305674 2017.638428
5.000000 2.840000 -7.200000 -64.880409 10.881262 4327.869141
5.000000 2.840000 -7.160000 -73.781342 -15.614492 5687.499023
5.000000 2.840000 -7.120000 -65.401001 -44.755692 6280.362793
5.000000 2.840000 -7.080000 -42.522026 -63.198616 5802.187988
5.000000 2.840000 -7.040000 -17.542953 -65.285233 4569.916992
5.000000 2.840000 -7.000000 -1.174606 -57.520576 3309.996338
5.000000 2.840000 -6.960000 6.846962 -50.592968 2606.529297
5.000000 2.840000 -6.920000 14.805466 -47.666767 2491.322510
5.000000 2.840000 -6.880000 27.354168 -42.057922 2517.119141
5.000000 2.840000 -6.840000 38.619259 -26.901058 2215.114014
5.000000 2.840000 -6.800000 38.314747 -5.561357 1498.948486
5.000000 2.880000 -7.200000 -43.905396 -28.987934 2767.984131
5.000000 2.880000 -7.160000 -46.309658 -35.770420 3424.107422
5.000000 2.880000 -7.120000 -50.668728 -50.957115 5163.947754
5.000000 2.880000 -7.080000 -45.567566 -76.082092 7864.887695
5.000000 2.880000 -7.040000 -21.780581 -100.777092 10630.416016
5.000000 2.880000 -7.000000 17.869667 -109.164032 12236.111328
5.000000 2.880000 -6.960000 58.009659 -92.106102 11848.654297
5.000000 2.880000 -6.920000 80.538574 -55.160667 9529.161133
5.000000 2.880000 -6.880000 77.103935 -15.591927 6188.125000
5.000000 2.880000 -6.840000 54.465195 9.192498 3050.959473
5.000000 2.880000 -6.800000 28.943979 12.821211 1002.137329
5.000000 2.920000 -7.200000 -3.290053 -37.859661 1444.178345
5.000000 2.920000 -7.160000 -21.032818 -31.758629 1450.989990
5.000000 2.920000 -7.120000 -43.232914 -56.205021 5028.089355
5.000000 2.920000 -7.080000 -36.196548 -105.447571 12429.380859
5.000000 2.920000 -7.040000 15.530609 -144.192032 21032.541016
5.000000 2.920000 -7.000000 90.137169 -136.157410 26663.548828
5.000000 2.920000 -6.960000 142.850494 -76.882912 26317.246094
5.000000 2.920000 -6.920000 142.165222 0.076847 20210.957031
5.000000 2.920000 -6.880000 95.158981 49.994812 11554.712891
5.000000 2.920000 -6.840000 39.440681 52.339127 4294.951660
5.000000 2.920000 -6.800000 10.584730 23.248020 652.506958
5.000000 2.960000 -7.200000 25.605623 -14.882370 877.132874
5.000000 2.960000 -7.160000 -12.119591 -17.929873 468.364807
5.000000 2.960000 -7.120000 -33.536957 -67.377106 5664.401855
5.000000 2.960000 -7.080000 2.154087 -131.016510 17169.966797
5.000000 2.960000 -7.040000 90.209351 -151.036270 30949.681641
5.000000 2.960000 -7.000000 176.262589 -95.633484 40214.265625
5.000000 2.960000 -6.960000 199.668274 8.614185 39941.621094
5.000000 2.960000 -6.920000 145.447418 96.231300 30415.414062
5.000000 2.960000 -6.880000 56.189983 117.223068 16898.562500
5.000000 2.960000 -6.840000 -6.362564 75.963905 5810.997559
5.000000 2.960000 -6.800000 -12.741684 20.424984 579.530457
5.000000 3.000000 -7.200000 25.635908 16.850996 941.155823
5.000000 3.000000 -7.160000 -15.675438 -10.430258 354.509644
5.000000 3.000000 -7.120000 -12.471539 -76.568085 6018.210449
5.000000 3.000000 -7.080000 58.333591 -124.804199 18978.896484
5.000000 3.000000 -7.040000 158.463882 -98.536057 34820.156250
5.000000 3.000000 -7.000000 213.898087 3.418432 45764.078125
5.000000 3.000000 -6.960000 178.219116 118.829353 45882.468750
5.000000 3.000000 -6.920000 74.450455 172.503479 35300.320312
5.000000 3.000000 -6.880000 -24.895884 139.049576 19954.589844
5.000000 3.000000 -6.840000 -60.302715 59.663475 7196.147461
5.000000 3.000000 -6.800000 -31.126640 0.126444 968.883728
5.000000 3.040000 -7.200000 5.070243 33.280991 1133.331787
5.000000 3.040000 -7.160000 -18.894596 -12.698937 518.268799
5.000000 3.040000 -7.120000 15.142979 -70.828911 5246.043945
5.000000 3.040000 -7.080000 99.796516 -80.574173 16451.542969
5.000000 3.040000 -7.040000 174.205139 -10.998787 30468.402344
5.000000 3.040000 -7.000000 172.934021 103.005127 40516.234375
5.000000 3.040000 -6.960000 85.571228 184.167435 41240.078125
5.000000 3.040000 -6.920000 -30.763794 177.632324 32499.652344
5.000000 3.040000 -6.880000 -99.619675 96.725159 19279.835938
5.000000 3.040000 -6.840000 -88.713753 7.257971 7922.808105
5.000000 3.040000 -6.800000 -29.877739 -32.145145 1925.989746
5.000000 3.080000 -7.200000 -15.130695 29.040703 1072.300415
5.000000 3.080000 -7.160000 -15.137887 -16.603603 504.835266
5.000000 3.080000 -7.120000 33.825287 -48.228092 3470.099121
5.000000 3.080000 -7.080000 102.037338 -22.554382 10920.318359
5.000000 3.080000 -7.040000 130.251999 59.733906 20533.722656
5.000000 3.080000 -7.000000 82.015129 145.038177 27762.554688
5.000000 3.080000 -6.960000 -19.048603 168.910065 28893.458984
5.000000 3.080000 -6.920000 -105.414230 111.991684 23654.296875
5.000000 3.080000 -6.880000 -122.170593 16.663733 15203.333984
5.000000 3.080000 -6.840000 -70.951813 -51.089405 7644.287109
5.000000 3.080000 -6.800000 -1.601486 -57.170628 3271.045410
5.000000 3.120000 -7.200000 -22.320543 16.427917 768.083130
5.000000 3.120000 -7.160000 -8.865751 -14.755323 296.321106
5.000000 3.120000 -7.120000 33.281078 -21.740128 1580.263306
5.000000 3.120000 -7.080000 70.613052 15.932953 5240.062012
5.000000 3.120000 -7.040000 62.600510 79.094238 10174.722656
5.000000 3.120000 -7.000000 1.389523 118.703903 14092.546875
5.000000 3.120000 -6.960000 -74.928574 97.505325 15121.579102
5.000000 3.120000 -6.920000 -111.833527 24.828018 13123.167969
5.000000 3.120000 -6.880000 -84.484268 -49.752686 9612.921875
5.000000 3.120000 -6.840000 -17.086926 -78.459915 6447.921387
5.000000 3.120000 -6.800000 41.355911 -53.045963 4524.185547
5.000000 3.160000 -7.200000 -20.322594 8.723045 489.099335
5.000000 3.160000 -7.160000 -7.560156 -8.972685 137.665024
5.000000 3.160000 -7.120000 18.815979 -6.929798 402.063171
5.000000 3.160000 -7.080000 33.712357 21.432598 1595.879150
5.000000 3.160000 -7.040000 15.561569 55.436981 3315.421143
5.000000 3.160000 -7.000000 -29.278465 62.147976 4719.599609
5.000000 3.160000 -6.960000 -67.091675 27.205917 5241.455078
5.000000 3.160000 -6.920000 -64.865967 -28.809929 5037.605957
5.000000 3.160000 -6.880000 -19.914944 -65.984985 4750.623047
5.000000 3.160000 -6.840000 37.471478 -58.634060 4842.064453
5.000000 3.160000 -6.800000 70.337006 -15.171416 5177.466309
5.000000 3.200000 -7.200000 -19.717319 7.134421 439.672638
5.000000 3.200000 -7.160000 -11.878854 -6.672185 185.625214
5.000000 3.200000 -7.120000 5.294729 -7.431059 83.254791
5.000000 3.200000 -7.080000 14.732117 7.837122 278.455750
5.000000 3.200000 -7.040000 4.513638 24.088890 600.647522
5.000000 3.200000 -7.000000 -17.394236 21.731148 774.802246
5.000000 3.200000 -6.960000 -28.092182 -2.704666 796.485962
5.000000 3.200000 -6.920000 -11.210342 -30.252039 1040.857666
5.000000 3.200000 -6.880000 26.145390 -35.268433 1927.443726
5.000000 3.200000 -6.840000 58.090992 -8.522990 3447.204590
5.000000 3.200000 -6.800000 61.914085 34.669701 5035.342285
5.040000 2.800000 -7.200000 -61.950382 17.147837 4131.897949
5.040000 2.800000 -7.160000 -72.042786 -23.977030 5765.061035
5.040000 2.800000 -7.120000 -47.846558 -65.303192 6553.799805
5.040000 2.800000 -7.080000 -0.216195 -77.870430 6063.850586
5.040000 2.800000 -7.040000 39.275078 -53.782185 4435.055176
5.040000 2.800000 -7.000000 46.160179 -14.883554 2352.282471
5.040000 2.800000 -6.960000 25.178944 7.314907 687.487061
5.040000 2.800000 -6.920000 4.054737 0.953800 17.350628
5.040000 2.800000 -6.880000 5.276819 -17.027435 317.778381
5.040000 2.800000 -6.840000 24.798330 -20.603941 1039.479614
5.040000 2.800000 -6.800000 38.843529 -1.953974 1512.637695
5.040000 2.840000 -7.200000 -53.897156 -25.183304 3539.102051
5.040000 2.840000 -7.160000 -46.263596 -52.380722 4884.060547
5.040000 2.840000 -7.120000 -21.266222 -72.697968 5737.247070
5.040000 2.840000 -7.080000 11.721432 -74.178329 5639.816895
5.040000 2.840000 -7.040000 36.738548 -57.071182 4606.840820
5.040000 2.840000 -7.000000 44.738831 -34.005005 3157.903320
5.040000 2.840000 -6.960000 40.476452 -18.216993 1970.202026
5.040000 2.840000 -6.920000 35.664890 -12.057243 1417.361450
5.040000 2.840000 -6.880000 36.112553 -7.669640 1362.939819
5.040000 2.840000 -6.840000 36.904453 1.726269 1364.918701
5.040000 2.840000 -6.800000 30.317284 13.055223 1089.576538
5.040000 2.880000 -7.200000 -17.924736 -45.253220 2369.150146
5.040000 2.880000 -7.160000 -13.881304 -53.413155 3045.655762
5.040000 2.880000 -7.120000 -4.384016 -66.831688 4485.694336
5.040000 2.880000 -7.080000 17.188345 -78.267487 6421.238281
5.040000 2.880000 -7.040000 48.032410 -76.258026 8122.398926
5.040000 2.880000 -7.000000 75.862320 -55.180294 8799.957031
5.040000 2.880000 -6.960000 87.353027 -21.069317 8074.467285
5.040000 2.880000 -6.920000 77.803139 11.779240 6192.079102
5.040000 2.880000 -6.880000 54.219467 30.356243 3861.252197
5.040000 2.880000 -6.840000 30.036785 30.908413 1857.538452
5.040000 2.880000 -6.800000 16.249981 19.887384 659.569946
5.040000 2.920000 -7.200000 17.013439 -31.791014 1300.125732
5.040000 2.920000 -7.160000 3.518303 -36.393341 1336.853638
5.040000 2.920000 -7.120000 2.919245 -63.023926 3980.537109
5.040000 2.920000 -7.080000 34.035545 -90.104607 9277.258789
5.040000 2.920000 -7.040000 87.997414 -86.669586 15255.162109
5.040000 2.920000 -7.000000 131.357269 -41.229454 18954.599609
5.040000 2.920000 -6.960000 133.192902 24.853905 18358.066406
5.040000 2.920000 -6.920000 91.760918 73.140327 13769.574219
5.040000 2.920000 -6.880000 36.052742 79.188614 7570.636719
5.040000 2.920000 -6.840000 1.215345 50.802582 2582.379395
5.040000 2.920000 -6.800000 0.788659 18.113434 328.718475
5.040000 2.960000 -7.200000 27.275896 -0.992146 744.958862
5.040000 2.960000 -7.160000 3.002878 -20.930712 447.111969
5.040000 2.960000 -7.120000 12.845879 -64.838989 4369.111328
5.040000 2.960000 -7.080000 68.942841 -90.096176 12870.435547
5.040000 2.960000 -7.040000 139.015518 -59.231262 22833.656250
5.040000 2.960000 -7.000000 169.598999 22.170193 29255.337891
5.040000 2.960000 -6.960000 132.572418 104.983521 28596.984375
5.040000 2.960000 -6.920000 51.295864 136.585007 21286.730469
5.040000 2.960000 -6.880000 -19.050903 104.825180 11351.254883
5.040000 2.960000 -6.840000 -38.416550 45.233917 3521.938477
5.040000 2.960000 -6.800000 -12.240686 6.610612 193.534592
5.040000 3.000000 -7.200000 13.050657 21.739208 642.912842
5.040000 3.000000 -7.160000 -2.795519 -16.739021 288.009735
5.040000 3.000000 -7.120000 31.190212 -61.414391 4744.556641
5.040000 3.000000 -7.080000 104.337090 -61.019119 14609.561523
5.040000 3.000000 -7.040000 162.219574 6.284235 26354.681641
5.040000 3.000000 -7.000000 151.563507 105.454094 34092.062500
5.040000 3.000000 -6.960000 69.723969 169.419662 33564.453125
5.040000 3.000000 -6.920000 -29.711430 155.912323 25191.421875
5.040000 3.000000 -6.880000 -82.253685 83.082352 13668.345703
5.040000 3.000000 -6.840000 -66.279861 10.635630 4506.136719
5.040000 3.000000 -6.800000 -15.428343 -13.920696 431.819550
5.040000 3.040000 -7.200000 -7.542084 24.766724 670.273682
5.040000 3.040000 -7.160000 -3.000864 -17.964888 331.742371
5.040000 3.040000 -7.120000 48.045647 -43.015697 4158.734375
5.040000 3.040000 -7.080000 113.003647 -10.245443 12874.792969
5.040000 3.040000 -7.040000 133.720551 74.854721 23484.414062
5.040000 3.040000 -7.000000 78.820717 156.583618 30731.134766
5.040000 3.040000 -6.960000 -23.019260 173.658112 30687.027344
5.040000 3.040000 -6.920000 -103.898643 113.064804 23578.578125
5.040000 3.040000 -6.880000 -114.109512 21.457714 13481.414062
5.040000 3.040000 -6.840000 -62.180435 -36.886047 5226.986816
5.040000 3.040000 -6.800000 -0.990107 -34.667091 1202.787598
5.040000 3.080000 -7.200000 -18.930851 15.690718 604.575745
5.040000 3.080000 -7.160000 0.475770 -15.045507 226.593658
5.040000 3.080000 -7.120000 48.429939 -15.561846 2587.630127
5.040000 3.080000 -7.080000 85.560387 33.132683 8418.354492
5.040000 3.080000 -7.040000 68.880455 105.326233 15838.132812
5.040000 3.080000 -7.000000 -5.142399 145.624146 21232.835938
5.040000 3.080000 -6.960000 -90.330193 116.642593 21765.037109
5.040000 3.080000 -6.920000 -127.446999 34.459862 17430.218750
5.040000 3.080000 -6.880000 -94.766418 -43.770477 10896.528320
5.040000 3.080000 -6.840000 -24.571861 -69.050674 5371.771973
5.040000 3.080000 -6.800000 28.991611 -39.602592 2408.878906
5.040000 3.120000 -7.200000 -20.746780 7.647746 488.916931
5.040000 3.120000 -7.160000 -1.108261 -7.992974 65.115883
5.040000 3.120000 -7.120000 30.131420 3.203711 918.166199
5.040000 3.120000 -7.080000 41.250229 44.438385 3676.351562
5.040000 3.120000 -7.040000 9.397697 86.351013 7544.814453
5.040000 3.120000 -7.000000 -52.073036 89.132523 10656.207031
5.040000 3.120000 -6.960000 -99.169205 40.100304 11442.565430
5.040000 3.120000 -6.920000 -94.197884 -30.701054 9815.795898
5.040000 3.120000 -6.880000 -39.512299 -74.397377 7096.191406
5.040000 3.120000 -6.840000 24.899866 -64.823631 4822.106445
5.040000 3.120000 -6.800000 57.220078 -18.040537 3599.598145
5.040000 3.160000 -7.200000 -21.888258 4.218154 496.888641
5.040000 3.160000 -7.160000 -9.855856 -5.767221 130.398743
5.040000 3.160000 -7.120000 7.969341 1.758126 66.601410
5.040000 3.160000 -7.080000 10.329124 25.634710 763.829163
5.040000 3.160000 -7.040000 -13.531288 43.542240 2079.022461
5.040000 3.160000 -7.000000 -48.044949 31.923496 3327.426758
5.040000 3.160000 -6.960000 -61.847969 -8.641785 3899.851807
5.040000 3.160000 -6.920000 -36.673237 -49.639275 3808.983887
5.040000 3.160000 -6.880000 13.872871 -58.436234 3607.250000
5.040000 3.160000 -6.840000 55.099575 -27.098732 3770.304443
5.040000 3.160000 -6.800000 61.138252 21.772804 4211.940918
5.040000 3.200000 -7.200000 -26.293858 -1.084756 692.543640
5.040000 3.200000 -7.160000 -17.112514 -13.997987 488.781799
5.040000 3.200000 -7.120000 -0.605818 -13.226307 175.302216
5.040000 3.200000 -7.080000 6.629749 0.946461 44.849361
5.040000 3.200000 -7.040000 -3.019505 12.558052 166.822067
5.040000 3.200000 -7.000000 -18.019329 6.561348 367.747528
5.040000 3.200000 -6.960000 -18.169548 -13.699131 517.798645
5.040000 3.200000 -6.920000 4.198990 -27.468573 772.153992
5.040000 3.200000 -6.880000 34.476582 -16.157978 1449.714844
5.040000 3.200000 -6.840000 48.089088 18.181870 2643.140869
5.040000 3.200000 -6.800000 32.557644 54.104778 3987.327148
5.080000 2.800000 -7.200000 -45.858028 -11.882932 2244.162842
5.080000 2.800000 -7.160000 -35.734161 -45.419930 3339.900391
5.080000 2.800000 -7.120000 0.030916 -65.836792 4334.484375
5.080000 2.800000 -7.080000 42.775696 -54.777565 4830.341797
5.080000 2.800000 -7.040000 64.736763 -17.180641 4486.022949
5.080000 2.800000 -7.000000 53.548748 20.749538 3298.011719
5.080000 2.800000 -6.960000 23.494598 34.289917 1727.794678
5.080000 2.800000 -6.920000 1.658073 21.790123 477.558655
5.080000 2.800000 -6.880000 2.503237 3.745249 20.293083
5.080000 2.800000 -6.840000 16.282101 0.815370 265.771637
5.080000 2.800000 -6.800000 22.106113 13.725063 677.057617
5.080000 2.840000 -7.200000 -24.816685 -37.358097 2011.495361
5.080000 2.840000 -7.160000 -7.164511 -54.758213 3049.792236
5.080000 2.840000 -7.120000 23.010565 -59.154419 4028.731445
5.080000 2.840000 -7.080000 52.050835 -42.338203 4501.812500
5.080000 2.840000 -7.040000 63.650421 -11.039936 4173.256348
5.080000 2.840000 -7.000000 53.270126 17.088875 3129.735840
5.080000 2.840000 -6.960000 32.084114 28.346317 1832.904053
5.080000 2.840000 -6.920000 16.209213 23.906300 834.249756
5.080000 2.840000 -6.880000 12.308290 16.038826 408.737946
5.080000 2.840000 -6.840000 14.142096 14.410278 407.654999
5.080000 2.840000 -6.800000 12.514705 17.388304 458.970947
5.080000 2.880000 -7.200000 6.344588 -37.031330 1411.573242
5.080000 2.880000 -7.160000 15.112372 -42.453033 2030.643799
5.080000 2.880000 -7.120000 32.381424 -45.500671 3118.867676
5.080000 2.880000 -7.080000 54.685589 -36.666435 4334.941406
5.080000 2.880000 -7.040000 70.471603 -13.131587 5138.685547
5.080000 2.880000 -7.000000 69.519539 16.827793 5116.141113
5.080000 2.880000 -6.960000 51.714352 39.538879 4237.697266
5.080000 2.880000 -6.920000 27.152418 46.170704 2868.987793
5.080000 2.880000 -6.880000 8.164698 38.288414 1532.664917
5.080000 2.880000 -6.840000 1.064612 24.815981 616.966309
5.080000 2.880000 -6.800000 4.091263 14.742613 234.083069
5.080000 2.920000 -7.200000 23.862263 -15.471108 808.762817
5.080000 2.920000 -7.160000 20.164251 -24.166672 990.625061
5.080000 2.920000 -7.120000 34.107861 -37.688461 2583.766357
5.080000 2.920000 -7.080000 64.503387 -35.361855 5411.147949
5.080000 2.920000 -7.040000 91.114418 -5.757849 8334.989258
5.080000 2.920000 -7.000000 90.936089 40.063690 9874.471680
5.080000 2.920000 -6.960000 58.943581 75.425873 9163.408203
5.080000 2.920000 -6.920000 13.814669 79.678192 6539.459473
5.080000 2.920000 -6.880000 -16.991158 55.011173 3314.928711
5.080000 2.920000 -6.840000 -19.173744 23.555010 922.470947
5.080000 2.920000 -6.800000 -1.156205 8.265577 69.656578
5.080000 2.960000 -7.200000 19.645613 7.410716 440.868805
5.080000 2.960000 -7.160000 14.811859 -13.895241 412.468872
5.080000 2.960000 -7.120000 39.670143 -33.883186 2721.790527
5.080000 2.960000 -7.080000 82.547295 -23.065393 7346.067871
5.080000 2.960000 -7.040000 108.651146 25.809072 12471.179688
5.080000 2.960000 -7.000000 89.820839 86.022202 15467.602539
5.080000 2.960000 -6.960000 31.656427 116.835991 14652.777344
5.080000 2.960000 -6.920000 -28.743914 98.264801 10482.183594
5.080000 2.960000 -6.880000 -53.704662 48.294079 5216.508789
5.080000 2.960000 -6.840000 -36.077732 6.351640 1341.946167
5.080000 2.960000 -6.800000 -2.153913 -0.977368 5.594592
5.080000 3.000000 -7.200000 4.265951 16.835238 301.623566
5.080000 3.000000 -7.160000 11.027708 -11.324774 249.860840
5.080000 3.000000 -7.120000 49.155525 -22.953663 2943.136230
5.080000 3.000000 -7.080000 91.896606 7.824558 8506.209961
5.080000 3.000000 -7.040000 98.080482 72.019318 14806.563477
5.080000 3.000000 -7.000000 50.051727 126.836716 18592.728516
5.080000 3.000000 -6.960000 -26.048576 130.596985 17734.101562
5.080000 3.000000 -6.920000 -79.789162 80.020401 12769.575195
5.080000 3.000000 -6.880000 -79.275955 13.843082 6476.308105
5.080000 3.000000 -6.840000 -37.219063 -21.413548 1843.798706
5.080000 3.000000 -6.800000 3.867619 -11.030152 136.622742
5.080000 3.040000 -7.200000 -7.908651 14.074585 260.640717
5.080000 3.040000 -7.160000 11.017014 -7.624919 179.513977
5.080000 3.040000 -7.120000 50.098328 -1.825767 2513.176025
5.080000 3.040000 -7.080000 75.317368 43.356667 7552.506836
5.080000 3.040000 -7.040000 53.652000 102.784821 13443.256836
5.080000 3.040000 -7.000000 -12.743423 130.329071 17148.060547
5.080000 3.040000 -6.960000 -82.121613 99.245026 16593.535156
5.080000 3.040000 -6.920000 -106.758881 28.515371 12210.584961
5.080000 3.040000 -6.880000 -74.313805 -32.026878 6548.262695
5.080000 3.040000 -6.840000 -17.261658 -44.949211 2318.396484
5.080000 3.040000 -6.800000 18.416790 -15.628699 583.434387
5.080000 3.080000 -7.200000 -13.047020 8.998783 251.202820
5.080000 3.080000 -7.160000 7.182018 -0.084379 51.588505
5.080000 3.080000 -7.120000 33.432915 16.901089 1403.406494
5.080000 3.080000 -7.080000 36.453915 58.516541 4753.073242
5.080000 3.080000 -7.040000 -0.913729 94.714401 8971.652344
5.080000 3.080000 -7.000000 -61.228592 90.245575 11893.204102
5.080000 3.080000 -6.960000 -101.965927 38.728676 11896.960938
5.080000 3.080000 -6.920000 -91.738792 -27.217247 9156.784180
5.080000 3.080000 -6.880000 -39.008476 -62.505569 5428.607422
5.080000 3.080000 -6.840000 15.528400 -48.527809 2596.079590
5.080000 3.080000 -6.800000 35.802467 -6.895733 1329.367798
5.080000 3.120000 -7.200000 -16.955574 6.041524 323.991516
5.080000 3.120000 -7.160000 -4.818603 3.152002 33.154049
5.080000 3.120000 -7.120000 7.328445 17.095995 345.979156
5.080000 3.120000 -7.080000 0.149456 42.066120 1769.580811
5.080000 3.120000 -7.040000 -31.800659 54.176270 3946.350098
5.080000 3.120000 -7.000000 -68.146904 33.304459 5753.187500
5.080000 3.120000 -6.960000 -77.411888 -13.848492 6184.381348
5.080000 3.120000 -6.920000 -46.368141 -55.123550 5188.610352
5.080000 3.120000 -6.880000 5.477718 -60.147617 3647.741211
5.080000 3.120000 -6.840000 42.206642 -27.408581 2532.630859
5.080000 3.120000 -6.800000 43.074005 15.792255 2104.765137
5.080000 3.160000 -7.200000 -23.193451 0.493408 538.179626
5.080000 3.160000 -7.160000 -17.201681 -6.267884 335.184204
5.080000 3.160000 -7.120000 -8.296513 -2.378363 74.488731
5.080000 3.160000 -7.080000 -10.005047 8.957108 180.330734
5.080000 3.160000 -7.040000 -25.131176 12.007278 775.750732
5.080000 3.160000 -7.000000 -38.818901 -4.187725 1524.444092
5.080000 3.160000 -6.960000 -31.919031 -30.867861 1971.649414
5.080000 3.160000 -6.920000 -1.718784 -44.775944 2007.839355
5.080000 3.160000 -6.880000 32.404968 -29.895927 1943.848389
5.080000 3.160000 -6.840000 45.590599 6.501965 2120.778320
5.080000 3.160000 -6.800000 29.769920 40.276749 2508.464600
5.080000 3.200000 -7.200000 -26.248987 -12.195177 837.731689
5.080000 3.200000 -7.160000 -16.967319 -24.338596 880.257202
5.080000 3.200000 -7.120000 -1.614152 -24.268538 591.567383
5.080000 3.200000 -7.080000 6.324982 -13.531874 223.117004
5.080000 3.200000 -7.040000 2.568413 -4.736515 29.031322
5.080000 3.200000 -7.000000 -3.166773 -6.836721 56.769211
5.080000 3.200000 -6.960000 1.524117 -14.316314 207.279770
5.080000 3.200000 -6.920000 16.816498 -12.691160 443.860138
5.080000 3.200000 -6.880000 28.881645 5.471233 864.083801
5.080000 3.200000 -6.840000 23.367025 31.492870 1537.818848
5.080000 3.200000 -6.800000 -0.328330 48.178177 2321.244629
5.120000 2.800000 -7.200000 -20.743950 -15.626121 674.487122
5.120000 2.800000 -7.160000 -4.528082 -33.237480 1125.233643
5.120000 2.800000 -7.120000 25.952339 -35.338791 1922.354126
5.120000 2.800000 -7.080000 52.850903 -12.454307 2948.327881
5.120000 2.800000 -7.040000 55.806492 25.101963 3744.473145
5.120000 2.800000 -7.000000 31.051220 53.104633 3784.280273
5.120000 2.800000 -6.960000 -3.494531 53.950516 2922.869873
5.120000 2.800000 -6.920000 -23.592876 32.136353 1589.368896
5.120000 2.800000 -6.880000 -20.058573 8.998956 483.327545
5.120000 2.800000 -6.840000 -4.968258 1.926671 28.395645
5.120000 2.800000 -6.800000 2.908261 9.082318 90.946487
5.120000 2.840000 -7.200000 -3.955023 -25.155579 648.445374
5.120000 2.840000 -7.160000 13.270825 -31.686501 1180.149170
5.120000 2.840000 -7.120000 37.354523 -23.638386 1954.133545
5.120000 2.840000 -7.080000 52.650166 2.711128 2779.390137
5.120000 2.840000 -7.040000 45.509274 34.885731 3288.108154
5.120000 2.840000 -7.000000 18.350016 53.005386 3146.294189
5.120000 2.840000 -6.960000 -10.864035 47.138359 2340.052246
5.120000 2.840000 -6.920000 -24.115030 25.876888 1251.147949
5.120000 2.840000 -6.880000 -18.489363 7.405045 396.691223
5.120000 2.840000 -6.840000 -5.986098 2.522191 42.194820
5.120000 2.840000 -6.800000 0.590633 7.006922 49.445801
5.120000 2.880000 -7.200000 12.353935 -18.473782 493.900330
5.120000 2.880000 -7.160000 22.510645 -19.830818 899.990479
5.120000 2.880000 -7.120000 37.793221 -11.650266 1564.056152
5.120000 2.880000 -7.080000 46.724106 9.497071 2273.336426
5.120000 2.880000 -7.040000 38.921646 34.656570 2715.972412
5.120000 2.880000 -7.000000 15.859164 48.971947 2649.764648
5.120000 2.880000 -6.960000 -9.285154 44.526009 2068.779541
5.120000 2.880000 -6.920000 -22.549267 26.829773 1228.306152
5.120000 2.880000 -6.880000 -20.056078 9.186854 486.644562
5.120000 2.880000 -6.840000 -8.869776 1.369774 80.549202
5.120000 2.880000 -6.800000 1.267418 3.741790 15.607340
5.120000 2.920000 -7.200000 17.227432 -4.199529 314.420471
5.120000 2.920000 -7.160000 21.959612 -8.832680 560.240784
5.120000 2.920000 -7.120000 35.323181 -5.709074 1280.320679
5.120000 2.920000 -7.080000 46.127968 11.754494 2265.957520
5.120000 2.920000 -7.040000 41.379845 37.109966 3089.440918
5.120000 2.920000 -7.000000 18.603178 54.704090 3338.615723
5.120000 2.920000 -6.960000 -10.535244 52.475826 2864.703857
5.120000 2.920000 -6.920000 -28.945326 32.255428 1878.244507
5.120000 2.920000 -6.880000 -27.519951 8.448759 828.729248
5.120000 2.920000 -6.840000 -11.600618 -3.437345 146.389679
5.120000 2.920000 -6.800000 4.321644 1.823081 22.000235
5.120000 2.960000 -7.200000 12.097124 6.467289 188.166229
5.120000 2.960000 -7.160000 18.770515 -2.744180 359.862762
5.120000 2.960000 -7.120000 36.278172 -0.343282 1316.223511
5.120000 2.960000 -7.080000 49.396729 20.981430 2880.257324
5.120000 2.960000 -7.040000 41.479317 51.586861 4381.737793
5.120000 2.960000 -7.000000 10.501638 70.190224 5036.951660
5.120000 2.960000 -6.960000 -26.310711 61.445431 4467.794434
5.120000 2.960000 -6.920000 -45.312065 30.221224 2966.505859
5.120000 2.960000 -6.880000 -36.143280 -1.226540 1307.841064
5.120000 2.960000 -6.840000 -10.523408 -11.607006 245.464706
5.120000 2.960000 -6.800000 8.152715 1.872911 69.974556
5.120000 3.000000 -7.200000 4.720372 10.484856 132.214111
5.120000 3.000000 -7.160000 16.540989 2.825456 281.587524
5.120000 3.000000 -7.120000 35.565109 11.286799 1392.268799
5.120000 3.000000 -7.080000 43.253021 38.859985 3380.922363
5.120000 3.000000 -7.040000 24.404835 69.447510 5418.552734
5.120000 3.000000 -7.000000 -15.974642 78.390854 6400.314941
5.120000 3.000000 -6.960000 -52.722183 54.350395 5733.594238
5.120000 3.000000 -6.920000 -60.489601 11.890461 3800.375000
5.120000 3.000000 -6.880000 -36.291458 -19.172457 1684.653076
5.120000 3.000000 -6.840000 -2.724973 -19.381855 383.081787
5.120000 3.000000 -6.800000 12.223220 3.680048 162.949860
5.120000 3.040000 -7.200000 -1.294338 11.758991 139.949188
5.120000 3.040000 -7.160000 10.747126 10.592802 227.708160
5.120000 3.040000 -7.120000 23.369429 24.631666 1152.849121
5.120000 3.040000 -7.080000 19.811840 51.015862 2995.127197
5.120000 3.040000 -7.040000 -8.224001 70.496536 5037.395996
5.120000 3.040000 -7.000000 -47.537815 62.303528 6141.573242
5.120000 3.040000 -6.960000 -70.539658 25.200489 5610.907715
5.120000 3.040000 -6.920000 -58.995770 -17.292999 3779.548584
5.120000 3.040000 -6.880000 -22.035343 -35.695724 1759.740967
5.120000 3.040000 -6.840000 10.799845 -20.847401 551.250732
5.120000 3.040000 -6.800000 16.231462 8.151634 329.909546
5.120000 3.080000 -7.200000 -8.465619 12.230368 221.248596
5.120000 3.080000 -7.160000 -2.961045 14.445688 217.445694
5.120000 3.080000 -7.120000 0.313359 25.697170 660.442749
5.120000 3.080000 -7.080000 -9.928616 41.175652 1794.011719
5.120000 3.080000 -7.040000 -35.297695 44.887024 3260.772217
5.120000 3.080000 -7.000000 -60.102444 24.758507 4225.287109
5.120000 3.080000 -6.960000 -62.542397 -11.665625 4047.638184
5.120000 3.080000 -6.920000 -35.970078 -39.689415 2869.096191
5.120000 3.080000 -6.880000 1.963474 -38.729721 1503.846558
5.120000 3.080000 -6.840000 23.880138 -11.964415 713.408203
5.120000 3.080000 -6.800000 17.727558 16.455467 585.048706
5.120000 3.120000 -7.200000 -18.035048 7.943710 388.365479
5.120000 3.120000 -7.160000 -18.826822 5.502201 384.723450
5.120000 3.120000 -7.120000 -18.156609 7.080240 379.792236
5.120000 3.120000 -7.080000 -23.554953 10.751272 670.425659
5.120000 3.120000 -7.040000 -35.325710 6.589664 1291.329468
5.120000 3.120000 -7.000000 -41.970345 -10.860525 1879.460815
5.120000 3.120000 -6.960000 -30.866657 -32.384182 2001.485840
5.120000 3.120000 -6.920000 -3.578622 -39.869133 1602.354248
5.120000 3.120000 -6.880000 22.152441 -23.977182 1065.635986
5.120000 3.120000 -6.840000 27.968433 5.104065 808.284790
5.120000 3.120000 -6.800000 12.442198 26.521648 858.206116
5.120000 3.160000 -7.200000 -24.200748 -4.711789 607.877136
5.120000 3.160000 -7.160000 -23.361092 -15.214626 777.225464
5.120000 3.160000 -7.120000 -15.600295 -20.364340 658.075562
5.120000 3.160000 -7.080000 -9.431792 -18.813877 442.920685
5.120000 3.160000 -7.040000 -8.258046 -17.439892 372.345154
5.120000 3.160000 -7.000000 -6.263988 -20.987637 479.718445
5.120000 3.160000 -6.960000 3.337654 -24.467772 609.811768
5.120000 3.160000 -6.920000 17.882996 -18.144045 649.007935
5.120000 3.160000 -6.880000 25.773174 0.356012 664.383301
5.120000 3.160000 -6.840000 18.214336 21.290890 785.064026
5.120000 3.160000 -6.800000 -1.096577 31.576971 998.307556
5.120000 3.200000 -7.200000 -18.732222 -20.924303 788.722534
5.120000 3.200000 -7.160000 -9.288202 -33.514263 1209.476562
5.120000 3.200000 -7.120000 7.477519 -35.196693 1294.720581
5.120000 3.200000 -7.080000 20.232136 -25.350918 1052.008301
5.120000 3.200000 -7.040000 23.353003 -12.211810 694.491028
5.120000 3.200000 -7.000000 20.502167 -3.048122 429.629883
5.120000 3.200000 -6.960000 17.871544 2.532017 325.803192
5.120000 3.200000 -6.920000 16.190670 9.336287 349.304016
5.120000 3.200000 -6.880000 10.779360 18.649128 463.984558
5.120000 3.200000 -6.840000 -1.423408 25.598782 657.323669
5.120000 3.200000 -6.800000 -17.067394 24.550629 894.029297
5.160000 2.800000 -7.200000 -9.226083 -1.726875 88.102699
5.160000 2.800000 -7.160000 0.535204 -8.983383 80.987617
5.160000 2.800000 -7.120000 18.897150 -4.917332 381.282410
5.160000 2.800000 -7.080000 31.152748 16.795811 1252.593018
5.160000 2.800000 -7.040000 21.822456 45.230263 2521.996094
5.160000 2.800000 -7.000000 -8.405655 59.001118 3551.786865
5.160000 2.800000 -6.960000 -40.078094 45.719738 3696.548096
5.160000 2.800000 -6.920000 -51.356319 14.643152 2851.893311
5.160000 2.800000 -6.880000 -37.699730 -11.351884 1550.134888
5.160000 2.800000 -6.840000 -14.812372 -16.941252 506.412384
5.160000 2.800000 -6.800000 -1.877803 -7.112382 54.112125
5.160000 2.840000 -7.200000 -3.799742 -7.876530 76.477760
5.160000 2.840000 -7.160000 7.230010 -10.014777 152.568802
5.160000 2.840000 -7.120000 21.407391 1.303095 459.974426
5.160000 2.840000 -7.080000 23.014524 25.415785 1175.630371
5.160000 2.840000 -7.040000 3.371577 46.291130 2154.236084
5.160000 2.840000 -7.000000 -27.815266 46.150589 2903.565918
5.160000 2.840000 -6.960000 -49.157505 22.931801 2942.327637
5.160000 2.840000 -6.920000 -46.656654 -6.721541 2222.022705
5.160000 2.840000 -6.880000 -25.931612 -22.608643 1183.599243
5.160000 2.840000 -6.840000 -5.294055 -18.796230 381.325287
5.160000 2.840000 -6.800000 2.477945 -6.178762 44.317314
5.160000 2.880000 -7.200000 3.260751 -8.298353 79.495163
5.160000 2.880000 -7.160000 12.262695 -6.834189 197.079849
5.160000 2.880000 -7.120000 19.550648 6.185766 420.491516
5.160000 2.880000 -7.080000 13.349810 24.995001 802.967468
5.160000 2.880000 -7.040000 -7.600055 34.909546 1276.437256
5.160000 2.880000 -7.000000 -30.710905 26.057751 1622.166016
5.160000 2.880000 -6.960000 -40.116596 3.385338 1620.801880
5.160000 2.880000 -6.920000 -30.686274 -17.442478 1245.887451
5.160000 2.880000 -6.880000 -11.606830 -23.856377 703.845215
5.160000 2.880000 -6.840000 3.229640 -16.007517 266.671173
5.160000 2.880000 -6.800000 7.320776 -3.472255 65.650307
5.160000 2.920000 -7.200000 8.818643 -4.544803 98.423691
5.160000 2.920000 -7.160000 15.329782 -1.468821 237.159668
5.160000 2.920000 -7.120000 17.727577 9.325891 401.239227
5.160000 2.920000 -7.080000 9.787286 21.173964 544.127686
5.160000 2.920000 -7.040000 -6.225507 24.494347 638.729980
5.160000 2.920000 -7.000000 -20.756567 15.312136 665.296570
5.160000 2.920000 -6.960000 -24.679237 -1.117468 610.313477
5.160000 2.920000 -6.920000 -16.378870 -14.600852 481.452271
5.160000 2.920000 -6.880000 -2.222652 -17.702227 318.309021
5.160000 2.920000 -6.840000 8.822672 -10.215343 182.192780
5.160000 2.920000 -6.800000 11.075411 2.273708 127.834473
5.160000 2.960000 -7.200000 11.743448 2.224569 142.857285
5.160000 2.960000 -7.160000 15.822663 6.629108 294.301758
5.160000 2.960000 -7.120000 15.588037 14.695974 458.958557
5.160000 2.960000 -7.080000 8.917335 22.133945 569.430359
5.160000 2.960000 -7.040000 -2.508492 23.988420 581.736877
5.160000 2.960000 -7.000000 -13.496450 17.633511 493.094879
5.160000 2.960000 -6.960000 -17.823030 5.090730 343.575928
5.160000 2.960000 -6.920000 -12.243158 -7.002339 198.927689
5.160000 2.960000 -6.880000 0.222620 -10.923155 119.364876
5.160000 2.960000 -6.840000 10.901732 -3.545783 131.420349
5.160000 2.960000 -6.800000 11.036922 10.035807 222.531052
5.160000 3.000000 -7.200000 10.006808 11.147739 224.408310
5.160000 3.000000 -7.160000 10.017521 16.524879 373.422363
5.160000 3.000000 -7.120000 7.280629 21.727104 525.074585
5.160000 3.000000 -7.080000 1.429857 26.043447 680.305664
5.160000 3.000000 -7.040000 -7.985089 26.936171 789.318970
5.160000 3.000000 -7.000000 -18.061632 20.752110 756.872620
5.160000 3.000000 -6.960000 -22.027973 7.607642 543.107788
5.160000 3.000000 -6.920000 -14.860069 -5.312863 249.048172
5.160000 3.000000 -6.880000 -0.191328 -8.079793 65.319664
5.160000 3.000000 -6.840000 10.181030 2.239802 108.670082
5.160000 3.000000 -6.800000 6.333295 16.447639 310.635468
5.160000 3.040000 -7.200000 1.257851 18.523582 344.705292
5.160000 3.040000 -7.160000 -4.512549 21.740265 493.002228
5.160000 3.040000 -7.120000 -9.323696 21.735283 559.353821
5.160000 3.040000 -7.080000 -13.697431 21.426868 646.730286
5.160000 3.040000 -7.040000 -20.086424 19.421124 780.644409
5.160000 3.040000 -7.000000 -26.333725 11.588800 827.765381
5.160000 3.040000 -6.960000 -25.437428 -1.382258 648.973389
5.160000 3.040000 -6.920000 -13.792142 -10.856292 308.082245
5.160000 3.040000 -6.880000 1.711454 -7.721177 62.545654
5.160000 3.040000 -6.840000 8.015368 6.543847 107.068069
5.160000 3.040000 -6.800000 -0.758254 18.662251 348.854553
5.160000 3.080000 -7.200000 -12.631890 17.931442 481.101257
5.160000 3.080000 -7.160000 -22.170303 14.077173 689.689148
5.160000 3.080000 -7.120000 -25.078888 6.545827 671.798462
5.160000 3.080000 -7.080000 -23.784916 1.478610 567.908508
5.160000 3.080000 -7.040000 -23.030849 -1.785804 533.609131
5.160000 3.080000 -7.000000 -22.063766 -7.226321 539.029480
5.160000 3.080000 -6.960000 -15.819084 -13.862928 442.424194
5.160000 3.080000 -6.920000 -3.638303 -14.552176 225.003052
5.160000 3.080000 -6.880000 6.459603 -4.654666 63.392395
5.160000 3.080000 -6.840000 5.109466 9.931234 124.736053
5.160000 3.080000 -6.800000 -6.883410 16.789953 329.283875
5.160000 3.120000 -7.200000 -23.430866 6.088453 586.074768
5.160000 3.120000 -7.160000 -30.272070 -6.706431 961.374390
5.160000 3.120000 -7.120000 -25.191992 -19.440889 1012.584656
5.160000 3.120000 -7.080000 -14.329386 -24.169918 789.516235
5.160000 3.120000 -7.040000 -5.468251 -22.039709 515.650574
5.160000 3.120000 -7.000000 -0.108962 -18.276548 334.044098
5.160000 3.120000 -6.960000 4.728675 -14.239160 225.114029
5.160000 3.120000 -6.920000 9.259636 -7.009759 134.877579
5.160000 3.120000 -6.880000 8.922870 3.878730 94.662155
5.160000 3.120000 -6.840000 0.733052 12.688606 161.538101
5.160000 3.120000 -6.800000 -10.638477 12.968797 281.366882
5.160000 3.160000 -7.200000 -21.945343 -11.384415 611.203003
5.160000 3.160000 -7.160000 -19.841595 -28.540470 1208.247314
5.160000 3.160000 -7.120000 -4.445614 -38.904728 1533.341309
5.160000 3.160000 -7.080000 13.779577 -35.490887 1449.479736
5.160000 3.160000 -7.040000 24.586529 -22.163010 1095.696411
5.160000 3.160000 -7.000000 25.509232 -7.400412 705.487000
5.160000 3.160000 -6.960000 20.225590 3.647995 422.382355
5.160000 3.160000 -6.920000 12.421635 10.594925 266.549438
5.160000 3.160000 -6.880000 3.282940 13.997516 206.708145
5.160000 3.160000 -6.840000 -6.047963 13.142519 209.303650
5.160000 3.160000 -6.800000 -12.703243 8.361908 231.293884
5.160000 3.200000 -7.200000 -7.151254 -22.182247 543.192505
5.160000 3.200000 -7.160000 3.922802 -35.407345 1269.068481
5.160000 3.200000 -7.120000 24.469873 -36.303650 1916.729736
5.160000 3.200000 -7.080000 41.547668 -21.495007 2188.244141
5.160000 3.200000 -7.040000 44.974022 1.307439 2024.371948
5.160000 3.200000 -7.000000 34.113186 20.433857 1581.251953
5.160000 3.200000 -6.960000 16.159349 28.621702 1080.326416
5.160000 3.200000 -6.920000 -0.322412 25.948341 673.420349
5.160000 3.200000 -6.880000 -10.368639 17.260900 405.447357
5.160000 3.200000 -6.840000 -13.618770 8.135307 251.654114
5.160000 3.200000 -6.800000 -13.005190 2.227109 174.094986
5.200000 2.800000 -7.200000 -15.698458 9.930409 345.054596
5.200000 2.800000 -7.160000 -14.154297 1.892839 203.926956
5.200000 2.800000 -7.120000 -3.308141 2.242080 15.970720
5.200000 2.800000 -7.080000 2.412601 17.039431 296.162842
5.200000 2.800000 -7.040000 -10.477984 34.616718 1308.105347
5.200000 2.800000 -7.000000 -37.855042 35.296841 2678.871094
5.200000 2.800000 -6.960000 -58.886127 11.853725 3608.086670
5.200000 2.800000 -6.920000 -55.382072 -21.178455 3515.700684
5.200000 2.800000 -6.880000 -29.747145 -40.333996 2511.723877
5.200000 2.800000 -6.840000 -2.414358 -35.378128 1257.441040
5.200000 2.800000 -6.800000 8.670294 -17.549093 383.144653
5.200000 2.840000 -7.200000 -15.669955 -3.039257 254.784576
5.200000 2.840000 -7.160000 -8.988247 -7.675750 139.705719
5.200000 2.840000 -7.120000 -0.636550 -0.131372 0.422455
5.200000 2.840000 -7.080000 -4.881065 15.311790 258.275726
5.200000 2.840000 -7.040000 -24.818548 22.221298 1109.746460
5.200000 2.840000 -7.000000 -46.348236 8.569693 2221.598633
5.200000 2.840000 -6.960000 -50.509491 -19.485525 2930.894531
5.200000 2.840000 -6.920000 -32.056206 -41.982811 2790.156738
5.200000 2.840000 -6.880000 -4.707723 -43.753132 1936.499146
5.200000 2.840000 -6.840000 12.460118 -27.919544 934.755493
5.200000 2.840000 -6.800000 12.877378 -10.563799 277.420715
5.200000 2.880000 -7.200000 -5.786460 -12.009635 177.714462
5.200000 2.880000 -7.160000 1.633390 -9.936888 101.409698
5.200000 2.880000 -7.120000 2.466799 0.466737 6.302939
5.200000 2.880000 -7.080000 -9.014334 8.447755 152.622772
5.200000 2.880000 -7.040000 -25.530014 2.731666 659.243591
5.200000 2.880000 -7.000000 -32.579597 -16.251757 1325.549805
5.200000 2.880000 -6.960000 -22.321289 -35.487411 1757.596313
5.200000 2.880000 -6.920000 -1.249519 -41.125153 1692.839478
5.200000 2.880000 -6.880000 16.128805 -30.819530 1209.981812
5.200000 2.880000 -6.840000 20.648750 -14.301355 630.899658
5.200000 2.880000 -6.800000 15.022482 -2.603330 232.452286
5.200000 2.920000 -7.200000 8.262638 -10.119303 170.671478
5.200000 2.920000 -7.160000 10.541830 -2.222486 116.069626
5.200000 2.920000 -7.120000 3.518629 4.628769 33.806252
5.200000 2.920000 -7.080000 -7.823153 2.130583 65.741104
5.200000 2.920000 -7.040000 -13.384885 -9.841771 276.015594
5.200000 2.920000 -7.000000 -7.447200 -22.758089 573.391418
5.200000 2.920000 -6.960000 6.271962 -27.263283 782.624084
5.200000 2.920000 -6.920000 18.624353 -21.092484 791.759399
5.200000 2.920000 -6.880000 23.216087 -9.528372 629.776550
5.200000 2.920000 -6.840000 20.317444 0.727710 413.328094
5.200000 2.920000 -6.800000 13.756941 6.930305 237.282547
5.200000 2.960000 -7.200000 16.353735 3.013229 276.524200
5.200000 2.960000 -7.160000 9.636832 11.528998 225.786346
5.200000 2.960000 -7.120000 -1.303466 10.051439 102.730453
5.200000 2.960000 -7.080000 -6.040016 -0.152360 36.505009
5.200000 2.960000 -7.040000 -0.464689 -9.915018 98.523521
5.200000 2.960000 -7.000000 10.180693 -11.552181 237.099396
5.200000 2.960000 -6.960000 17.705612 -5.426519 342.935822
5.200000 2.960000 -6.920000 18.856226 2.591695 362.274139
5.200000 2.960000 -6.880000 16.152042 8.339516 330.435974
5.200000 2.960000 -6.840000 12.365188 12.276082 303.600067
5.200000 2.960000 -6.800000 6.667675 15.556187 286.452850
5.200000 3.000000 -7.200000 10.927040 18.983959 479.790924
5.200000 3.000000 -7.160000 -3.829962 21.154512 462.182007
5.200000 3.000000 -7.120000 -12.807459 10.134142 266.731842
5.200000 3.000000 -7.080000 -8.315748 -2.560126 75.705910
5.200000 3.000000 -7.040000 3.864011 -5.444643 44.574722
5.200000 3.000000 -7.000000 12.169146 1.968764 151.964142
5.200000 3.000000 -6.960000 11.530296 11.093212 256.007080
5.200000 3.000000 -6.920000 6.416413 15.155602 270.862610
5.200000 3.000000 -6.880000 2.828489 15.508190 248.504318
5.200000 3.000000 -6.840000 0.446060 16.730038 280.093140
5.200000 3.000000 -6.800000 -5.155706 18.160892 356.399323
5.200000 3.040000 -7.200000 -5.947341 25.616199 691.560547
5.200000 3.040000 -7.160000 -22.853876 16.808187 804.814819
5.200000 3.040000 -7.120000 -24.432407 -1.317199 598.677490
5.200000 3.040000 -7.080000 -11.092005 -11.843424 263.299255
5.200000 3.040000 -7.040000 3.535379 -7.320904 66.094536
5.200000 3.040000 -7.000000 7.769252 5.008858 85.449928
5.200000 3.040000 -6.960000 2.281234 13.534980 188.399704
5.200000 3.040000 -6.920000 -4.381626 14.675621 234.572510
5.200000 3.040000 -6.880000 -7.504713 13.423856 236.520630
5.200000 3.040000 -6.840000 -10.173813 13.659443 290.086853
5.200000 3.040000 -6.800000 -15.706400 12.094955 392.978943
5.200000 3.080000 -7.200000 -22.587404 16.750422 790.767456
5.200000 3.080000 -7.160000 -33.892994 -2.249975 1153.797363
5.200000 3.080000 -7.120000 -24.918371 -22.236551 1115.389404
5.200000 3.080000 -7.080000 -4.503195 -26.886509 743.163086
5.200000 3.080000 -7.040000 10.435349 -15.133535 337.920410
5.200000 3.080000 -7.000000 11.266945 0.976179 127.896973
5.200000 3.080000 -6.960000 2.712167 10.171679 110.818916
5.200000 3.080000 -6.920000 -6.029593 11.205499 161.919189
5.200000 3.080000 -6.880000 -11.428905 9.137333 214.110718
5.200000 3.080000 -6.840000 -15.545372 6.395445 282.560303
5.200000 3.080000 -6.800000 -18.651777 1.050817 348.993011
5.200000 3.120000 -7.200000 -26.502964 -1.647188 705.120361
5.200000 3.120000 -7.160000 -27.186871 -24.830368 1355.673096
5.200000 3.120000 -7.120000 -8.238281 -40.292038 1691.317627
5.200000 3.120000 -7.080000 16.015215 -35.896065 1545.014648
5.200000 3.120000 -7.040000 28.750650 -16.157457 1087.663330
5.200000 3.120000 -7.000000 24.505760 4.472768 620.537964
5.200000 3.120000 -6.960000 10.254281 15.045735 331.524414
5.200000 3.120000 -6.920000 -3.904046 14.555338 227.099442
5.200000 3.120000 -6.880000 -12.709083 7.916516 224.192001
5.200000 3.120000 -6.840000 -15.663631 -0.388846 245.500549
5.200000 3.120000 -6.800000 -13.321173 -7.532961 234.199142
5.200000 3.160000 -7.200000 -15.102458 -15.597398 471.363068
5.200000 3.160000 -7.160000 -5.880091 -35.441631 1290.684692
5.200000 3.160000 -7.120000 18.421017 -41.551956 2065.898926
5.200000 3.160000 -7.080000 41.178284 -26.740461 2410.703125
5.200000 3.160000 -7.040000 47.134712 0.323354 2221.785645
5.200000 3.160000 -7.000000 33.717667 23.380299 1683.519531
5.200000 3.160000 -6.960000 10.710033 31.144073 1084.658081
5.200000 3.160000 -6.920000 -8.777742 23.435513 626.272034
5.200000 3.160000 -6.880000 -16.896830 8.313091 354.610321
5.200000 3.160000 -6.840000 -13.733627 -4.606872 209.835785
5.200000 3.160000 -6.800000 -5.158310 -9.245966 112.096054
5.200000 3.200000 -7.200000 1.634041 -14.791064 221.445679
5.200000 3.200000 -7.160000 15.243392 -27.025063 962.714966
5.200000 3.200000 -7.120000 38.171875 -23.276033 1998.865723
5.200000 3.200000 -7.080000 53.601357 -0.636670 2873.510742
5.200000 3.200000 -7.040000 48.610676 28.999935 3203.994141
5.200000 3.200000 -7.000000 24.309986 47.986595 2893.688721
5.200000 3.200000 -6.960000 -5.314548 46.006325 2144.826416
5.200000 3.200000 -6.920000 -23.996508 26.796520 1293.885864
5.200000 3.200000 -6.880000 -24.421373 4.264162 614.586609
5.200000 3.200000 -6.840000 -12.061555 -8.058998 210.428558
5.200000 3.200000 -6.800000 0.187198 -6.197622 38.445557
