#kx 	ky 	kz 	real 	imag 	intensity
4.800000 4.800000 0.800000 -11.285413 -14.474080 336.859528
4.800000 4.800000 0.840000 -5.398735 -14.806959 248.392365
4.800000 4.800000 0.880000 -3.872934 -12.250657 165.078217
4.800000 4.800000 0.920000 -5.826067 -13.049706 204.237869
4.800000 4.800000 0.960000 -4.852653 -18.694994 373.051056
4.800000 4.800000 1.000000 3.368284 -23.377264 557.841797
4.800000 4.800000 1.040000 15.283539 -19.869003 628.363831
4.800000 4.800000 1.080000 22.209358 -7.523161 549.853516
4.800000 4.800000 1.120000 18.772797 6.483988 394.460022
4.800000 4.800000 1.160000 7.892399 13.999800 258.284363
4.800000 4.800000 1.200000 -2.910091 13.206366 182.876724
4.800000 4.840000 0.800000 -3.533888 -23.910254 584.188538
4.800000 4.840000 0.840000 2.895308 -22.479492 513.710388
4.800000 4.840000 0.880000 5.606280 -20.720861 460.784485
4.800000 4.840000 0.920000 8.324495 -21.160664 517.070923
4.800000 4.840000 0.960000 14.114930 -20.818848 632.655640
4.800000 4.840000 1.000000 20.653137 -15.559156 668.639404
4.800000 4.840000 1.040000 22.545681 -6.064219 545.082520
4.800000 4.840000 1.080000 17.830309 2.060853 322.167023
4.800000 4.840000 1.120000 10.639832 4.399302 132.559875
4.800000 4.840000 1.160000 6.515588 2.689770 49.687744
4.800000 4.840000 1.200000 5.829422 2.361717 39.559872
4.800000 4.880000 0.800000 9.631340 -27.222988 833.853760
4.800000 4.880000 0.840000 16.715206 -23.769150 844.370605
4.800000 4.880000 0.880000 21.664677 -20.099907 873.364502
4.800000 4.880000 0.920000 26.496775 -15.267752 935.183289
4.800000 4.880000 0.960000 29.364395 -7.380194 916.734985
4.800000 4.880000 1.000000 26.772911 1.340398 718.585449
4.800000 4.880000 1.040000 19.498947 5.379084 409.143494
4.800000 4.880000 1.080000 13.893995 2.543382 199.511902
4.800000 4.880000 1.120000 15.490383 -1.835056 243.319397
4.800000 4.880000 1.160000 21.685974 0.481422 470.513245
4.800000 4.880000 1.200000 22.857821 11.043247 644.433289
4.800000 4.920000 0.800000 23.553215 -21.322702 1009.411621
4.800000 4.920000 0.840000 30.081238 -14.353951 1110.916748
4.800000 4.920000 0.880000 34.119888 -6.272403 1203.509766
4.800000 4.920000 0.920000 34.701599 3.545120 1216.768799
4.800000 4.920000 0.960000 29.378384 12.455228 1018.222107
4.800000 4.920000 1.000000 19.930992 14.884748 618.800171
4.800000 4.920000 1.040000 14.009541 9.064577 278.433777
4.800000 4.920000 1.080000 18.250065 2.015460 337.126953
4.800000 4.920000 1.120000 29.447422 4.673681 888.993958
4.800000 4.920000 1.160000 34.841179 20.307739 1626.312012
4.800000 4.920000 1.200000 23.714437 38.514641 2045.752197
4.800000 4.960000 0.800000 31.664757 -6.582851 1045.990723
4.800000 4.960000 0.840000 33.953537 3.773315 1167.080566
4.800000 4.960000 0.880000 32.158447 13.907104 1227.573242
4.800000 4.960000 0.920000 25.427212 21.964846 1128.997559
4.800000 4.960000 0.960000 15.488507 23.623531 797.965088
4.800000 4.960000 1.000000 9.247310 17.232321 382.465607
4.800000 4.960000 1.040000 13.538156 9.259328 269.016815
4.800000 4.960000 1.080000 26.124416 11.193026 807.768921
4.800000 4.960000 1.120000 33.993961 28.181425 1949.782104
4.800000 4.960000 1.160000 23.841278 50.880478 3157.229492
4.800000 4.960000 1.200000 -4.059183 60.989017 3736.137207
4.800000 5.000000 0.800000 28.268772 11.686039 935.687012
4.800000 5.000000 0.840000 23.075331 20.986794 972.916382
4.800000 5.000000 0.880000 14.814473 26.160477 903.839172
4.800000 5.000000 0.920000 5.844126 25.539814 686.435913
4.800000 5.000000 0.960000 1.102429 19.024988 363.165527
4.800000 5.000000 1.000000 5.461949 12.026927 174.479858
4.800000 5.000000 1.040000 16.996229 14.096107 487.572021
4.800000 5.000000 1.080000 24.467873 30.243774 1513.362793
4.800000 5.000000 1.120000 15.050926 52.941723 3029.356201
4.800000 5.000000 1.160000 -12.990601 65.002396 4394.067383
4.800000 5.000000 1.200000 -45.441841 53.386890 4915.121094
4.800000 5.040000 0.800000 12.629188 24.448856 757.242981
4.800000 5.040000 0.840000 1.830423 25.712854 664.501343
4.800000 5.040000 0.880000 -6.203815 20.511673 459.216034
4.800000 5.040000 0.920000 -7.609633 11.974298 201.290344
4.800000 5.040000 0.960000 -0.788654 6.072573 37.498116
4.800000 5.040000 1.000000 10.424553 9.858003 205.851517
4.800000 5.040000 1.040000 16.089199 25.751762 922.015625
4.800000 5.040000 1.080000 6.008196 46.350967 2184.510498
4.800000 5.040000 1.120000 -20.790073 56.778168 3655.987305
4.800000 5.040000 1.160000 -51.988808 45.411739 4765.062500
4.800000 5.040000 1.200000 -69.300591 14.505953 5012.994629
4.800000 5.080000 0.800000 -8.730942 23.869274 645.971619
4.800000 5.080000 0.840000 -17.178173 13.474425 476.649780
4.800000 5.080000 0.880000 -15.321892 0.501340 235.011703
4.800000 5.080000 0.920000 -3.738226 -6.375013 54.615120
4.800000 5.080000 0.960000 10.352257 -0.636355 107.574165
4.800000 5.080000 1.000000 15.862461 17.078136 543.280396
4.800000 5.080000 1.040000 4.616661 37.079414 1396.196533
4.800000 5.080000 1.080000 -21.616705 45.207397 2510.990723
4.800000 5.080000 1.120000 -50.042770 32.442410 3556.788574
4.800000 5.080000 1.160000 -64.408737 2.470527 4154.588867
4.800000 5.080000 1.200000 -56.412632 -29.746719 4067.252441
4.800000 5.120000 0.800000 -24.805161 9.138336 698.805176
4.800000 5.120000 0.840000 -21.999804 -8.688197 559.476135
4.800000 5.120000 0.880000 -6.029749 -19.209494 405.362518
4.800000 5.120000 0.920000 13.595972 -13.605385 369.956970
4.800000 5.120000 0.960000 22.717203 6.757730 561.738220
4.800000 5.120000 1.000000 12.269648 29.388081 1014.203552
4.800000 5.120000 1.040000 -14.134117 38.188778 1658.156128
4.800000 5.120000 1.080000 -41.369461 24.858704 2329.387451
4.800000 5.120000 1.120000 -52.868301 -4.643440 2816.618896
4.800000 5.120000 1.160000 -42.195396 -34.109497 2943.909180
4.800000 5.120000 1.200000 -16.917685 -48.661346 2654.134766
4.800000 5.160000 0.800000 -27.265871 -11.929068 885.730408
4.800000 5.160000 0.840000 -10.478535 -27.125950 845.616821
4.800000 5.160000 0.880000 14.001408 -25.044788 823.280823
4.800000 5.160000 0.920000 29.648815 -4.222208 896.879272
4.800000 5.160000 0.960000 23.853403 22.527542 1076.474976
4.800000 5.160000 1.000000 -1.363909 36.249405 1315.879639
4.800000 5.160000 1.040000 -29.510244 26.106571 1552.407593
4.800000 5.160000 1.080000 -41.561958 -1.974707 1731.295776
4.800000 5.160000 1.120000 -30.183987 -29.865723 1803.034424
4.800000 5.160000 1.160000 -4.299649 -41.233624 1718.698608
4.800000 5.160000 1.200000 19.253014 -32.951298 1456.466553
4.800000 5.200000 0.800000 -16.478371 -28.037937 1057.662598
4.800000 5.200000 0.840000 8.520163 -32.050213 1099.809326
4.800000 5.200000 0.880000 30.213337 -15.285449 1146.490723
4.800000 5.200000 0.920000 32.398621 13.151803 1222.640625
4.800000 5.200000 0.960000 12.064615 33.646015 1277.609253
4.800000 5.200000 1.000000 -16.608025 31.162838 1246.948975
4.800000 5.200000 1.040000 -32.723000 7.728517 1130.524658
4.800000 5.200000 1.080000 -25.240967 -19.042425 999.720337
4.800000 5.200000 1.120000 -1.170507 -30.353519 922.706238
4.800000 5.200000 1.160000 21.452862 -20.747320 890.676575
4.800000 5.200000 1.200000 28.743000 -0.338355 826.274536
4.840000 4.800000 0.800000 1.106681 -2.593559 7.951292
4.840000 4.800000 0.840000 -2.087493 -3.457584 16.312513
4.840000 4.800000 0.880000 -4.411496 -8.508741 91.859978
4.840000 4.800000 0.920000 -1.389502 -15.810062 251.888779
4.840000 4.800000 0.960000 7.882135 -19.550545 444.351837
4.840000 4.800000 1.000000 18.520954 -15.178947 573.426208
4.840000 4.800000 1.040000 23.549973 -4.122377 571.595215
4.840000 4.800000 1.080000 20.024441 7.115797 451.612793
4.840000 4.800000 1.120000 11.258688 12.765526 289.716705
4.840000 4.800000 1.160000 2.908424 12.366244 161.382935
4.840000 4.800000 1.200000 -2.548129 9.396866 94.794052
4.840000 4.840000 0.800000 3.343429 -7.124884 61.942490
4.840000 4.840000 0.840000 7.930012 -10.294104 168.853653
4.840000 4.840000 0.880000 15.582781 -9.525061 333.549835
4.840000 4.840000 0.920000 21.941591 -2.381811 487.106476
4.840000 4.840000 0.960000 21.456650 8.462487 532.001526
4.840000 4.840000 1.000000 12.987049 15.943260 422.850983
4.840000 4.840000 1.040000 2.279830 14.622051 219.002014
4.840000 4.840000 1.080000 -2.473843 6.469004 47.967903
4.840000 4.840000 1.120000 1.431763 -0.200574 2.090174
4.840000 4.840000 1.160000 7.954544 1.302103 64.970245
4.840000 4.840000 1.200000 7.985004 8.773594 140.736252
4.840000 4.880000 0.800000 9.983174 -9.264164 185.488510
4.840000 4.880000 0.840000 22.787460 -5.480103 549.299927
4.840000 4.880000 0.880000 30.945257 9.917953 1055.974731
4.840000 4.880000 0.920000 24.249691 29.800182 1476.098389
4.840000 4.880000 0.960000 2.660686 39.341183 1554.807861
4.840000 4.880000 1.000000 -20.060207 28.731779 1227.927002
4.840000 4.880000 1.040000 -26.373358 4.126064 712.578430
4.840000 4.880000 1.080000 -10.968897 -15.375523 356.723389
4.840000 4.880000 1.120000 12.864250 -13.997359 361.415009
4.840000 4.880000 1.160000 24.216381 5.950838 621.845581
4.840000 4.880000 1.200000 13.514576 25.598816 837.943115
4.840000 4.920000 0.800000 18.038208 -4.790802 348.328735
4.840000 4.920000 0.840000 29.761433 12.350933 1038.288452
4.840000 4.920000 0.880000 23.716112 38.428299 2039.188110
4.840000 4.920000 0.920000 -4.354441 53.990292 2933.912842
4.840000 4.920000 0.960000 -38.489731 41.798370 3228.562988
4.840000 4.920000 1.000000 -52.288445 5.374607 2762.968018
4.840000 4.920000 1.040000 -32.191189 -29.464725 1904.442627
4.840000 4.920000 1.080000 7.715984 -35.129761 1293.636475
4.840000 4.920000 1.120000 35.692444 -7.177198 1325.462769
4.840000 4.920000 1.160000 29.808800 30.594772 1824.604614
4.840000 4.920000 1.200000 -2.715775 47.018593 2218.123535
4.840000 4.960000 0.800000 20.800774 6.587945 476.073212
4.840000 4.960000 0.840000 19.164181 32.191429 1403.553955
4.840000 4.960000 0.880000 -6.679014 52.487129 2799.507812
4.840000 4.960000 0.920000 -45.391571 45.335762 4115.726074
4.840000 4.960000 0.960000 -67.913887 6.827146 4658.905762
4.840000 4.960000 1.000000 -51.654930 -38.674282 4163.931641
4.840000 4.960000 1.040000 -4.056009 -55.534424 3100.523438
4.840000 4.960000 1.080000 39.445839 -28.260773 2354.645508
4.840000 4.960000 1.120000 44.615540 22.528772 2498.092041
4.840000 4.960000 1.160000 8.574648 56.731216 3291.955566
4.840000 4.960000 1.200000 -37.995754 49.523964 3896.300293
4.840000 5.000000 0.800000 12.899616 18.571253 511.291504
4.840000 5.000000 0.840000 -5.510449 38.132336 1484.440063
4.840000 5.000000 0.880000 -39.851151 37.163055 2969.207031
4.840000 5.000000 0.920000 -66.136955 5.368752 4402.920410
4.840000 5.000000 0.960000 -58.105278 -40.941662 5052.443359
4.840000 5.000000 1.000000 -13.640965 -66.634895 4626.285645
4.840000 5.000000 1.040000 37.155396 -47.357269 3623.234375
4.840000 5.000000 1.080000 54.466122 5.940495 3001.847900
4.840000 5.000000 1.120000 23.452269 53.147362 3374.650879
4.840000 5.000000 1.160000 -31.736519 58.602272 4441.433105
4.840000 5.000000 1.200000 -68.963936 21.374485 5212.893066
4.840000 5.040000 0.800000 -3.739464 21.583134 479.815247
4.840000 5.040000 0.840000 -28.338860 22.892836 1327.172852
4.840000 5.040000 0.880000 -50.804756 0.702307 2581.616455
4.840000 5.040000 0.920000 -48.811440 -37.356121 3778.036377
4.840000 5.040000 0.960000 -14.273989 -64.212654 4327.011719
4.840000 5.040000 1.000000 32.980240 -54.147568 4019.655273
4.840000 5.040000 1.040000 56.942520 -8.195083 3309.610107
4.840000 5.040000 1.080000 35.699226 41.756073 3018.004395
4.840000 5.040000 1.120000 -17.445793 57.674416 3630.693848
4.840000 5.040000 1.160000 -63.562263 27.719637 4808.539551
4.840000 5.040000 1.200000 -70.858093 -24.119698 5602.628906
4.840000 5.080000 0.800000 -19.290117 10.614182 484.769470
4.840000 5.080000 0.840000 -33.262383 -4.992925 1131.315430
4.840000 5.080000 0.880000 -31.479643 -31.629492 1991.392578
4.840000 5.080000 0.920000 -6.578568 -52.056416 2753.147949
4.840000 5.080000 0.960000 30.122282 -46.508007 3070.346436
4.840000 5.080000 1.000000 52.329166 -11.641268 2873.860596
4.840000 5.080000 1.040000 39.254776 31.286091 2519.756836
4.840000 5.080000 1.080000 -4.358063 50.414337 2560.598145
4.840000 5.080000 1.120000 -48.918076 29.498192 3263.121338
4.840000 5.080000 1.160000 -63.180229 -17.527742 4298.963379
4.840000 5.080000 1.200000 -39.588875 -58.005989 4931.973633
4.840000 5.120000 0.800000 -22.879908 -9.360830 611.115295
4.840000 5.120000 0.840000 -17.226986 -27.545753 1055.537598
4.840000 5.120000 0.880000 2.864126 -39.004814 1529.578735
4.840000 5.120000 0.920000 28.984682 -32.132050 1872.580444
4.840000 5.120000 0.960000 43.930103 -5.525680 1960.387085
4.840000 5.120000 1.000000 33.647518 26.519224 1835.424805
4.840000 5.120000 1.040000 0.508204 41.651089 1735.071533
4.840000 5.120000 1.080000 -35.109146 26.549026 1937.502930
4.840000 5.120000 1.120000 -48.923004 -11.011756 2514.719238
4.840000 5.120000 1.160000 -31.625996 -46.966545 3206.060059
4.840000 5.120000 1.200000 4.108275 -59.550159 3563.099365
4.840000 5.160000 0.800000 -11.589403 -26.270535 824.455261
4.840000 5.160000 0.840000 7.767422 -31.840528 1074.152100
4.840000 5.160000 0.880000 27.958797 -21.590845 1247.858887
4.840000 5.160000 0.920000 36.105461 1.715914 1306.548706
4.840000 5.160000 0.960000 24.667128 25.467274 1257.049194
4.840000 5.160000 1.000000 -1.725330 34.246155 1175.775879
4.840000 5.160000 1.040000 -27.478493 20.671242 1182.367798
4.840000 5.160000 1.080000 -36.000290 -8.210159 1363.427612
4.840000 5.160000 1.120000 -21.501350 -35.023594 1688.960205
4.840000 5.160000 1.160000 6.877443 -44.188446 1999.917969
4.840000 5.160000 1.200000 32.181812 -32.560318 2095.843262
4.840000 5.200000 0.800000 6.838938 -30.462868 974.757385
4.840000 5.200000 0.840000 25.390652 -19.576336 1027.918091
4.840000 5.200000 0.880000 31.267361 2.547095 984.135498
4.840000 5.200000 0.920000 19.304558 22.809164 892.923889
4.840000 5.200000 0.960000 -3.760412 28.171328 807.764404
4.840000 5.200000 1.000000 -23.368380 15.002304 771.150269
4.840000 5.200000 1.040000 -27.144852 -8.185763 803.849670
4.840000 5.200000 1.080000 -13.277098 -26.809742 895.043579
4.840000 5.200000 1.120000 9.003274 -30.305891 999.505981
4.840000 5.200000 1.160000 26.668499 -18.488899 1053.048218
4.840000 5.200000 1.200000 31.695717 0.049015 1004.620850
4.880000 4.800000 0.800000 -1.446649 17.916958 323.110168
4.880000 4.800000 0.840000 -10.776129 8.113270 181.950104
4.880000 4.800000 0.880000 -9.203682 -6.158463 122.634430
4.880000 4.800000 0.920000 3.038231 -14.260445 212.591125
4.880000 4.800000 0.960000 16.843788 -10.136782 386.467529
4.880000 4.800000 1.000000 22.221424 2.175842 498.525970
4.880000 4.800000 1.040000 17.158606 12.680779 455.219910
4.880000 4.800000 1.080000 8.392666 15.081429 297.886353
4.880000 4.800000 1.120000 3.520142 11.870299 153.295410
4.880000 4.800000 1.160000 3.201186 9.757302 105.452545
4.880000 4.800000 1.200000 1.971345 10.984020 124.534897
4.880000 4.840000 0.800000 -7.703011 10.134062 162.035583
4.880000 4.840000 0.840000 0.438866 3.122416 9.942082
4.880000 4.840000 0.880000 11.412298 8.755816 206.904861
4.880000 4.840000 0.920000 11.581154 23.974970 708.922302
4.880000 4.840000 0.960000 -3.633175 34.277565 1188.151367
4.880000 4.840000 1.000000 -23.336498 27.397213 1295.199463
4.880000 4.840000 1.040000 -30.352390 6.408546 962.337036
4.880000 4.840000 1.080000 -17.965855 -11.752984 460.904572
4.880000 4.840000 1.120000 2.679302 -12.092859 153.415909
4.880000 4.840000 1.160000 12.805843 3.652117 177.327576
4.880000 4.840000 1.200000 4.293806 18.480053 359.949127
4.880000 4.880000 0.800000 -5.424474 1.611729 32.022583
4.880000 4.880000 0.840000 10.988249 13.711878 308.757202
4.880000 4.880000 0.880000 7.596363 41.504208 1780.303955
4.880000 4.880000 0.920000 -24.190582 59.066319 4074.014404
4.880000 4.880000 0.960000 -64.689522 42.775665 6014.492188
4.880000 4.880000 1.000000 -80.317093 -3.389603 6462.324707
4.880000 4.880000 1.040000 -54.594841 -47.243183 5212.515137
4.880000 4.880000 1.080000 -5.535942 -55.820312 3146.553955
4.880000 4.880000 1.120000 29.098459 -25.444715 1494.153809
4.880000 4.880000 1.160000 25.636984 15.025502 883.020630
4.880000 4.880000 1.200000 -5.114586 31.336643 1008.144226
4.880000 4.920000 0.800000 1.672109 -0.060701 2.799632
4.880000 4.920000 0.840000 5.414457 32.402378 1079.230469
4.880000 4.920000 0.880000 -28.983097 61.235741 4589.835938
4.880000 4.920000 0.920000 -85.038498 49.343422 9666.319336
4.880000 4.920000 0.960000 -117.311478 -10.285694 13867.778320
4.880000 4.920000 1.000000 -91.531197 -80.466980 14852.894531
4.880000 4.920000 1.040000 -19.578217 -108.626907 12183.111328
4.880000 4.920000 1.080000 46.998642 -73.727814 7644.663086
4.880000 4.920000 1.120000 61.414555 -6.085987 3808.786865
4.880000 4.920000 1.160000 22.197422 40.106750 2101.276855
4.880000 4.920000 1.200000 -28.758614 35.124657 2060.799316
4.880000 4.960000 0.800000 4.782074 5.644758 54.731525
4.880000 4.960000 0.840000 -18.027916 40.298077 1948.940674
4.880000 4.960000 0.880000 -74.585045 42.048279 7330.986328
4.880000 4.960000 0.920000 -121.305817 -12.200239 14863.947266
4.880000 4.960000 0.960000 -109.069778 -95.419739 21001.144531
4.880000 4.960000 1.000000 -31.971630 -146.158005 22384.347656
4.880000 4.960000 1.040000 59.948555 -121.719788 18409.537109
4.880000 4.960000 1.080000 100.947586 -38.825188 11697.810547
4.880000 4.960000 1.120000 66.795990 39.255035 6002.662109
4.880000 4.960000 1.160000 -5.629282 58.243362 3423.978027
4.880000 4.960000 1.200000 -54.580338 18.129072 3307.676514
4.880000 5.000000 0.800000 -1.049520 10.876362 119.396744
4.880000 5.000000 0.840000 -43.025669 24.679728 2460.297119
4.880000 5.000000 0.880000 -91.980988 -10.284712 8566.277344
4.880000 5.000000 0.920000 -97.368729 -86.003593 16877.287109
4.880000 5.000000 0.960000 -34.799549 -149.323227 23508.433594
4.880000 5.000000 1.000000 62.724373 -144.672699 24864.537109
4.880000 5.000000 1.040000 126.369781 -66.558609 20399.369141
4.880000 5.000000 1.080000 110.174011 30.442463 13065.055664
4.880000 5.000000 1.120000 31.851780 77.222038 6977.779297
4.880000 5.000000 1.160000 -44.007713 49.207142 4358.021484
4.880000 5.000000 1.200000 -63.960247 -16.761303 4371.854492
4.880000 5.040000 0.800000 -11.094921 6.904131 170.764297
4.880000 5.040000 0.840000 -48.629169 -7.614012 2422.769287
4.880000 5.040000 0.880000 -64.108528 -60.515587 7772.039551
4.880000 5.040000 0.920000 -25.802719 -118.813011 14782.311523
4.880000 5.040000 0.960000 55.299835 -130.858658 20182.060547
4.880000 5.040000 1.000000 125.090378 -73.677635 21075.996094
4.880000 5.040000 1.040000 129.604370 19.820517 17190.146484
4.880000 5.040000 1.080000 63.669155 84.158051 11136.338867
4.880000 5.040000 1.120000 -22.469364 76.545563 6364.095703
4.880000 5.040000 1.160000 -66.535858 12.433704 4581.617676
4.880000 5.040000 1.200000 -46.705006 -51.873760 4872.244629
4.880000 5.080000 0.800000 -14.683290 -6.633333 259.600128
4.880000 5.080000 0.840000 -28.223831 -34.783161 2006.452881
4.880000 5.080000 0.880000 -10.035288 -74.234528 5611.472168
4.880000 5.080000 0.920000 42.953609 -90.478516 10031.374023
4.880000 5.080000 0.960000 99.562119 -57.423767 13210.104492
4.880000 5.080000 1.000000 115.322784 13.498383 13481.550781
4.880000 5.080000 1.040000 71.674927 75.871521 10893.783203
4.880000 5.080000 1.080000 -3.755402 85.035988 7245.222168
4.880000 5.080000 1.120000 -57.870827 36.529617 4683.445312
4.880000 5.080000 1.160000 -56.304115 -30.299337 4088.203125
4.880000 5.080000 1.200000 -10.124549 -67.227219 4622.005371
4.880000 5.120000 0.800000 -5.498163 -20.308796 442.677002
4.880000 5.120000 0.840000 4.280701 -38.801380 1523.871460
4.880000 5.120000 0.880000 32.344463 -47.249966 3278.723633
4.880000 5.120000 0.920000 65.421135 -29.506855 5150.579102
4.880000 5.120000 0.960000 78.140625 13.278370 6282.271973
4.880000 5.120000 1.000000 53.728371 56.854317 6119.151367
4.880000 5.120000 1.040000 2.187119 69.920433 4893.650879
4.880000 5.120000 1.080000 -43.367760 40.390118 3512.124023
4.880000 5.120000 1.120000 -52.104553 -12.346166 2867.312256
4.880000 5.120000 1.160000 -20.534904 -52.167702 3143.151367
4.880000 5.120000 1.200000 25.802170 -55.358818 3730.350586
4.880000 5.160000 0.800000 11.819243 -23.285786 681.922363
4.880000 5.160000 0.840000 26.953146 -20.494656 1146.503052
4.880000 5.160000 0.880000 39.554512 -6.341812 1604.778076
4.880000 5.160000 0.920000 40.580772 16.126280 1906.855957
4.880000 5.160000 0.960000 24.669058 36.391449 1932.899902
4.880000 5.160000 1.000000 -3.531265 41.077633 1699.841797
4.880000 5.160000 1.040000 -29.024837 23.683006 1403.325928
4.880000 5.160000 1.080000 -35.317261 -8.237217 1315.160645
4.880000 5.160000 1.120000 -16.807074 -36.098053 1585.547119
4.880000 5.160000 1.160000 15.840932 -43.018314 2101.510498
4.880000 5.160000 1.200000 43.057781 -26.138338 2537.185303
4.880000 5.200000 0.800000 25.621914 -13.421472 836.618408
4.880000 5.200000 0.840000 28.755507 3.005335 835.911194
4.880000 5.200000 0.880000 19.741346 17.453386 694.341431
4.880000 5.200000 0.920000 3.627161 22.120327 502.465179
4.880000 5.200000 0.960000 -11.178337 15.227795 356.840942
4.880000 5.200000 1.000000 -17.929119 0.689543 321.928772
4.880000 5.200000 1.040000 -14.061213 -14.927017 420.533539
4.880000 5.200000 1.080000 -1.107040 -25.266012 639.596924
4.880000 5.200000 1.120000 16.242416 -25.888885 934.050476
4.880000 5.200000 1.160000 31.318546 -15.714149 1227.785767
4.880000 5.200000 1.200000 37.691895 1.869455 1424.173828
4.920000 4.800000 0.800000 -21.747116 31.601166 1471.570801
4.920000 4.800000 0.840000 -28.573322 9.752617 911.548279
4.920000 4.800000 0.880000 -16.960114 -8.918396 367.183228
4.920000 4.800000 0.920000 2.886169 -11.426303 138.890366
4.920000 4.800000 0.960000 14.917618 0.930790 223.401688
4.920000 4.800000 1.000000 12.135476 14.686874 362.974060
4.920000 4.800000 1.040000 2.006786 18.100697 331.662415
4.920000 4.800000 1.080000 -2.958332 12.259670 159.051239
4.920000 4.800000 1.120000 1.010994 7.885718 63.206665
4.920000 4.800000 1.160000 5.881119 11.945971 177.293762
4.920000 4.800000 1.200000 2.420366 19.321592 379.182129
4.920000 4.840000 0.800000 -31.325527 13.037254 1151.258667
4.920000 4.840000 0.840000 -18.078936 6.685879 371.548889
4.920000 4.840000 0.880000 -10.111778 17.722191 416.324097
4.920000 4.840000 0.920000 -21.382092 31.240757 1433.178711
4.920000 4.840000 0.960000 -44.816002 26.658409 2719.144775
4.920000 4.840000 1.000000 -57.362526 -0.105789 3290.470703
4.920000 4.840000 1.040000 -42.800957 -29.949661 2728.904053
4.920000 4.840000 1.080000 -9.442291 -37.806126 1518.459961
4.920000 4.840000 1.120000 16.243490 -17.299595 563.126953
4.920000 4.840000 1.160000 14.696929 12.323463 367.867493
4.920000 4.840000 1.200000 -7.963902 24.648228 670.958862
4.920000 4.880000 0.800000 -25.804688 -4.677230 687.758362
4.920000 4.880000 0.840000 -15.459770 17.337999 539.610718
4.920000 4.880000 0.880000 -39.687672 42.550117 3385.623779
4.920000 4.880000 0.920000 -87.296448 33.631573 8751.752930
4.920000 4.880000 0.960000 -116.136497 -19.860847 13882.139648
4.920000 4.880000 1.000000 -91.940865 -84.987961 15676.076172
4.920000 4.880000 1.040000 -23.932976 -111.928383 13100.750000
4.920000 4.880000 1.080000 39.852036 -79.761604 7950.098145
4.920000 4.880000 1.120000 55.053703 -16.564270 3305.285156
4.920000 4.880000 1.160000 20.368860 26.627691 1123.924438
4.920000 4.880000 1.200000 -24.334711 22.450006 1096.180908
4.920000 4.920000 0.800000 -12.835268 -11.500662 297.009338
4.920000 4.920000 0.840000 -30.604946 25.535139 1588.706055
4.920000 4.920000 0.880000 -89.612930 29.072119 8875.665039
4.920000 4.920000 0.920000 -140.500488 -30.757793 20686.427734
4.920000 4.920000 0.960000 -125.619530 -124.709412 31332.703125
4.920000 4.920000 1.000000 -37.010429 -182.681244 34742.210938
4.920000 4.920000 1.040000 68.829185 -155.901001 29042.580078
4.920000 4.920000 1.080000 117.943909 -63.399277 17930.234375
4.920000 4.920000 1.120000 84.087463 23.984722 7645.968750
4.920000 4.920000 1.160000 9.154957 47.224968 2314.010742
4.920000 4.920000 1.200000 -39.531353 8.607190 1636.811646
4.920000 4.960000 0.800000 -3.803844 -8.520941 87.075661
4.920000 4.960000 0.840000 -52.784454 13.496048 2968.342041
4.920000 4.960000 0.880000 -116.088959 -28.671207 14298.684570
4.920000 4.960000 0.920000 -124.113991 -127.441109 31645.519531
4.920000 4.960000 0.960000 -41.850765 -212.393707 46862.574219
4.920000 4.960000 1.000000 88.349617 -208.967896 51473.238281
4.920000 4.960000 1.040000 176.408951 -108.983765 42997.578125
4.920000 4.960000 1.080000 162.657883 17.335703 26758.113281
4.920000 4.960000 1.120000 69.880386 82.174088 11635.849609
4.920000 4.960000 1.160000 -20.809443 55.889832 3556.706299
4.920000 4.960000 1.200000 -45.075661 -14.446115 2240.505371
4.920000 5.000000 0.800000 -2.652117 -5.035933 32.394341
4.920000 5.000000 0.840000 -59.170067 -18.199575 3832.321533
4.920000 5.000000 0.880000 -87.870163 -94.538773 16658.744141
4.920000 5.000000 0.920000 -34.674301 -185.538330 35626.781250
4.920000 5.000000 0.960000 87.970360 -210.242523 51940.703125
4.920000 5.000000 1.000000 199.418045 -129.951263 56654.890625
4.920000 5.000000 1.040000 217.271729 9.243815 47292.453125
4.920000 5.000000 1.080000 131.050232 111.723862 29656.386719
4.920000 5.000000 1.120000 11.435976 114.568512 13256.725586
4.920000 5.000000 1.160000 -54.061150 38.563221 4409.729980
4.920000 5.000000 1.200000 -36.130577 -38.901257 2818.726318
4.920000 5.040000 0.800000 -3.232181 -7.679634 69.423767
4.920000 5.040000 0.840000 -37.304733 -48.203903 3715.259277
4.920000 5.040000 0.880000 -17.832157 -120.211700 14768.837891
4.920000 5.040000 0.920000 69.881844 -160.396378 30610.470703
4.920000 5.040000 0.960000 175.229523 -115.114548 43956.742188
4.920000 5.040000 1.000000 218.144547 3.572975 47599.808594
4.920000 5.040000 1.040000 159.752960 119.138771 39715.054688
4.920000 5.040000 1.080000 40.227409 153.519836 25186.583984
4.920000 5.040000 1.120000 -54.747845 93.784210 11792.804688
4.920000 5.040000 1.160000 -67.815834 -0.684930 4599.456543
4.920000 5.040000 1.200000 -13.921693 -55.361259 3258.682617
4.920000 5.080000 0.800000 2.498933 -13.308601 183.363525
4.920000 5.080000 0.840000 1.224127 -53.262238 2838.364502
4.920000 5.080000 0.880000 46.534447 -88.479919 9994.151367
4.920000 5.080000 0.920000 120.126907 -73.546165 19839.511719
4.920000 5.080000 0.960000 166.952332 3.403946 27884.666016
4.920000 5.080000 1.000000 140.957947 100.041435 29877.431641
4.920000 5.080000 1.040000 49.848145 149.801163 24925.226562
4.920000 5.080000 1.080000 -46.289421 118.329666 16144.621094
4.920000 5.080000 1.120000 -84.399750 33.481979 8244.361328
4.920000 5.080000 1.160000 -50.384834 -40.064201 4143.771973
4.920000 5.080000 1.200000 14.598213 -56.887802 3449.329834
4.920000 5.120000 0.800000 14.692286 -13.035639 385.791138
4.920000 5.120000 0.840000 30.288290 -29.876957 1810.013062
4.920000 5.120000 0.880000 65.042160 -27.639845 4994.443359
4.920000 5.120000 0.920000 94.809830 8.770416 9065.824219
4.920000 5.120000 0.960000 88.406372 66.157639 12192.519531
4.920000 5.120000 1.000000 36.991863 106.850723 12785.474609
4.920000 5.120000 1.040000 -32.162750 98.234650 10684.489258
4.920000 5.120000 1.080000 -74.155220 42.320690 7290.037109
4.920000 5.120000 1.120000 -62.804710 -23.385744 4491.324707
4.920000 5.120000 1.160000 -11.723286 -56.202217 3296.124512
4.920000 5.120000 1.200000 39.245186 -42.147003 3316.554443
4.920000 5.160000 0.800000 24.892002 -2.642986 626.597107
4.920000 5.160000 0.840000 32.696766 2.784811 1076.833618
4.920000 5.160000 0.880000 38.224648 16.244303 1725.000977
4.920000 5.160000 0.920000 33.278873 35.882816 2395.060059
4.920000 5.160000 0.960000 12.492462 51.410030 2799.052734
4.920000 5.160000 1.000000 -18.437218 49.089397 2749.699951
4.920000 5.160000 1.040000 -42.404270 23.558521 2353.125977
4.920000 5.160000 1.080000 -42.129807 -14.146210 1975.035889
4.920000 5.160000 1.120000 -14.708239 -41.831764 1966.228760
4.920000 5.160000 1.160000 24.052214 -42.297779 2367.611084
4.920000 5.160000 1.200000 50.825836 -16.675127 2861.325439
4.920000 5.200000 0.800000 24.993301 12.174215 772.876587
4.920000 5.200000 0.840000 14.471235 21.269400 661.804016
4.920000 5.200000 0.880000 1.100739 20.592018 425.242859
4.920000 5.200000 0.920000 -7.521252 12.411531 210.615341
4.920000 5.200000 0.960000 -9.517372 2.702086 97.881645
4.920000 5.200000 1.000000 -7.609917 -5.481926 87.962341
4.920000 5.200000 1.040000 -3.273426 -13.094276 182.175385
4.920000 5.200000 1.080000 5.711773 -20.149261 438.617096
4.920000 5.200000 1.120000 20.955698 -21.905008 918.970642
4.920000 5.200000 1.160000 37.721199 -12.165831 1570.896362
4.920000 5.200000 1.200000 45.804504 9.053722 2180.022705
4.960000 4.800000 0.800000 -48.712257 26.175241 3058.027344
4.960000 4.800000 0.840000 -45.050983 -3.360077 2040.881226
4.960000 4.800000 0.880000 -22.735661 -19.169510 884.380371
4.960000 4.800000 0.920000 -0.173347 -13.430515 180.408783
4.960000 4.800000 0.960000 6.935299 3.285408 58.892277
4.960000 4.800000 1.000000 -0.482159 13.680801 187.396805
4.960000 4.800000 1.040000 -8.341545 11.194702 194.902740
4.960000 4.800000 1.080000 -5.943893 4.882484 59.168522
4.960000 4.800000 1.120000 2.591576 7.190865 58.424797
4.960000 4.800000 1.160000 4.315779 18.733307 369.562744
4.960000 4.800000 1.200000 -6.404802 27.306845 786.685242
4.960000 4.840000 0.800000 -52.278542 -3.792915 2747.432129
4.960000 4.840000 0.840000 -36.726410 -6.761295 1394.544312
4.960000 4.840000 0.880000 -34.801311 3.578796 1223.938965
4.960000 4.840000 0.920000 -50.560608 5.196091 2583.374268
4.960000 4.840000 0.960000 -64.864197 -15.979050 4462.694336
4.960000 4.840000 1.000000 -54.534164 -48.516716 5327.846680
4.960000 4.840000 1.040000 -17.996819 -64.301147 4458.522949
4.960000 4.840000 1.080000 19.846245 -46.279560 2535.671143
4.960000 4.840000 1.120000 30.096327 -6.979111 954.496887
4.960000 4.840000 1.160000 7.727276 22.089443 547.654297
4.960000 4.840000 1.200000 -23.579018 20.165356 962.611694
4.960000 4.880000 0.800000 -36.425594 -26.520105 2030.139893
4.960000 4.880000 0.840000 -39.071922 -3.494852 1538.829102
4.960000 4.880000 0.880000 -75.262802 1.081013 5665.657715
4.960000 4.880000 0.920000 -110.212891 -40.532547 13789.768555
4.960000 4.880000 0.960000 -97.785179 -110.007446 21663.580078
4.960000 4.880000 1.000000 -28.422348 -153.633148 24410.974609
4.960000 4.880000 1.040000 55.376110 -131.396896 20331.658203
4.960000 4.880000 1.080000 94.648727 -56.611176 12163.207031
4.960000 4.880000 1.120000 67.220741 14.431404 4726.893555
4.960000 4.880000 1.160000 6.390760 33.514847 1164.086792
4.960000 4.880000 1.200000 -32.748596 2.168333 1077.172241
4.960000 4.920000 0.800000 -13.848362 -32.569054 1252.520386
4.960000 4.920000 0.840000 -51.349091 -10.823210 2753.870850
4.960000 4.920000 0.880000 -106.385277 -47.108788 13537.064453
4.960000 4.920000 0.920000 -111.968521 -137.613205 31474.343750
4.960000 4.920000 0.960000 -32.666374 -216.187363 47804.070312
4.960000 4.920000 1.000000 92.186493 -211.078415 53052.445312
4.960000 4.920000 1.040000 176.566422 -114.073792 44188.531250
4.960000 4.920000 1.080000 163.634613 7.488518 26832.365234
4.960000 4.920000 1.120000 76.023987 69.890701 10664.356445
4.960000 4.920000 1.160000 -8.325010 46.189571 2202.782471
4.960000 4.920000 1.200000 -29.254578 -17.055080 1146.706055
4.960000 4.960000 0.800000 2.612050 -25.957150 680.596436
4.960000 4.960000 0.840000 -55.534107 -35.598362 4351.280273
4.960000 4.960000 0.880000 -86.584412 -116.432991 21053.501953
4.960000 4.960000 0.920000 -27.613934 -215.652542 47268.546875
4.960000 4.960000 0.960000 109.012489 -242.234283 70561.171875
4.960000 4.960000 1.000000 233.615952 -152.415527 77806.906250
4.960000 4.960000 1.040000 254.825043 2.498058 64942.042969
4.960000 4.960000 1.080000 161.974289 116.901367 39901.601562
4.960000 4.960000 1.120000 33.583729 123.082878 16277.261719
4.960000 4.960000 1.160000 -35.802811 46.010845 3398.839111
4.960000 4.960000 1.200000 -17.739407 -29.672205 1195.126343
4.960000 5.000000 0.800000 10.062716 -16.814074 383.971313
4.960000 5.000000 0.840000 -35.327477 -63.017193 5219.197266
4.960000 5.000000 0.880000 -13.724220 -154.030365 23913.707031
4.960000 5.000000 0.920000 97.288826 -207.175110 52386.640625
4.960000 5.000000 0.960000 233.491608 -151.168900 77370.367188
4.960000 5.000000 1.000000 291.683655 -0.213024 85079.398438
4.960000 5.000000 1.040000 221.927246 148.531189 71313.218750
4.960000 5.000000 1.080000 75.045837 197.005844 44443.179688
4.960000 5.000000 1.120000 -42.373215 130.396912 18798.845703
4.960000 5.000000 1.160000 -61.789490 23.065929 4349.978516
4.960000 5.000000 1.200000 -4.848111 -35.695015 1297.638184
4.960000 5.040000 0.800000 13.976422 -10.273737 300.890045
4.960000 5.040000 0.840000 4.147774 -68.846725 4757.075684
4.960000 5.040000 0.880000 67.163742 -126.642578 20549.310547
4.960000 5.040000 0.920000 178.420212 -110.825294 44116.015625
4.960000 5.040000 0.960000 254.242523 0.376980 64639.402344
4.960000 5.040000 1.000000 223.389328 145.374451 71036.523438
4.960000 5.040000 1.040000 95.272469 225.595673 59970.250000
4.960000 5.040000 1.080000 -43.521545 190.405090 38148.222656
4.960000 5.040000 1.120000 -103.528290 79.548729 17046.107422
4.960000 5.040000 1.160000 -66.740959 -16.716732 4733.804688
4.960000 5.040000 1.200000 8.400106 -38.796494 1575.729736
4.960000 5.080000 0.800000 18.676464 -3.509684 361.128174
4.960000 5.080000 0.840000 37.725273 -43.636787 3327.365479
4.960000 5.080000 0.880000 102.069794 -52.612774 13186.347656
4.960000 5.080000 0.920000 166.129395 5.512604 27629.365234
4.960000 5.080000 0.960000 167.229431 110.301994 40132.214844
4.960000 5.080000 1.000000 84.276878 192.456589 44142.132812
4.960000 5.080000 1.040000 -36.290356 190.804779 37723.453125
4.960000 5.080000 1.080000 -116.049637 106.574928 24825.734375
4.960000 5.080000 1.120000 -110.255013 2.555267 12162.697266
4.960000 5.080000 1.160000 -42.034706 -52.093098 4480.607422
4.960000 5.080000 1.200000 25.079649 -38.200439 2088.262207
4.960000 5.120000 0.800000 21.570854 7.383892 519.823608
4.960000 5.120000 0.840000 42.721382 -3.712332 1838.897827
4.960000 5.120000 0.880000 75.484543 14.369785 5904.406738
4.960000 5.120000 0.920000 86.306358 65.383667 11723.811523
4.960000 5.120000 0.960000 49.601173 119.465828 16732.359375
4.960000 5.120000 1.000000 -24.081131 133.616394 18433.240234
4.960000 5.120000 1.040000 -90.477493 89.187874 16140.654297
4.960000 5.120000 1.080000 -106.116318 11.184204 11385.758789
4.960000 5.120000 1.120000 -64.335541 -50.482849 6687.580078
4.960000 5.120000 1.160000 0.559734 -61.429653 3773.915527
4.960000 5.120000 1.200000 44.023853 -27.800177 2710.949463
4.960000 5.160000 0.800000 17.286226 20.055347 701.030579
4.960000 5.160000 0.840000 20.030624 23.104708 935.053467
4.960000 5.160000 0.880000 20.937006 33.633274 1569.555420
4.960000 5.160000 0.920000 10.798737 48.567223 2475.387939
4.960000 5.160000 0.960000 -13.950485 55.481796 3272.845703
4.960000 5.160000 1.000000 -43.410339 41.408096 3599.087891
4.960000 5.160000 1.040000 -58.034119 6.133842 3405.583008
4.960000 5.160000 1.080000 -43.627205 -33.140495 3001.625488
4.960000 5.160000 1.120000 -4.823744 -52.565731 2786.424561
4.960000 5.160000 1.160000 36.193680 -39.958214 2906.641113
4.960000 5.160000 1.200000 55.937218 -4.500681 3149.228516
4.960000 5.200000 0.800000 5.885584 27.265120 778.026794
4.960000 5.200000 0.840000 -7.637011 22.923634 583.816895
4.960000 5.200000 0.880000 -13.864178 10.368340 299.717896
4.960000 5.200000 0.920000 -10.141678 -1.112337 104.090927
4.960000 5.200000 0.960000 -2.845524 -5.523792 38.609287
4.960000 5.200000 1.000000 1.069794 -6.053535 37.789749
4.960000 5.200000 1.040000 2.855751 -9.693314 102.115639
4.960000 5.200000 1.080000 10.408623 -16.735104 388.403107
4.960000 5.200000 1.120000 27.449507 -17.911308 1074.290405
4.960000 5.200000 1.160000 45.784233 -3.615492 2109.267822
4.960000 5.200000 1.200000 50.443913 24.054546 3123.209473
5.000000 4.800000 0.800000 -65.535683 2.764717 4302.569336
5.000000 4.800000 0.840000 -49.124428 -26.184317 3098.827881
5.000000 4.800000 0.880000 -20.000923 -34.089535 1562.133301
5.000000 4.800000 0.920000 1.342432 -21.087471 446.483551
5.000000 4.800000 0.960000 4.580681 -2.986084 29.899334
5.000000 4.800000 1.000000 -2.983444 5.198654 35.926945
5.000000 4.800000 1.040000 -6.947746 3.208494 58.565613
5.000000 4.800000 1.080000 -2.321194 2.648876 12.404486
5.000000 4.800000 1.120000 2.057117 11.491665 136.290100
5.000000 4.800000 1.160000 -4.577361 23.857674 590.140808
5.000000 4.800000 1.200000 -20.790924 26.574306 1138.456299
5.000000 4.840000 0.800000 -56.657879 -32.106522 4240.943848
5.000000 4.840000 0.840000 -41.436085 -33.066082 2810.314941
5.000000 4.840000 0.880000 -40.700813 -29.062725 2501.198242
5.000000 4.840000 0.920000 -47.522705 -38.122284 3711.715820
5.000000 4.840000 0.960000 -41.392982 -60.891048 5421.098633
5.000000 4.840000 1.000000 -11.850082 -76.962280 6063.616699
5.000000 4.840000 1.040000 26.596359 -64.960335 4927.211426
5.000000 4.840000 1.080000 45.508331 -26.323044 2763.910889
5.000000 4.840000 1.120000 29.798193 12.681961 1048.764404
5.000000 4.840000 1.160000 -6.503696 24.345060 634.980042
5.000000 4.840000 1.200000 -32.820381 5.349003 1105.789185
5.000000 4.880000 0.800000 -28.839989 -51.984024 3534.083740
5.000000 4.880000 0.840000 -39.903152 -39.455109 3148.967285
5.000000 4.880000 0.880000 -66.310898 -58.289223 7794.768555
5.000000 4.880000 0.920000 -65.693832 -111.146973 16669.328125
5.000000 4.880000 0.960000 -12.273849 -157.695282 25018.449219
5.000000 4.880000 1.000000 70.622841 -150.132019 27527.208984
5.000000 4.880000 1.040000 126.030426 -81.307526 22494.582031
5.000000 4.880000 1.080000 114.487549 3.839508 13122.140625
5.000000 4.880000 1.120000 50.815540 47.145050 4804.875000
5.000000 4.880000 1.160000 -10.309711 28.918442 942.566406
5.000000 4.880000 1.200000 -25.341232 -18.024906 967.075317
5.000000 4.920000 0.800000 1.651768 -50.509300 2553.917725
5.000000 4.920000 0.840000 -36.647453 -54.768139 4342.584961
5.000000 4.920000 0.880000 -57.063709 -115.019104 16485.662109
5.000000 4.920000 0.920000 -6.905411 -190.713165 36419.195312
5.000000 4.920000 0.960000 105.282623 -207.697800 54222.804688
5.000000 4.920000 1.000000 206.273712 -129.751495 59384.296875
5.000000 4.920000 1.040000 220.860153 0.476105 48779.433594
5.000000 4.920000 1.080000 141.119843 95.143768 28967.148438
5.000000 4.920000 1.120000 33.571854 98.699326 10868.625977
5.000000 4.920000 1.160000 -22.799847 33.776321 1660.672852
5.000000 4.920000 1.200000 -5.879132 -27.491135 790.326721
5.000000 4.960000 0.800000 21.870150 -34.627075 1677.337769
5.000000 4.960000 0.840000 -17.909687 -73.276108 5690.145020
5.000000 4.960000 0.880000 3.814796 -155.930206 24328.781250
5.000000 4.960000 0.920000 110.439621 -203.243011 53504.632812
5.000000 4.960000 0.960000 240.473175 -146.067627 79163.101562
5.000000 4.960000 1.000000 294.365662 1.455471 86653.257812
5.000000 4.960000 1.040000 225.079193 144.895569 71655.375000
5.000000 4.960000 1.080000 83.488358 190.566422 43285.867188
5.000000 4.960000 1.120000 -27.302753 126.901718 16849.486328
5.000000 4.960000 1.160000 -43.872612 27.738394 2694.224609
5.000000 4.960000 1.200000 8.994648 -22.090118 568.877014
5.000000 5.000000 0.800000 29.323359 -15.241156 1092.152222
5.000000 5.000000 0.840000 17.164467 -76.337975 6122.105469
5.000000 5.000000 0.880000 85.957581 -139.024033 26716.386719
5.000000 5.000000 0.920000 209.300339 -120.358795 58292.871094
5.000000 5.000000 0.960000 293.162689 4.540307 85964.976562
5.000000 5.000000 1.000000 258.239349 166.248352 94326.078125
5.000000 5.000000 1.040000 116.616219 255.226730 78740.023438
5.000000 5.000000 1.080000 -34.684505 217.696854 48594.937500
5.000000 5.000000 1.120000 -98.919846 100.475922 19880.546875
5.000000 5.000000 1.160000 -60.933941 2.713596 3720.308594
5.000000 5.000000 1.200000 12.075849 -15.111401 374.180542
5.000000 5.040000 0.800000 28.200806 1.662877 798.050598
5.000000 5.040000 0.840000 49.812843 -51.707882 5155.024414
5.000000 5.040000 0.880000 133.764130 -65.779907 22219.837891
5.000000 5.040000 0.920000 219.258392 9.241386 48159.644531
5.000000 5.040000 0.960000 222.545929 146.469772 70980.085938
5.000000 5.040000 1.000000 116.479675 254.456482 78315.617188
5.000000 5.040000 1.040000 -37.207417 254.800507 66307.687500
5.000000 5.040000 1.080000 -138.137665 151.977112 42179.054688
5.000000 5.040000 1.120000 -133.274200 27.563906 18521.781250
5.000000 5.040000 1.160000 -56.519043 -34.391998 4377.211914
5.000000 5.040000 1.200000 12.568161 -17.122492 451.138367
5.000000 5.080000 0.800000 21.833647 15.380163 713.257568
5.000000 5.080000 0.840000 56.799675 -9.553177 3317.466309
5.000000 5.080000 0.880000 115.623337 16.023003 13625.492188
5.000000 5.080000 0.920000 139.158691 99.663284 29297.910156
5.000000 5.080000 0.960000 83.797813 190.344269 43253.015625
5.000000 5.080000 1.000000 -31.806656 217.250824 48209.585938
5.000000 5.080000 1.040000 -135.691833 152.833603 41770.382812
5.000000 5.080000 1.080000 -162.277939 39.393559 27885.980469
5.000000 5.080000 1.120000 -106.981339 -47.276703 13680.093750
5.000000 5.080000 1.160000 -24.648548 -62.185997 4474.648926
5.000000 5.080000 1.200000 23.475479 -22.485352 1056.689209
5.000000 5.120000 0.800000 10.667139 25.147232 746.171143
5.000000 5.120000 0.840000 33.076973 23.485233 1645.642334
5.000000 5.120000 0.880000 52.249805 53.668987 5610.402344
5.000000 5.120000 0.920000 36.058384 102.149132 11734.652344
5.000000 5.120000 0.960000 -22.933075 129.696396 17347.080078
5.000000 5.120000 1.000000 -93.914169 104.381004 19715.265625
5.000000 5.120000 1.040000 -129.679459 32.406364 17866.933594
5.000000 5.120000 1.080000 -105.832306 -43.574142 13099.182617
5.000000 5.120000 1.120000 -41.081852 -78.586655 7863.581055
5.000000 5.120000 1.160000 19.878851 -60.612068 4068.991455
5.000000 5.120000 1.200000 43.770435 -15.354557 2151.613281
5.000000 5.160000 0.800000 -3.633720 27.897289 791.462646
5.000000 5.160000 0.840000 -1.928967 27.890999 781.628723
5.000000 5.160000 0.880000 -3.922485 34.986774 1239.460205
5.000000 5.160000 0.920000 -17.361313 42.307442 2091.334961
5.000000 5.160000 0.960000 -40.328003 36.992043 2994.759033
5.000000 5.160000 1.000000 -58.701439 11.762802 3584.222412
5.000000 5.160000 1.040000 -55.520000 -25.477089 3731.552490
5.000000 5.160000 1.080000 -25.632866 -54.234474 3598.421875
5.000000 5.160000 1.120000 17.558868 -55.980164 3442.092773
5.000000 5.160000 1.160000 50.444740 -28.774378 3372.636719
5.000000 5.160000 1.200000 56.223358 10.940819 3280.767334
5.000000 5.200000 0.800000 -15.476700 22.292492 736.483459
5.000000 5.200000 0.840000 -21.992083 8.888395 562.655273
5.000000 5.200000 0.880000 -17.104940 -6.006887 328.661682
5.000000 5.200000 0.920000 -4.445374 -12.676193 180.447235
5.000000 5.200000 0.960000 5.865641 -9.709816 128.686264
5.000000 5.200000 1.000000 8.513958 -5.294250 100.516571
5.000000 5.200000 1.040000 9.180439 -7.161427 135.566483
5.000000 5.200000 1.080000 17.767567 -12.222548 465.077087
5.000000 5.200000 1.120000 35.328716 -8.282700 1316.721313
5.000000 5.200000 1.160000 49.449398 12.594110 2603.854492
5.000000 5.200000 1.200000 44.562389 42.978386 3832.948242
5.040000 4.800000 0.800000 -62.791794 -25.014677 4568.543457
5.040000 4.800000 0.840000 -37.265198 -46.641212 3564.097656
5.040000 4.800000 0.880000 -6.375847 -45.338081 2096.192871
5.040000 4.800000 0.920000 12.027327 -26.677700 856.356323
5.040000 4.800000 0.960000 12.650253 -6.763546 205.774475
5.040000 4.800000 1.000000 4.550560 3.123490 30.463787
5.040000 4.800000 1.040000 -0.766876 5.041279 26.002590
5.040000 4.800000 1.080000 -1.496132 8.123642 68.231972
5.040000 4.800000 1.120000 -5.099604 15.781837 275.072357
5.040000 4.800000 1.160000 -16.914309 21.180023 734.687256
5.040000 4.800000 1.200000 -31.713907 15.818019 1255.981689
5.040000 4.840000 0.800000 -41.819290 -56.402180 4930.058594
5.040000 4.840000 0.840000 -25.898066 -57.571129 3985.144531
5.040000 4.840000 0.880000 -18.425146 -57.635986 3661.393066
5.040000 4.840000 0.920000 -10.236328 -64.292198 4238.269043
5.040000 4.840000 0.960000 9.328552 -70.305069 5029.824707
5.040000 4.840000 1.000000 36.838547 -60.486420 5015.685547
5.040000 4.840000 1.040000 54.081169 -29.850060 3815.799072
5.040000 4.840000 1.080000 44.903854 6.795601 2062.536377
5.040000 4.840000 1.120000 12.838871 25.603167 820.358765
5.040000 4.840000 1.160000 -19.535368 15.416580 619.301575
5.040000 4.840000 1.200000 -30.253483 -11.484272 1047.161743
5.040000 4.880000 0.800000 -6.101824 -67.237961 4558.175781
5.040000 4.880000 0.840000 -12.686687 -67.332710 4694.645996
5.040000 4.880000 0.880000 -14.260166 -92.381882 8737.764648
5.040000 4.880000 0.920000 17.421715 -124.506058 15805.275391
5.040000 4.880000 0.960000 79.445663 -125.168716 21978.820312
5.040000 4.880000 1.000000 132.637817 -74.511810 23144.800781
5.040000 4.880000 1.040000 135.146637 3.529480 18277.070312
5.040000 4.880000 1.080000 82.787827 58.337097 10257.041016
5.040000 4.880000 1.120000 15.135841 57.209801 3502.054932
5.040000 4.880000 1.160000 -19.850548 13.847151 585.787842
5.040000 4.880000 1.200000 -8.015471 -27.142117 800.942261
5.040000 4.920000 0.800000 26.748257 -54.663372 3703.553467
5.040000 4.920000 0.840000 7.991310 -75.157921 5712.573730
5.040000 4.920000 0.880000 27.545143 -124.384201 16230.165039
5.040000 4.920000 0.920000 102.634079 -149.144211 32777.750000
5.040000 4.920000 0.960000 191.149414 -101.886719 46919.000000
5.040000 4.920000 1.000000 223.710526 6.670021 50090.886719
5.040000 4.920000 1.040000 168.279633 108.879257 40172.726562
5.040000 4.920000 1.080000 63.064663 138.257874 23092.392578
5.040000 4.920000 1.120000 -16.692987 88.368027 8087.563965
5.040000 4.920000 1.160000 -25.874603 14.832546 889.499512
5.040000 4.920000 1.200000 15.207296 -19.839912 624.883972
5.040000 4.960000 0.800000 44.165817 -27.950781 2731.865479
5.040000 4.960000 0.840000 37.390476 -71.150131 6460.389160
5.040000 4.960000 0.880000 94.510010 -116.260803 22448.714844
5.040000 4.960000 0.920000 194.706558 -94.981018 46932.039062
5.040000 4.960000 0.960000 260.185028 12.905645 67862.804688
5.040000 4.960000 1.000000 225.802216 148.557953 73056.109375
5.040000 4.960000 1.040000 103.812027 220.395615 59351.164062
5.040000 4.960000 1.080000 -22.707960 185.513931 34931.070312
5.040000 4.960000 1.120000 -73.345901 86.448647 12852.990234
5.040000 4.960000 1.160000 -38.908836 7.947599 1577.061890
5.040000 4.960000 1.200000 20.488754 -1.445816 421.879456
5.040000 5.000000 0.800000 43.814354 0.236691 1919.753662
5.040000 5.000000 0.840000 63.826946 -46.280457 6215.759766
5.040000 5.000000 0.880000 143.148224 -56.269062 23657.621094
5.040000 5.000000 0.920000 223.190353 19.007870 50175.234375
5.040000 5.000000 0.960000 222.838654 152.876495 73028.289062
5.040000 5.000000 1.000000 117.300476 255.989899 79290.226562
5.040000 5.000000 1.040000 -31.372108 253.773392 65385.144531
5.040000 5.000000 1.080000 -125.915276 154.093231 39599.382812
5.040000 5.000000 1.120000 -118.674377 38.344822 15553.932617
5.040000 5.000000 1.160000 -47.322571 -14.246296 2442.382812
5.040000 5.000000 1.200000 9.991331 6.464952 141.622314
5.040000 5.040000 0.800000 30.479424 21.064875 1372.724121
5.040000 5.040000 0.840000 69.112206 -6.259621 4815.679688
5.040000 5.040000 0.880000 135.732513 24.007425 18999.671875
5.040000 5.040000 0.920000 161.479218 120.721268 40649.160156
5.040000 5.040000 0.960000 96.727577 224.130264 59590.601562
5.040000 5.040000 1.000000 -34.928875 253.415421 65439.402344
5.040000 5.040000 1.040000 -150.203217 180.333420 55081.148438
5.040000 5.040000 1.080000 -177.518005 56.520657 34707.226562
5.040000 5.040000 1.120000 -117.560829 -32.954544 14906.550781
5.040000 5.040000 1.160000 -35.465897 -43.835648 3179.393799
5.040000 5.040000 1.200000 3.924425 -2.964303 24.188206
5.040000 5.080000 0.800000 10.918958 30.732317 1063.698975
5.040000 5.080000 0.840000 46.001694 27.760889 2886.822754
5.040000 5.080000 0.880000 76.194115 73.366341 11188.163086
5.040000 5.080000 0.920000 53.180260 145.729248 24065.154297
5.040000 5.080000 0.960000 -31.655647 186.079422 35627.628906
5.040000 5.080000 1.000000 -130.858582 150.656143 39821.242188
5.040000 5.080000 1.040000 -178.255463 53.382366 34624.687500
5.040000 5.080000 1.080000 -146.010666 -43.645432 23224.039062
5.040000 5.080000 1.120000 -66.737671 -83.422203 11413.180664
5.040000 5.080000 1.160000 -0.821577 -59.774166 3573.625977
5.040000 5.080000 1.200000 16.946455 -13.636395 473.133606
5.040000 5.120000 0.800000 -8.253942 28.816328 898.508301
5.040000 5.120000 0.840000 8.351650 35.702625 1344.427490
5.040000 5.120000 0.880000 8.449074 65.277184 4332.497559
5.040000 5.120000 0.920000 -26.009659 92.195908 9176.586914
5.040000 5.120000 0.960000 -82.075912 83.790779 13757.349609
5.040000 5.120000 1.000000 -122.116425 31.204048 15886.113281
5.040000 5.120000 1.040000 -114.900299 -38.925766 14717.293945
5.040000 5.120000 1.080000 -62.781525 -84.779167 11129.027344
5.040000 5.120000 1.120000 0.510071 -83.166916 6916.996094
5.040000 5.120000 1.160000 38.573116 -45.697113 3576.111328
5.040000 5.120000 1.200000 39.958744 -4.313646 1615.308716
5.040000 5.160000 0.800000 -20.836300 18.103563 761.890381
5.040000 5.160000 0.840000 -18.758026 17.035549 642.073486
5.040000 5.160000 0.880000 -22.525787 19.721737 896.358032
5.040000 5.160000 0.920000 -34.176350 17.396320 1470.654785
5.040000 5.160000 0.960000 -46.289944 2.317818 2148.131104
5.040000 5.160000 1.000000 -46.272755 -23.852890 2710.128174
5.040000 5.160000 1.040000 -26.498337 -48.598888 3064.013916
5.040000 5.160000 1.080000 7.989204 -56.385426 3243.143555
5.040000 5.160000 1.120000 41.198471 -40.116184 3306.622070
5.040000 5.160000 1.160000 56.583469 -6.902733 3249.336670
5.040000 5.160000 1.200000 48.006180 26.533806 3008.636230
5.040000 5.200000 0.800000 -23.219727 5.240417 566.617676
5.040000 5.200000 0.840000 -20.953400 -8.303413 507.991638
5.040000 5.200000 0.880000 -9.022715 -18.450287 421.822449
5.040000 5.200000 0.920000 6.482191 -18.336029 378.228760
5.040000 5.200000 0.960000 16.246532 -9.820137 360.384918
5.040000 5.200000 1.000000 17.640629 -1.867058 314.677673
5.040000 5.200000 1.040000 17.696045 -0.313152 313.248047
5.040000 5.200000 1.080000 24.653000 -0.328468 607.878296
5.040000 5.200000 1.120000 36.758102 8.943010 1431.135498
5.040000 5.200000 1.160000 41.297825 31.360439 2688.987549
5.040000 5.200000 1.200000 26.597523 56.257797 3872.367920
5.080000 4.800000 0.800000 -44.986542 -42.149593 3800.377197
5.080000 4.800000 0.840000 -16.427326 -54.143543 3201.380371
5.080000 4.800000 0.880000 12.230667 -44.750275 2152.176270
5.080000 4.800000 0.920000 26.252007 -21.253117 1140.862793
5.080000 4.800000 0.960000 22.384892 1.417759 503.093414
5.080000 4.800000 1.000000 9.207352 13.151520 257.737793
5.080000 4.800000 1.040000 -2.696926 14.896160 229.168991
5.080000 4.800000 1.080000 -10.034622 13.683525 287.932495
5.080000 4.800000 1.120000 -16.596939 13.187677 449.373230
5.080000 4.800000 1.160000 -25.469250 10.446171 757.805176
5.080000 4.800000 1.200000 -33.515354 1.397939 1125.233154
5.080000 4.840000 0.800000 -17.230885 -65.248085 4554.215820
5.080000 4.840000 0.840000 2.099703 -65.396942 4281.168945
5.080000 4.840000 0.880000 18.039494 -60.572075 3994.399658
5.080000 4.840000 0.920000 32.789139 -52.411560 3822.099121
5.080000 4.840000 0.960000 46.319038 -37.659344 3563.679688
5.080000 4.840000 1.000000 52.323822 -14.415024 2945.575439
5.080000 4.840000 1.040000 43.030514 11.019157 1973.046997
5.080000 4.840000 1.080000 18.740387 25.762863 1014.927246
5.080000 4.840000 1.120000 -8.643284 20.748247 505.196106
5.080000 4.840000 1.160000 -23.512621 -0.041399 552.845032
5.080000 4.840000 1.200000 -19.416958 -21.646671 845.596619
5.080000 4.880000 0.800000 20.215275 -65.478958 4696.151367
5.080000 4.880000 0.840000 26.730457 -67.999153 5338.402344
5.080000 4.880000 0.880000 44.080723 -77.174927 7899.079102
5.080000 4.880000 0.920000 78.472778 -74.154533 11656.872070
5.080000 4.880000 0.960000 112.551788 -41.555317 14394.750000
5.080000 4.880000 1.000000 117.741577 13.818542 14054.031250
5.080000 4.880000 1.040000 82.196396 60.793549 10452.103516
5.080000 4.880000 1.080000 25.853485 69.514961 5500.732910
5.080000 4.880000 1.120000 -14.504288 38.675972 1706.205200
5.080000 4.880000 1.160000 -17.001734 -3.058798 298.415222
5.080000 4.880000 1.200000 7.667774 -23.472376 609.747192
5.080000 4.920000 0.800000 49.518448 -42.541496 4261.855469
5.080000 4.920000 0.840000 53.694275 -57.102623 6143.784668
5.080000 4.920000 0.880000 88.438400 -71.031586 12866.836914
5.080000 4.920000 0.920000 142.523254 -48.134998 22629.857422
5.080000 4.920000 0.960000 172.686584 21.305462 30274.578125
5.080000 4.920000 1.000000 143.248108 102.001358 30924.296875
5.080000 4.920000 1.040000 64.019348 140.447662 23824.021484
5.080000 4.920000 1.080000 -13.717979 113.154610 12992.148438
5.080000 4.920000 1.120000 -41.661140 48.473816 4085.361572
5.080000 4.920000 1.160000 -16.194134 -0.277706 262.327087
5.080000 4.920000 1.200000 23.285475 -3.552161 554.831177
5.080000 4.960000 0.800000 58.401421 -7.978837 3474.387695
5.080000 4.960000 0.840000 73.497971 -29.909193 6296.511719
5.080000 4.960000 0.880000 125.164307 -28.139568 16457.939453
5.080000 4.960000 0.920000 174.532318 29.854408 31352.814453
5.080000 4.960000 0.960000 166.746918 124.961845 43420.000000
5.080000 4.960000 1.000000 86.384483 194.671295 45359.191406
5.080000 4.960000 1.040000 -20.905087 187.892761 35740.714844
5.080000 4.960000 1.080000 -85.757675 113.043869 20133.294922
5.080000 4.960000 1.120000 -76.328598 30.603874 6762.651855
5.080000 4.960000 1.160000 -23.169559 -2.834034 544.860229
5.080000 4.960000 1.200000 15.304899 16.847198 518.068054
5.080000 5.000000 0.800000 45.713898 22.707054 2605.370850
5.080000 5.000000 0.840000 73.926331 7.304308 5518.455566
5.080000 5.000000 0.880000 123.188576 36.028973 16473.511719
5.080000 5.000000 0.920000 138.622986 116.340973 32751.554688
5.080000 5.000000 0.960000 80.663170 199.456711 46289.527344
5.080000 5.000000 1.000000 -29.784916 219.732605 49169.558594
5.080000 5.000000 1.040000 -123.194588 156.201996 39575.968750
5.080000 5.000000 1.080000 -142.000900 54.381363 23121.587891
5.080000 5.000000 1.120000 -90.746078 -14.728374 8451.775391
5.080000 5.000000 1.160000 -26.787256 -17.847277 1036.082397
5.080000 5.000000 1.200000 -3.039085 17.292400 308.263153
5.080000 5.040000 0.800000 19.922062 38.166664 1853.582764
5.080000 5.040000 0.840000 50.288567 38.083313 3979.278809
5.080000 5.040000 0.880000 75.939629 83.372925 12717.871094
5.080000 5.040000 0.920000 50.203438 153.064240 25949.046875
5.080000 5.040000 0.960000 -34.279720 189.959183 37259.589844
5.080000 5.040000 1.000000 -129.858795 152.966812 40262.152344
5.080000 5.040000 1.040000 -172.684601 58.740566 33270.425781
5.080000 5.040000 1.080000 -139.548782 -30.551411 20407.251953
5.080000 5.040000 1.120000 -66.782791 -62.281155 8338.883789
5.080000 5.040000 1.160000 -13.500679 -37.015038 1552.381348
5.080000 5.040000 1.200000 -7.556072 0.566534 57.415188
5.080000 5.080000 0.800000 -6.389297 35.427063 1295.899902
5.080000 5.080000 0.840000 13.235172 45.918095 2283.641113
5.080000 5.080000 0.880000 11.664757 84.231339 7230.984863
5.080000 5.080000 0.920000 -33.055779 117.702538 14946.572266
5.080000 5.080000 0.960000 -102.612122 106.098129 21786.060547
5.080000 5.080000 1.000000 -149.476501 41.763237 24087.392578
5.080000 5.080000 1.040000 -138.545715 -39.079826 20722.148438
5.080000 5.080000 1.080000 -78.890945 -86.602577 13723.787109
5.080000 5.080000 1.120000 -14.457870 -80.037056 6614.959961
5.080000 5.080000 1.160000 16.032314 -41.490326 1978.482178
5.080000 5.080000 1.200000 9.984996 -9.948204 198.666901
5.080000 5.120000 0.800000 -22.511885 19.889460 902.375549
5.080000 5.120000 0.840000 -16.231232 28.278492 1063.125977
5.080000 5.120000 0.880000 -28.548071 43.817268 2734.945312
5.080000 5.120000 0.920000 -60.026497 43.491425 5494.684570
5.080000 5.120000 0.960000 -89.025040 13.209267 8099.942383
5.080000 5.120000 1.000000 -89.522507 -36.047653 9313.712891
5.080000 5.120000 1.040000 -54.840160 -75.290230 8676.061523
5.080000 5.120000 1.080000 -4.280743 -81.560600 6670.456055
5.080000 5.120000 1.120000 33.384747 -56.109329 4262.797852
5.080000 5.120000 1.160000 43.065201 -20.384983 2270.159180
5.080000 5.120000 1.200000 31.647398 4.179653 1019.027283
5.080000 5.160000 0.800000 -24.286407 2.106543 594.267090
5.080000 5.160000 0.840000 -22.878107 0.440252 523.601624
5.080000 5.160000 0.880000 -25.605013 -2.564137 662.191467
5.080000 5.160000 0.920000 -28.559074 -11.700615 952.525146
5.080000 5.160000 0.960000 -24.793434 -26.100571 1295.954102
5.080000 5.160000 1.000000 -10.353622 -38.942863 1623.744141
5.080000 5.160000 1.040000 12.037575 -42.037380 1912.044556
5.080000 5.160000 1.080000 34.208740 -31.351938 2153.181885
5.080000 5.160000 1.120000 47.240730 -9.510791 2322.141602
5.080000 5.160000 1.160000 46.068054 15.715972 2369.257324
5.080000 5.160000 1.200000 31.609777 35.255844 2242.152588
5.080000 5.200000 0.800000 -16.003862 -7.900381 318.539612
5.080000 5.200000 0.840000 -10.004579 -16.818668 382.959198
5.080000 5.200000 0.880000 3.336154 -21.620026 478.555420
5.080000 5.200000 0.920000 18.454149 -16.535530 613.979370
5.080000 5.200000 0.960000 26.805080 -3.538368 731.032349
5.080000 5.200000 1.000000 25.785873 8.877300 743.717712
5.080000 5.200000 1.040000 21.513798 14.804588 682.019348
5.080000 5.200000 1.080000 21.432251 17.588633 768.701355
5.080000 5.200000 1.120000 24.608355 25.717640 1266.968140
5.080000 5.200000 1.160000 21.332117 41.593372 2185.067871
5.080000 5.200000 1.200000 3.785301 55.833786 3131.740234
5.120000 4.800000 0.800000 -25.435055 -43.352222 2526.357178
5.120000 4.800000 0.840000 1.012131 -47.257965 2234.339600
5.120000 4.800000 0.880000 24.550949 -32.068520 1631.138916
5.120000 4.800000 0.920000 31.840164 -5.507707 1044.130859
5.120000 4.800000 0.960000 20.408249 17.247952 713.988403
5.120000 4.800000 1.000000 -0.078688 25.383553 644.330933
5.120000 4.800000 1.040000 -16.764141 19.746395 670.956543
5.120000 4.800000 1.080000 -23.907175 9.368788 659.327209
5.120000 4.800000 1.120000 -24.990234 1.746712 627.562866
5.120000 4.800000 1.160000 -26.024683 -3.093315 686.852722
5.120000 4.800000 1.200000 -28.085526 -9.651143 881.941284
5.120000 4.840000 0.800000 3.502551 -58.365761 3418.829834
5.120000 4.840000 0.840000 25.726444 -53.393173 3512.680908
5.120000 4.840000 0.880000 42.529026 -37.382668 3206.181885
5.120000 4.840000 0.920000 48.675354 -15.226154 2601.125732
5.120000 4.840000 0.960000 42.693962 6.281567 1862.232544
5.120000 4.840000 1.000000 27.014502 20.812405 1162.939453
5.120000 4.840000 1.040000 7.094923 24.380882 644.765381
5.120000 4.840000 1.080000 -10.199398 16.733109 384.024628
5.120000 4.840000 1.120000 -19.077742 1.808234 367.229950
5.120000 4.840000 1.160000 -17.515524 -13.695587 494.362671
5.120000 4.840000 1.200000 -8.339243 -23.650747 628.900818
5.120000 4.880000 0.800000 38.134972 -50.189369 3973.249023
5.120000 4.880000 0.840000 53.328239 -42.591335 4657.922852
5.120000 4.880000 0.880000 68.650253 -29.042442 5556.320801
5.120000 4.880000 0.920000 79.477608 -5.378941 6345.623047
5.120000 4.880000 0.960000 75.837494 25.859303 6420.029297
5.120000 4.880000 1.000000 52.136837 51.778282 5399.240234
5.120000 4.880000 1.040000 16.306076 57.218369 3539.829834
5.120000 4.880000 1.080000 -12.807890 38.377869 1636.902832
5.120000 4.880000 1.120000 -19.714052 8.274651 457.113708
5.120000 4.880000 1.160000 -5.249981 -12.956873 195.442856
5.120000 4.880000 1.200000 14.710501 -14.641892 430.783844
5.120000 4.920000 0.800000 60.261578 -20.374100 4046.561768
5.120000 4.920000 0.840000 71.360703 -14.601779 5305.562012
5.120000 4.920000 0.880000 89.270035 0.650363 7969.562012
5.120000 4.920000 0.920000 100.132141 34.799519 11237.452148
5.120000 4.920000 0.960000 84.503319 78.040314 13231.101562
5.120000 4.920000 1.000000 39.394451 104.109772 12390.767578
5.120000 4.920000 1.040000 -12.767313 93.021576 8816.017578
5.120000 4.920000 1.080000 -40.554176 51.719528 4319.550781
5.120000 4.920000 1.120000 -31.051147 10.297476 1070.211792
5.120000 4.920000 1.160000 -1.098246 -4.220840 19.021639
5.120000 4.920000 1.200000 19.492821 8.917234 459.487122
5.120000 4.960000 0.800000 58.134384 16.707544 3658.748779
5.120000 4.960000 0.840000 68.871040 21.273579 5195.785156
5.120000 4.960000 0.880000 85.752129 44.051617 9293.972656
5.120000 4.960000 0.920000 83.789902 88.399910 14835.291016
5.120000 4.960000 0.960000 44.535881 129.758179 18820.630859
5.120000 4.960000 1.000000 -19.513037 134.721283 18530.582031
5.120000 4.960000 1.040000 -70.223923 93.958008 13759.506836
5.120000 4.960000 1.080000 -76.794426 34.625252 7096.291992
5.120000 4.960000 1.120000 -44.071335 -2.573246 1948.904175
5.120000 4.960000 1.160000 -7.088740 0.096856 50.259621
5.120000 4.960000 1.200000 2.984806 23.822634 576.426941
5.120000 5.000000 0.800000 33.740391 42.715263 2963.007812
5.120000 5.000000 0.840000 44.054493 48.927334 4334.682617
5.120000 5.000000 0.880000 51.282974 78.043747 8720.769531
5.120000 5.000000 0.920000 28.451967 119.084099 14990.537109
5.120000 5.000000 0.960000 -28.776636 137.863449 19834.425781
5.120000 5.000000 1.000000 -90.222351 109.467743 20123.259766
5.120000 5.000000 1.040000 -115.290977 45.994740 15407.525391
5.120000 5.000000 1.080000 -90.616852 -10.973650 8331.834961
5.120000 5.000000 1.120000 -42.734772 -27.540047 2584.714844
5.120000 5.000000 1.160000 -12.245733 -7.243511 202.426422
5.120000 5.000000 1.200000 -15.739071 16.393963 516.480347
5.120000 5.040000 0.800000 1.167009 46.479130 2161.671387
5.120000 5.040000 0.840000 7.949066 54.535248 3037.281006
5.120000 5.040000 0.880000 1.355471 80.312599 6451.951172
5.120000 5.040000 0.920000 -35.034595 101.566612 11543.199219
5.120000 5.040000 0.960000 -87.992844 88.980240 15660.223633
5.120000 5.040000 1.000000 -121.783875 37.644779 16248.441406
5.120000 5.040000 1.040000 -110.783043 -23.502949 12825.271484
5.120000 5.040000 1.080000 -64.669144 -56.185226 7338.877930
5.120000 5.040000 1.120000 -19.673531 -47.320084 2626.238281
5.120000 5.040000 1.160000 -4.506748 -18.703218 370.121185
5.120000 5.040000 1.200000 -15.654428 -2.762479 252.692413
5.120000 5.080000 0.800000 -22.527987 30.219318 1420.717407
5.120000 5.080000 0.840000 -20.857435 36.556942 1771.442627
5.120000 5.080000 0.880000 -35.020042 48.966965 3624.166992
5.120000 5.080000 0.920000 -66.077736 46.103558 6491.805176
5.120000 5.080000 0.960000 -93.130318 15.004234 8898.382812
5.120000 5.080000 1.000000 -91.601997 -32.225121 9429.383789
5.120000 5.080000 1.040000 -57.657127 -66.648445 7766.359375
5.120000 5.080000 1.080000 -13.265083 -68.419670 4857.213867
5.120000 5.080000 1.120000 13.795088 -44.184448 2142.569824
5.120000 5.080000 1.160000 14.541064 -18.640888 558.925293
5.120000 5.080000 1.200000 3.446282 -9.887472 109.638969
5.120000 5.120000 0.800000 -27.844643 7.065784 825.249390
5.120000 5.120000 0.840000 -28.675438 8.067552 887.366150
5.120000 5.120000 0.880000 -38.134388 6.196146 1492.623779
5.120000 5.120000 0.920000 -48.781170 -8.227806 2447.299316
5.120000 5.120000 0.960000 -46.809437 -32.960678 3277.529541
5.120000 5.120000 1.000000 -26.161667 -53.644638 3562.180176
5.120000 5.120000 1.040000 4.260277 -56.360252 3194.627930
5.120000 5.120000 1.080000 27.925980 -40.158020 2392.526855
5.120000 5.120000 1.120000 34.925476 -17.081577 1511.569092
5.120000 5.120000 1.160000 28.801378 -0.388585 829.670410
5.120000 5.120000 1.200000 20.188404 6.344183 447.820312
5.120000 5.160000 0.800000 -17.986191 -8.269642 391.890015
5.120000 5.160000 0.840000 -16.809324 -12.445210 437.436615
5.120000 5.160000 0.880000 -13.782520 -19.543743 571.915771
5.120000 5.160000 0.920000 -4.935413 -26.787910 741.950439
5.120000 5.160000 0.960000 9.127289 -28.507105 895.962402
5.120000 5.160000 1.000000 22.937756 -21.782795 1000.630737
5.120000 5.160000 1.040000 31.006596 -9.201200 1046.071045
5.120000 5.160000 1.080000 32.189064 4.101830 1052.960815
5.120000 5.160000 1.120000 28.959332 15.229824 1070.590454
5.120000 5.160000 1.160000 23.174459 24.503452 1137.474731
5.120000 5.160000 1.200000 14.095796 32.082352 1227.968750
5.120000 5.200000 0.800000 -5.259785 -9.365208 115.372452
5.120000 5.200000 0.840000 0.066159 -15.337141 235.232269
5.120000 5.200000 0.880000 13.028410 -17.165077 464.379333
5.120000 5.200000 0.920000 27.161674 -7.919734 800.478760
5.120000 5.200000 0.960000 32.143791 9.960992 1132.444580
5.120000 5.200000 1.000000 24.585529 25.862148 1273.298950
5.120000 5.200000 1.040000 11.840752 31.576920 1137.305298
5.120000 5.200000 1.080000 3.994628 29.608028 892.592407
5.120000 5.200000 1.120000 2.717876 29.477455 876.307190
5.120000 5.200000 1.160000 -0.211043 35.902527 1289.036011
5.120000 5.200000 1.200000 -12.549053 42.253098 1942.802979
5.160000 4.800000 0.800000 -15.050998 -35.052673 1455.222412
5.160000 4.800000 0.840000 6.416679 -34.417694 1225.751465
5.160000 4.800000 0.880000 23.132244 -17.029003 825.087646
5.160000 4.800000 0.920000 22.591095 8.279175 578.902344
5.160000 4.800000 0.960000 4.361043 25.428814 665.643250
5.160000 4.800000 1.000000 -18.927284 24.446976 955.896729
5.160000 4.800000 1.040000 -32.482601 9.452361 1144.466553
5.160000 4.800000 1.080000 -31.713875 -6.376677 1046.431885
5.160000 4.800000 1.120000 -24.152451 -13.547201 766.867554
5.160000 4.800000 1.160000 -19.856016 -13.857562 586.293396
5.160000 4.800000 1.200000 -20.759266 -15.848166 682.111450
5.160000 4.840000 0.800000 12.275664 -44.841652 2161.465820
5.160000 4.840000 0.840000 32.400356 -33.020000 2140.103516
5.160000 4.840000 0.880000 40.438320 -9.512565 1725.746582
5.160000 4.840000 0.920000 31.128391 13.455757 1150.034180
5.160000 4.840000 0.960000 10.310972 23.970455 680.898865
5.160000 4.840000 1.000000 -9.810362 18.855865 451.786865
5.160000 4.840000 1.040000 -19.911257 4.600329 417.621185
5.160000 4.840000 1.080000 -19.130936 -9.194481 450.531189
5.160000 4.840000 1.120000 -12.936073 -17.300747 466.657837
5.160000 4.840000 1.160000 -6.610477 -20.714544 472.790741
5.160000 4.840000 1.200000 -1.057350 -22.654438 514.341553
5.160000 4.880000 0.800000 42.456978 -31.500544 2794.879150
5.160000 4.880000 0.840000 53.550877 -11.511755 3000.216797
5.160000 4.880000 0.880000 51.157608 11.509899 2749.578613
5.160000 4.880000 0.920000 36.649223 28.649939 2163.984375
5.160000 4.880000 0.960000 16.351490 34.358635 1447.886963
5.160000 4.880000 1.000000 -1.949039 28.192545 798.618347
5.160000 4.880000 1.040000 -12.180511 14.186316 349.616425
5.160000 4.880000 1.080000 -12.032306 -1.136724 146.068527
5.160000 4.880000 1.120000 -3.645637 -11.482586 145.140442
5.160000 4.880000 1.160000 7.510931 -13.651032 242.764771
5.160000 4.880000 1.200000 15.733023 -8.999809 328.524567
5.160000 4.920000 0.800000 56.488544 1.307550 3192.665283
5.160000 4.920000 0.840000 55.176285 21.782898 3518.916992
5.160000 4.920000 0.880000 45.022438 38.895252 3539.860596
5.160000 4.920000 0.920000 28.542929 49.938446 3308.547119
5.160000 4.920000 0.960000 8.291208 52.282173 2802.169678
5.160000 4.920000 1.000000 -10.701759 43.582153 2013.931763
5.160000 4.920000 1.040000 -20.877920 25.668095 1094.738647
5.160000 4.920000 1.080000 -17.286318 6.841679 345.625336
5.160000 4.920000 1.120000 -3.377699 -2.497614 17.646925
5.160000 4.920000 1.160000 9.958992 1.599303 101.739288
5.160000 4.920000 1.200000 13.120988 12.609322 331.155334
5.160000 4.960000 0.800000 44.155159 35.905205 3238.861816
5.160000 4.960000 0.840000 33.237747 49.200798 3525.466309
5.160000 4.960000 0.880000 19.830101 58.092949 3768.023682
5.160000 4.960000 0.920000 2.868139 63.204723 4003.063477
5.160000 4.960000 0.960000 -17.778263 60.229973 3943.716309
5.160000 4.960000 1.000000 -35.407928 44.915764 3271.147461
5.160000 4.960000 1.040000 -39.835220 21.475281 2048.032471
5.160000 4.960000 1.080000 -28.015564 2.887169 793.207581
5.160000 4.960000 1.120000 -9.803223 0.145559 96.124359
5.160000 4.960000 1.160000 -0.429337 11.033303 121.918106
5.160000 4.960000 1.200000 -6.047190 21.422295 495.483215
5.160000 5.000000 0.800000 12.265611 52.511353 2907.887451
5.160000 5.000000 0.840000 -1.464001 55.200935 3049.286621
5.160000 5.000000 0.880000 -13.994740 56.081753 3341.015869
5.160000 5.000000 0.920000 -29.573959 54.294922 3822.557617
5.160000 5.000000 0.960000 -46.808334 43.378536 4072.717773
5.160000 5.000000 1.000000 -56.039204 21.500826 3602.677734
5.160000 5.000000 1.040000 -48.905815 -1.820198 2395.092041
5.160000 5.000000 1.080000 -29.515701 -12.434382 1025.790527
5.160000 5.000000 1.120000 -13.142236 -5.864177 207.106934
5.160000 5.000000 1.160000 -11.896158 6.873477 188.763275
5.160000 5.000000 1.200000 -22.191296 9.821735 588.920105
5.160000 5.040000 0.800000 -19.837620 43.414360 2278.337891
5.160000 5.040000 0.840000 -29.868410 37.377918 2289.230713
5.160000 5.040000 0.880000 -38.263084 31.833565 2477.439453
5.160000 5.040000 0.920000 -48.305523 23.148897 2869.294922
5.160000 5.040000 0.960000 -55.314350 6.659345 3104.024170
5.160000 5.040000 1.000000 -50.825439 -13.932569 2777.341797
5.160000 5.040000 1.040000 -33.737793 -27.085419 1871.858643
5.160000 5.040000 1.080000 -14.655362 -24.847857 832.195557
5.160000 5.040000 1.120000 -6.731653 -12.447396 200.252823
5.160000 5.040000 1.160000 -12.112982 -4.172945 164.137802
5.160000 5.040000 1.200000 -19.272945 -8.714474 447.388458
5.160000 5.080000 0.800000 -34.374035 18.107832 1509.467773
5.160000 5.080000 0.840000 -37.782459 8.274563 1495.982666
5.160000 5.080000 0.880000 -39.608459 -0.936618 1569.707275
5.160000 5.080000 0.920000 -39.570896 -12.468219 1721.312256
5.160000 5.080000 0.960000 -33.159225 -25.689737 1759.496826
5.160000 5.080000 1.000000 -18.625994 -34.065514 1507.386841
5.160000 5.080000 1.040000 -2.025978 -31.447214 993.031860
5.160000 5.080000 1.080000 6.985012 -19.934929 446.191803
5.160000 5.080000 1.120000 4.889499 -9.446449 113.142601
5.160000 5.080000 1.160000 -1.413136 -8.138624 68.234161
5.160000 5.080000 1.200000 -1.483439 -13.790594 192.381073
5.160000 5.120000 0.800000 -27.680685 -4.762146 788.898376
5.160000 5.120000 0.840000 -25.548782 -13.961002 847.649902
5.160000 5.120000 0.880000 -19.962784 -22.927658 924.190186
5.160000 5.120000 0.920000 -9.460320 -29.773001 975.929199
5.160000 5.120000 0.960000 4.792056 -30.240118 937.428528
5.160000 5.120000 1.000000 17.154509 -22.022888 779.284790
5.160000 5.120000 1.040000 21.391260 -8.836371 535.667480
5.160000 5.120000 1.080000 16.829638 1.445689 285.326721
5.160000 5.120000 1.120000 9.755654 3.809855 109.687782
5.160000 5.120000 1.160000 7.560338 0.985235 58.129406
5.160000 5.120000 1.200000 11.354532 0.547039 129.224655
5.160000 5.160000 0.800000 -11.240942 -11.981930 269.925415
5.160000 5.160000 0.840000 -6.521583 -18.958874 401.969940
5.160000 5.160000 0.880000 4.784029 -23.799656 589.310608
5.160000 5.160000 0.920000 19.905573 -19.948021 794.155396
5.160000 5.160000 0.960000 30.260696 -5.767972 948.979248
5.160000 5.160000 1.000000 28.790005 11.818919 968.551208
5.160000 5.160000 1.040000 17.279690 22.514292 805.481018
5.160000 5.160000 1.080000 5.296372 22.116516 517.191833
5.160000 5.160000 1.120000 1.072257 16.338821 268.106842
5.160000 5.160000 1.160000 3.649632 14.531354 224.480072
5.160000 5.160000 1.200000 4.697126 19.794641 413.890808
5.160000 5.200000 0.800000 -0.873610 -4.889244 24.667900
5.160000 5.200000 0.840000 4.450645 -10.718664 134.698013
5.160000 5.200000 0.880000 17.775528 -9.629530 408.697235
5.160000 5.200000 0.920000 28.981743 4.537184 860.527466
5.160000 5.200000 0.960000 26.451424 25.366425 1343.133301
5.160000 5.200000 1.000000 9.601711 38.643085 1585.480957
5.160000 5.200000 1.040000 -9.488869 36.220123 1401.935913
5.160000 5.200000 1.080000 -17.866848 24.163401 903.094177
5.160000 5.200000 1.120000 -14.550188 16.041885 469.050049
5.160000 5.200000 1.160000 -10.498124 18.442883 450.350525
5.160000 5.200000 1.200000 -15.776267 24.484509 848.381714
5.200000 4.800000 0.800000 -15.122779 -28.136185 1020.343323
5.200000 4.800000 0.840000 1.040264 -27.205822 741.238892
5.200000 4.800000 0.880000 11.894833 -12.148441 289.071655
5.200000 4.800000 0.920000 6.687035 7.234436 97.053497
5.200000 4.800000 0.960000 -12.185156 15.724936 395.751648
5.200000 4.800000 1.000000 -30.426426 6.760841 971.476379
5.200000 4.800000 1.040000 -34.949974 -11.457493 1352.774902
5.200000 4.800000 1.080000 -25.701378 -24.313576 1251.710815
5.200000 4.800000 1.120000 -14.217592 -25.003891 827.334473
5.200000 4.800000 1.160000 -10.726770 -19.948956 513.024414
5.200000 4.800000 1.200000 -13.618947 -20.124762 590.481750
5.200000 4.840000 0.800000 10.624027 -35.285728 1357.952637
5.200000 4.840000 0.840000 24.087519 -20.778698 1011.962891
5.200000 4.840000 0.880000 21.961845 -0.117933 482.336578
5.200000 4.840000 0.920000 5.002493 11.876774 166.082687
5.200000 4.840000 0.960000 -14.349057 7.149093 257.004974
5.200000 4.840000 1.000000 -22.787460 -9.090597 601.907349
5.200000 4.840000 1.040000 -17.164909 -23.970722 869.229614
5.200000 4.840000 1.080000 -5.436794 -28.777887 857.725525
5.200000 4.840000 1.120000 2.486878 -25.418743 652.297058
5.200000 4.840000 1.160000 4.207848 -21.958042 499.861603
5.200000 4.840000 1.200000 5.348396 -22.865097 551.418030
5.200000 4.880000 0.800000 36.684135 -19.090179 1710.160767
5.200000 4.880000 0.840000 35.969955 3.496358 1306.062134
5.200000 4.880000 0.880000 19.311558 17.643873 684.242554
5.200000 4.880000 0.920000 -0.622943 14.934713 223.433731
5.200000 4.880000 0.960000 -10.486551 0.205773 110.010101
5.200000 4.880000 1.000000 -6.679765 -14.301683 249.157410
5.200000 4.880000 1.040000 4.051611 -19.903282 412.556213
5.200000 4.880000 1.080000 12.693112 -17.108784 453.825562
5.200000 4.880000 1.120000 15.835211 -12.070061 396.440277
5.200000 4.880000 1.160000 16.357401 -9.132664 350.970123
5.200000 4.880000 1.200000 18.036579 -7.354196 379.402374
5.200000 4.920000 0.800000 43.381149 13.834463 2073.316406
5.200000 4.920000 0.840000 25.284554 30.993484 1599.904785
5.200000 4.920000 0.880000 2.694883 29.123785 855.457214
5.200000 4.920000 0.920000 -8.852684 13.476384 259.982941
5.200000 4.920000 0.960000 -5.159487 -1.962535 30.471848
5.200000 4.920000 1.000000 6.067659 -7.378602 91.260254
5.200000 4.920000 1.040000 14.696180 -3.429639 227.740143
5.200000 4.920000 1.080000 16.876833 3.140444 294.689880
5.200000 4.920000 1.120000 15.277748 7.527188 290.068146
5.200000 4.920000 1.160000 13.365377 9.905609 276.754395
5.200000 4.920000 1.200000 11.471194 12.179276 279.923096
5.200000 4.960000 0.800000 23.450926 42.653511 2369.268066
5.200000 4.960000 0.840000 -3.359608 42.757290 1839.472778
5.200000 4.960000 0.880000 -18.984596 25.000340 985.431885
5.200000 4.960000 0.920000 -16.018562 5.566415 287.579315
5.200000 4.960000 0.960000 -2.441926 -2.109085 10.411238
5.200000 4.960000 1.000000 8.635149 2.818025 82.507057
5.200000 4.960000 1.040000 10.798439 12.035291 261.454498
5.200000 4.960000 1.080000 6.592423 18.148529 372.829163
5.200000 4.960000 1.120000 1.099759 19.957706 399.519531
5.200000 4.960000 1.160000 -3.803085 19.486443 394.184875
5.200000 4.960000 1.200000 -8.524736 17.185766 368.021667
5.200000 5.000000 0.800000 -10.804686 48.282825 2447.972412
5.200000 5.000000 0.840000 -31.870140 30.368866 1937.973877
5.200000 5.000000 0.880000 -32.284119 5.948507 1077.649048
5.200000 5.000000 0.920000 -16.912823 -7.516091 342.535217
5.200000 5.000000 0.960000 -0.698837 -4.609015 21.731388
5.200000 5.000000 1.000000 5.364600 7.116521 79.423798
5.200000 5.000000 1.040000 1.008322 17.050106 291.722839
5.200000 5.000000 1.080000 -7.635690 20.337074 471.900330
5.200000 5.000000 1.120000 -15.584059 18.002617 566.957092
5.200000 5.000000 1.160000 -21.141886 12.040487 591.952637
5.200000 5.000000 1.200000 -22.998337 3.371623 540.291382
5.200000 5.040000 0.800000 -36.816639 28.751194 2182.095947
5.200000 5.040000 0.840000 -42.503723 2.660637 1813.645508
5.200000 5.040000 0.880000 -28.720798 -17.207554 1120.984131
5.200000 5.040000 0.920000 -8.013835 -20.024124 465.187103
5.200000 5.040000 0.960000 5.301019 -8.645555 102.846428
5.200000 5.040000 1.000000 5.498746 5.983035 66.032921
5.200000 5.040000 1.040000 -3.709977 14.566069 225.934280
5.200000 5.040000 1.080000 -15.155897 14.198252 431.291565
5.200000 5.040000 1.120000 -23.308519 6.640178 587.379028
5.200000 5.040000 1.160000 -25.011452 -4.676400 647.441406
5.200000 5.040000 1.200000 -18.865929 -15.195791 586.835327
5.200000 5.080000 0.800000 -39.840767 0.280585 1587.365479
5.200000 5.080000 0.840000 -31.322502 -21.647697 1449.721924
5.200000 5.080000 0.880000 -10.934137 -30.989899 1079.929199
5.200000 5.080000 0.920000 8.523737 -24.137436 655.269897
5.200000 5.080000 0.960000 16.734348 -7.527480 336.701355
5.200000 5.080000 1.000000 11.449272 8.133220 197.235092
5.200000 5.080000 1.040000 -2.049163 14.595643 217.231857
5.200000 5.080000 1.080000 -15.151756 9.615437 322.032349
5.200000 5.080000 1.120000 -20.425341 -3.009004 426.248657
5.200000 5.080000 1.160000 -14.893238 -15.647079 466.639648
5.200000 5.080000 1.200000 -1.646498 -20.524008 423.945862
5.200000 5.120000 0.800000 -23.898357 -16.935911 857.956543
5.200000 5.120000 0.840000 -9.968406 -28.894659 934.270386
5.200000 5.120000 0.880000 9.412433 -28.844122 920.577271
5.200000 5.120000 0.920000 24.315500 -15.741389 839.034851
5.200000 5.120000 0.960000 26.576590 3.857674 721.196777
5.200000 5.120000 1.000000 15.098862 19.063848 591.405945
5.200000 5.120000 1.040000 -2.695556 21.314064 461.555359
5.200000 5.120000 1.080000 -15.207129 10.379704 338.995026
5.200000 5.120000 1.120000 -14.593195 -5.016813 238.129745
5.200000 5.120000 1.160000 -2.569683 -13.278955 182.933899
5.200000 5.120000 1.200000 10.868829 -8.579237 191.734741
5.200000 5.160000 0.800000 -6.222643 -15.228025 270.614044
5.200000 5.160000 0.840000 5.227171 -20.153931 433.504211
5.200000 5.160000 0.880000 20.441561 -15.320505 652.575256
5.200000 5.160000 0.920000 29.934849 1.040064 897.176880
5.200000 5.160000 0.960000 25.141016 21.303591 1085.913696
5.200000 5.160000 1.000000 7.006961 32.586338 1110.966919
5.200000 5.160000 1.040000 -12.759701 27.346237 910.626709
5.200000 5.160000 1.080000 -20.655754 10.752340 542.273010
5.200000 5.160000 1.120000 -13.062799 -3.113490 180.330551
5.200000 5.160000 1.160000 0.639832 -3.518546 12.789549
5.200000 5.160000 1.200000 6.863667 7.710217 106.557373
5.200000 5.200000 0.800000 -1.130177 -3.654893 14.635543
5.200000 5.200000 0.840000 6.635284 -7.851921 105.679665
5.200000 5.200000 0.880000 18.606039 -1.655778 348.926300
5.200000 5.200000 0.920000 22.523026 15.722148 754.472595
5.200000 5.200000 0.960000 10.511599 32.841339 1189.047241
5.200000 5.200000 1.000000 -11.414992 35.805779 1412.355835
5.200000 5.200000 1.040000 -27.573593 22.064053 1247.125488
5.200000 5.200000 1.080000 -27.235649 3.645566 755.070740
5.200000 5.200000 1.120000 -14.894897 -4.250366 239.923584
5.200000 5.200000 1.160000 -5.290721 2.157792 32.647797
5.200000 5.200000 1.200000 -8.467258 12.521396 228.479828
