#kx 	ky 	kz 	real 	imag 	intensity
4.800000 -1.200000 -7.200000 -35.703579 2.332083 1280.184204
4.800000 -1.200000 -7.160000 -20.275146 -23.593851 967.751343
4.800000 -1.200000 -7.120000 8.664597 -21.401873 533.115417
4.800000 -1.200000 -7.080000 18.670391 5.628069 380.258667
4.800000 -1.200000 -7.040000 -2.315166 27.138645 741.866028
4.800000 -1.200000 -7.000000 -32.989067 18.424946 1427.757202
4.800000 -1.200000 -6.960000 -41.786869 -13.197630 1920.319824
4.800000 -1.200000 -6.920000 -20.630619 -36.878513 1785.647217
4.800000 -1.200000 -6.880000 7.421998 -31.751799 1063.262695
4.800000 -1.200000 -6.840000 14.254384 -8.570482 276.640625
4.800000 -1.200000 -6.800000 -2.811525 3.686519 21.495094
4.800000 -1.160000 -7.200000 -26.007000 -24.610094 1282.020752
4.800000 -1.160000 -7.160000 1.626131 -36.225731 1314.947876
4.800000 -1.160000 -7.120000 25.023939 -19.764009 1016.813599
4.800000 -1.160000 -7.080000 22.420677 6.624535 546.571228
4.800000 -1.160000 -7.040000 -0.732418 15.599453 243.879364
4.800000 -1.160000 -7.000000 -18.462955 -0.756130 341.452484
4.800000 -1.160000 -6.960000 -12.329846 -23.804213 718.665649
4.800000 -1.160000 -6.920000 9.854885 -29.637083 975.475464
4.800000 -1.160000 -6.880000 24.318666 -14.730534 808.386108
4.800000 -1.160000 -6.840000 18.174597 1.910265 333.965088
4.800000 -1.160000 -6.800000 2.759410 1.355271 9.451104
4.800000 -1.120000 -7.200000 -2.011538 -32.618702 1068.026001
4.800000 -1.120000 -7.160000 23.773918 -27.499905 1321.443848
4.800000 -1.120000 -7.120000 34.843788 -5.437297 1243.653809
4.800000 -1.120000 -7.080000 24.957748 13.522851 805.756714
4.800000 -1.120000 -7.040000 7.674218 14.763940 276.867554
4.800000 -1.120000 -7.000000 0.937346 2.802874 8.734717
4.800000 -1.120000 -6.960000 8.550276 -5.872404 107.592339
4.800000 -1.120000 -6.920000 18.351919 -1.710882 339.720062
4.800000 -1.120000 -6.880000 17.801918 8.432426 388.014099
4.800000 -1.120000 -6.840000 8.472258 11.059464 194.090881
4.800000 -1.120000 -6.800000 3.295022 2.718047 18.244946
4.800000 -1.080000 -7.200000 15.305090 -20.594860 658.394043
4.800000 -1.080000 -7.160000 30.200035 -6.991898 960.928772
4.800000 -1.080000 -7.120000 30.929470 11.807497 1096.049072
4.800000 -1.080000 -7.080000 20.263474 23.437628 959.930786
4.800000 -1.080000 -7.040000 8.726154 24.161837 659.940125
4.800000 -1.080000 -7.000000 3.315534 20.013615 411.537537
4.800000 -1.080000 -6.960000 2.043909 17.911949 325.015472
4.800000 -1.080000 -6.920000 -0.663656 17.808609 317.586975
4.800000 -1.080000 -6.880000 -5.341688 14.680059 244.037781
4.800000 -1.080000 -6.840000 -6.415536 6.961665 89.623886
4.800000 -1.080000 -6.800000 0.152291 0.470981 0.245016
4.800000 -1.040000 -7.200000 15.171031 -3.897446 245.350281
4.800000 -1.040000 -7.160000 20.005604 8.620903 474.544159
4.800000 -1.040000 -7.120000 16.187782 21.179661 710.622314
4.800000 -1.040000 -7.080000 6.729619 28.695381 868.712708
4.800000 -1.040000 -7.040000 -3.954224 30.322174 935.070129
4.800000 -1.040000 -7.000000 -13.579308 27.490902 940.147278
4.800000 -1.040000 -6.960000 -21.334442 20.812737 888.328430
4.800000 -1.040000 -6.920000 -25.214563 10.370327 743.317932
4.800000 -1.040000 -6.880000 -22.173079 -1.312734 493.368683
4.800000 -1.040000 -6.840000 -11.945818 -8.529581 215.456314
4.800000 -1.040000 -6.800000 0.179768 -6.534510 42.732140
4.800000 -1.000000 -7.200000 4.238769 2.648210 24.980173
4.800000 -1.000000 -7.160000 4.642991 10.753978 137.205414
4.800000 -1.000000 -7.120000 -0.503428 18.405533 339.017090
4.800000 -1.000000 -7.080000 -9.918061 22.183912 590.493896
4.800000 -1.000000 -7.040000 -20.788733 20.217838 840.932373
4.800000 -1.000000 -7.000000 -29.808546 12.203258 1037.468994
4.800000 -1.000000 -6.960000 -33.491367 -0.439483 1121.864746
4.800000 -1.000000 -6.920000 -29.170353 -13.897937 1044.062134
4.800000 -1.000000 -6.880000 -17.283054 -22.479185 804.017700
4.800000 -1.000000 -6.840000 -2.801445 -21.716864 479.470245
4.800000 -1.000000 -6.800000 6.899724 -12.209885 196.687485
4.800000 -0.960000 -7.200000 -3.863229 -2.038831 19.081367
4.800000 -0.960000 -7.160000 -5.057447 3.430130 37.343563
4.800000 -0.960000 -7.120000 -11.448557 6.382768 171.809189
4.800000 -0.960000 -7.080000 -19.297802 3.536788 384.914032
4.800000 -0.960000 -7.040000 -24.123661 -4.346748 600.845276
4.800000 -0.960000 -7.000000 -23.745787 -14.077650 762.042603
4.800000 -0.960000 -6.960000 -18.366001 -22.596777 847.924316
4.800000 -0.960000 -6.920000 -9.194861 -27.726055 853.279602
4.800000 -0.960000 -6.880000 1.878772 -27.662777 768.759033
4.800000 -0.960000 -6.840000 11.595407 -21.439165 594.091248
4.800000 -0.960000 -6.800000 15.893875 -10.639656 365.817535
4.800000 -0.920000 -7.200000 -3.491981 -8.217393 79.719475
4.800000 -0.920000 -7.160000 -7.652192 -4.903870 82.603989
4.800000 -0.920000 -7.120000 -13.687298 -9.243237 272.779541
4.800000 -0.920000 -7.080000 -13.464756 -19.003086 542.416931
4.800000 -0.920000 -7.040000 -5.253734 -26.169117 712.424438
4.800000 -0.920000 -7.000000 5.086576 -25.724543 687.625366
4.800000 -0.920000 -6.960000 11.115213 -20.217430 532.292419
4.800000 -0.920000 -6.920000 12.461108 -15.529873 396.456177
4.800000 -0.920000 -6.880000 13.636238 -13.562533 369.889282
4.800000 -0.920000 -6.840000 17.143021 -10.659037 407.498199
4.800000 -0.920000 -6.800000 19.585304 -3.333146 394.694000
4.800000 -0.880000 -7.200000 -0.515628 -8.603793 74.291122
4.800000 -0.880000 -7.160000 -7.959050 -11.232766 189.521515
4.800000 -0.880000 -7.120000 -7.611481 -23.839966 626.278625
4.800000 -0.880000 -7.080000 6.830395 -33.261948 1153.011475
4.800000 -0.880000 -7.040000 25.996975 -27.354919 1424.134277
4.800000 -0.880000 -7.000000 34.236889 -8.654257 1247.060669
4.800000 -0.880000 -6.960000 26.083630 7.886800 742.557312
4.800000 -0.880000 -6.920000 11.630749 10.538536 246.335068
4.800000 -0.880000 -6.880000 5.167967 2.473473 32.825951
4.800000 -0.880000 -6.840000 9.964838 -3.031374 108.487228
4.800000 -0.880000 -6.800000 15.891362 2.002589 256.545746
4.800000 -0.840000 -7.200000 -2.629556 -6.340796 47.120251
4.800000 -0.840000 -7.160000 -8.090245 -18.702286 415.227539
4.800000 -0.840000 -7.120000 5.346819 -33.999043 1184.523438
4.800000 -0.840000 -7.080000 31.933146 -31.300655 1999.456787
4.800000 -0.840000 -7.040000 48.873360 -5.431991 2418.111816
4.800000 -0.840000 -7.000000 39.466103 25.472462 2206.419434
4.800000 -0.840000 -6.960000 10.879018 37.208084 1502.794556
4.800000 -0.840000 -6.920000 -12.706673 23.471947 712.391846
4.800000 -0.840000 -6.880000 -14.264314 1.131155 204.750153
4.800000 -0.840000 -6.840000 0.324658 -8.209529 67.501762
4.800000 -0.840000 -6.800000 10.941039 -0.060433 119.709991
4.800000 -0.800000 -7.200000 -8.966554 -9.673164 173.969193
4.800000 -0.800000 -7.160000 -4.107492 -29.191589 869.020386
4.800000 -0.800000 -7.120000 22.692171 -36.456810 1844.033691
4.800000 -0.800000 -7.080000 49.623028 -14.703929 2678.650391
4.800000 -0.800000 -7.040000 49.335434 24.528189 3035.617188
4.800000 -0.800000 -7.000000 17.408854 50.253960 2828.528564
4.800000 -0.800000 -6.960000 -21.642784 41.892345 2223.378662
4.800000 -0.800000 -6.920000 -37.667961 9.124093 1502.124268
4.800000 -0.800000 -6.880000 -23.292908 -18.655621 890.591736
4.800000 -0.800000 -6.840000 1.622404 -21.551006 467.078064
4.800000 -0.800000 -6.800000 12.556931 -6.348876 197.984726
4.840000 -1.200000 -7.200000 -13.498711 -19.898952 578.183533
4.840000 -1.200000 -7.160000 10.276199 -21.043800 548.441772
4.840000 -1.200000 -7.120000 22.213888 1.354836 495.292389
4.840000 -1.200000 -7.080000 6.421391 23.704727 603.148315
4.840000 -1.200000 -7.040000 -22.805103 20.333132 933.509033
4.840000 -1.200000 -7.000000 -35.320526 -7.880741 1309.645630
4.840000 -1.200000 -6.960000 -17.642357 -33.386589 1425.916992
4.840000 -1.200000 -6.920000 12.002176 -31.233437 1119.579834
4.840000 -1.200000 -6.880000 23.072733 -6.031697 568.732361
4.840000 -1.200000 -6.840000 5.697893 13.092854 203.888794
4.840000 -1.200000 -6.800000 -18.769653 4.152798 369.545624
4.840000 -1.160000 -7.200000 4.819848 -28.116102 813.746155
4.840000 -1.160000 -7.160000 27.851879 -17.798840 1092.525879
4.840000 -1.160000 -7.120000 32.452328 7.182343 1104.739624
4.840000 -1.160000 -7.080000 15.273340 23.812599 800.314758
4.840000 -1.160000 -7.040000 -5.328655 18.403215 367.072906
4.840000 -1.160000 -7.000000 -9.359982 0.507969 87.867287
4.840000 -1.160000 -6.960000 3.586128 -8.646210 87.617256
4.840000 -1.160000 -6.920000 15.253355 -0.008480 232.664917
4.840000 -1.160000 -6.880000 10.312428 13.830820 297.637756
4.840000 -1.160000 -6.840000 -5.935062 13.809263 225.920715
4.840000 -1.160000 -6.800000 -13.565005 -3.162708 194.012085
4.840000 -1.120000 -7.200000 20.837803 -18.852501 789.630798
4.840000 -1.120000 -7.160000 37.447090 -1.152232 1403.612183
4.840000 -1.120000 -7.120000 36.279518 23.725498 1879.102783
4.840000 -1.120000 -7.080000 19.273464 39.545288 1935.296265
4.840000 -1.120000 -7.040000 -0.217365 39.631695 1570.718506
4.840000 -1.120000 -7.000000 -11.294949 30.585405 1063.042969
4.840000 -1.120000 -6.960000 -14.353588 22.433393 709.282654
4.840000 -1.120000 -6.920000 -16.309744 17.562342 574.443604
4.840000 -1.120000 -6.880000 -19.613453 10.903831 503.581055
4.840000 -1.120000 -6.840000 -18.811497 -0.291506 353.957367
4.840000 -1.120000 -6.800000 -8.595944 -10.020787 174.306427
4.840000 -1.080000 -7.200000 22.171818 -2.929424 500.171021
4.840000 -1.080000 -7.160000 31.769781 17.248543 1306.831177
4.840000 -1.080000 -7.120000 25.410652 42.149498 2422.281494
4.840000 -1.080000 -7.080000 3.420885 59.017548 3494.773438
4.840000 -1.080000 -7.040000 -24.957552 59.437935 4155.747559
4.840000 -1.080000 -7.000000 -48.007023 43.683655 4212.936035
4.840000 -1.080000 -6.960000 -57.848045 18.888901 3703.186768
4.840000 -1.080000 -6.920000 -52.782543 -5.591373 2817.260254
4.840000 -1.080000 -6.880000 -36.387516 -21.844604 1801.238037
4.840000 -1.080000 -6.840000 -15.756472 -25.461868 896.573181
4.840000 -1.080000 -6.800000 0.699119 -17.018204 290.108032
4.840000 -1.040000 -7.200000 11.823309 4.830947 163.128677
4.840000 -1.040000 -7.160000 15.869742 25.581301 906.251709
4.840000 -1.040000 -7.120000 2.010543 49.555607 2459.800293
4.840000 -1.040000 -7.080000 -29.569025 60.995575 4594.787598
4.840000 -1.040000 -7.040000 -65.592155 48.292751 6634.520996
4.840000 -1.040000 -7.000000 -87.146439 13.402819 7774.137695
4.840000 -1.040000 -6.960000 -82.120071 -27.989254 7527.104492
4.840000 -1.040000 -6.920000 -53.436489 -56.125866 6005.571289
4.840000 -1.040000 -6.880000 -16.968052 -59.673859 3848.884277
4.840000 -1.040000 -6.840000 9.155277 -42.076012 1854.209839
4.840000 -1.040000 -6.800000 15.865354 -17.625547 562.369385
4.840000 -1.000000 -7.200000 2.857240 0.440768 8.358094
4.840000 -1.000000 -7.160000 0.926998 21.469709 461.807739
4.840000 -1.000000 -7.120000 -22.077646 39.212784 2025.064941
4.840000 -1.000000 -7.080000 -58.607136 35.062576 4664.180664
4.840000 -1.000000 -7.040000 -87.079056 2.543591 7589.231445
4.840000 -1.000000 -7.000000 -87.087006 -44.971806 9606.609375
4.840000 -1.000000 -6.960000 -55.237637 -82.238449 9814.359375
4.840000 -1.000000 -6.920000 -8.338919 -89.903549 8152.185547
4.840000 -1.000000 -6.880000 28.754307 -67.704025 5410.645020
4.840000 -1.000000 -6.840000 40.477364 -32.867779 2718.708008
4.840000 -1.000000 -6.800000 29.294256 -6.122073 895.633240
4.840000 -0.960000 -7.200000 3.704920 -7.233292 66.046936
4.840000 -0.960000 -7.160000 -6.145925 11.453082 168.945480
4.840000 -0.960000 -7.120000 -34.051994 15.719048 1406.626831
4.840000 -0.960000 -7.080000 -61.630707 -6.935678 3846.447754
4.840000 -0.960000 -7.040000 -65.955078 -48.821754 6733.635742
4.840000 -0.960000 -7.000000 -38.242302 -85.982544 8855.471680
4.840000 -0.960000 -6.960000 8.448439 -95.899887 9268.164062
4.840000 -0.960000 -6.920000 48.925156 -73.946510 7861.757324
4.840000 -0.960000 -6.880000 64.199829 -35.251064 5364.255859
4.840000 -0.960000 -6.840000 53.217056 -1.878510 2835.583984
4.840000 -0.960000 -6.800000 29.816196 12.756479 1051.733276
4.840000 -0.920000 -7.200000 10.227855 -7.971211 168.149216
4.840000 -0.920000 -7.160000 -6.713371 2.627935 51.975391
4.840000 -0.920000 -7.120000 -29.049749 -8.949845 923.987671
4.840000 -0.920000 -7.080000 -34.799461 -39.674625 2785.078613
4.840000 -0.920000 -7.040000 -13.192318 -69.086578 4946.992188
4.840000 -0.920000 -7.000000 25.826256 -75.940422 6433.943359
4.840000 -0.920000 -6.960000 59.864925 -54.906975 6598.584961
4.840000 -0.920000 -6.920000 71.593216 -19.084152 5489.793457
4.840000 -0.920000 -6.880000 59.837784 11.975122 3723.963867
4.840000 -0.920000 -6.840000 36.510422 26.424374 2031.258301
4.840000 -0.920000 -6.800000 15.136453 24.923386 850.287354
4.840000 -0.880000 -7.200000 12.211414 -1.680624 151.943130
4.840000 -0.880000 -7.160000 -5.431243 -3.750302 43.563168
4.840000 -0.880000 -7.120000 -11.945412 -24.227936 729.685730
4.840000 -0.880000 -7.080000 4.548714 -45.032810 2048.644775
4.840000 -0.880000 -7.040000 35.175896 -46.179924 3369.929199
4.840000 -0.880000 -7.000000 58.719833 -23.860182 4017.327148
4.840000 -0.880000 -6.960000 60.573109 7.555576 3726.188232
4.840000 -0.880000 -6.920000 43.437248 29.689695 2768.272461
4.840000 -0.880000 -6.880000 21.255230 35.045307 1679.958374
4.840000 -0.880000 -6.840000 5.280518 28.907120 863.505432
4.840000 -0.880000 -6.800000 -2.961075 19.748035 398.752869
4.840000 -0.840000 -7.200000 5.869020 2.501284 40.701813
4.840000 -0.840000 -7.160000 -3.341845 -10.458750 120.553368
4.840000 -0.840000 -7.120000 8.024951 -26.779415 781.536926
4.840000 -0.840000 -7.080000 33.145222 -25.320290 1739.722778
4.840000 -0.840000 -7.040000 49.832771 -1.380321 2485.210449
4.840000 -0.840000 -7.000000 42.556252 28.434452 2619.552734
4.840000 -0.840000 -6.960000 16.942162 42.759464 2115.408691
4.840000 -0.840000 -6.920000 -7.383353 35.303612 1300.858887
4.840000 -0.840000 -6.880000 -16.440750 17.847178 588.820068
4.840000 -0.840000 -6.840000 -12.822124 5.471087 194.339661
4.840000 -0.840000 -6.800000 -8.100554 1.661196 68.378540
4.840000 -0.800000 -7.200000 -1.812850 -2.534709 9.711178
4.840000 -0.800000 -7.160000 2.728944 -17.848980 326.033234
4.840000 -0.800000 -7.120000 23.786026 -19.596897 949.813416
4.840000 -0.800000 -7.080000 39.899673 2.004213 1596.000732
4.840000 -0.800000 -7.040000 31.167379 32.176903 2006.758545
4.840000 -0.800000 -7.000000 0.319086 45.423458 2063.392334
4.840000 -0.800000 -6.960000 -29.358913 30.647232 1801.198608
4.840000 -0.800000 -6.920000 -36.738926 1.245503 1351.299927
4.840000 -0.800000 -6.880000 -21.990114 -19.488411 863.363281
4.840000 -0.800000 -6.840000 -3.001133 -21.034081 451.439362
4.840000 -0.800000 -6.800000 4.998425 -12.519600 181.724640
4.880000 -1.200000 -7.200000 16.097839 -14.073264 457.197205
4.880000 -1.200000 -7.160000 25.650097 6.622052 701.779053
4.880000 -1.200000 -7.120000 10.411695 28.929415 945.314392
4.880000 -1.200000 -7.080000 -19.682121 28.038984 1173.570557
4.880000 -1.200000 -7.040000 -36.193584 0.907257 1310.798706
4.880000 -1.200000 -7.000000 -22.010120 -27.726036 1253.178467
4.880000 -1.200000 -6.960000 8.939613 -30.010145 980.525513
4.880000 -1.200000 -6.920000 24.822901 -4.792343 639.142944
4.880000 -1.200000 -6.880000 9.204309 20.067263 487.414337
4.880000 -1.200000 -6.840000 -20.999985 16.519695 713.899658
4.880000 -1.200000 -6.800000 -32.720242 -13.924208 1264.497803
4.880000 -1.160000 -7.200000 25.125679 -5.741740 664.267334
4.880000 -1.160000 -7.160000 29.422445 15.418021 1103.395630
4.880000 -1.160000 -7.120000 14.822981 33.061687 1312.795898
4.880000 -1.160000 -7.080000 -6.879353 32.789944 1122.505859
4.880000 -1.160000 -7.040000 -17.590347 18.121649 637.814453
4.880000 -1.160000 -7.000000 -12.374672 6.166901 191.163177
4.880000 -1.160000 -6.960000 -4.109764 8.178444 83.777107
4.880000 -1.160000 -6.920000 -7.881512 16.865429 346.560913
4.880000 -1.160000 -6.880000 -22.685520 15.122128 743.311523
4.880000 -1.160000 -6.840000 -31.420717 -3.389295 998.748779
4.880000 -1.160000 -6.800000 -19.831522 -25.050499 1020.816772
4.880000 -1.120000 -7.200000 23.985350 6.677148 619.881287
4.880000 -1.120000 -7.160000 26.445566 28.032557 1485.192139
4.880000 -1.120000 -7.120000 12.758577 48.511848 2516.180664
4.880000 -1.120000 -7.080000 -11.709553 56.634960 3344.632324
4.880000 -1.120000 -7.040000 -35.729954 49.457539 3722.677734
4.880000 -1.120000 -7.000000 -51.239342 32.277130 3667.283203
4.880000 -1.120000 -6.960000 -56.725880 11.902313 3359.490479
4.880000 -1.120000 -6.920000 -53.604038 -7.897274 2935.759766
4.880000 -1.120000 -6.880000 -42.268417 -24.711889 2397.296631
4.880000 -1.120000 -6.840000 -23.489685 -34.144855 1717.636475
4.880000 -1.120000 -6.800000 -2.524041 -31.305641 986.413940
4.880000 -1.080000 -7.200000 14.243251 12.498672 359.086975
4.880000 -1.080000 -7.160000 14.844318 37.622860 1635.833374
4.880000 -1.080000 -7.120000 -6.521454 63.645111 4093.229492
4.880000 -1.080000 -7.080000 -46.868034 71.546745 7315.548828
4.880000 -1.080000 -7.040000 -88.198509 49.934654 10272.447266
4.880000 -1.080000 -7.000000 -108.639938 4.695042 11824.678711
4.880000 -1.080000 -6.960000 -97.157715 -43.794548 11357.583984
4.880000 -1.080000 -6.920000 -60.598362 -73.750214 9111.255859
4.880000 -1.080000 -6.880000 -18.307602 -75.301437 6005.475098
4.880000 -1.080000 -6.840000 10.794177 -54.744438 3113.467773
4.880000 -1.080000 -6.800000 18.953777 -27.987999 1142.573730
4.880000 -1.040000 -7.200000 5.920426 8.055714 99.945969
4.880000 -1.040000 -7.160000 -0.772289 38.338562 1470.441772
4.880000 -1.040000 -7.120000 -37.926968 61.317822 5198.330078
4.880000 -1.040000 -7.080000 -92.440208 50.080872 11053.286133
4.880000 -1.040000 -7.040000 -131.138535 -2.532532 17203.728516
4.880000 -1.040000 -7.000000 -125.090218 -73.541031 21055.845703
4.880000 -1.040000 -6.960000 -73.176826 -124.354698 20818.939453
4.880000 -1.040000 -6.920000 -4.118242 -128.968948 16649.949219
4.880000 -1.040000 -6.880000 45.081566 -92.125870 10519.523438
4.880000 -1.040000 -6.840000 55.651028 -42.744251 4924.107910
4.880000 -1.040000 -6.800000 36.715202 -9.997589 1447.957886
4.880000 -1.000000 -7.200000 6.787899 0.324430 46.180828
4.880000 -1.000000 -7.160000 -13.085920 30.227520 1084.944214
4.880000 -1.000000 -7.120000 -62.780960 35.742622 5218.983887
4.880000 -1.000000 -7.080000 -111.775932 -5.320393 12522.166016
4.880000 -1.000000 -7.040000 -119.525818 -80.453018 20759.109375
4.880000 -1.000000 -7.000000 -69.609108 -146.717422 26371.429688
4.880000 -1.000000 -6.960000 13.869705 -162.703156 26664.685547
4.880000 -1.000000 -6.920000 83.506142 -120.828247 21572.740234
4.880000 -1.000000 -6.880000 104.719452 -51.737427 13642.925781
4.880000 -1.000000 -6.840000 79.316582 1.934680 6294.863281
4.880000 -1.000000 -6.800000 37.853519 17.946178 1754.954224
4.880000 -0.960000 -7.200000 14.295488 -0.824145 205.040207
4.880000 -0.960000 -7.160000 -18.006947 18.517593 667.151367
4.880000 -0.960000 -7.120000 -64.792336 -0.819630 4198.718750
4.880000 -0.960000 -7.080000 -85.509544 -61.416950 11083.923828
4.880000 -0.960000 -7.040000 -51.344345 -128.749084 19212.568359
4.880000 -0.960000 -7.000000 27.076263 -155.850723 25022.570312
4.880000 -0.960000 -6.960000 104.860489 -121.301117 25709.683594
4.880000 -0.960000 -6.920000 137.432800 -46.581406 21057.603516
4.880000 -0.960000 -6.880000 113.962624 22.228945 13481.605469
4.880000 -0.960000 -6.840000 61.178364 50.865715 6330.113281
4.880000 -0.960000 -6.800000 17.306013 39.071438 1826.075317
4.880000 -0.920000 -7.200000 18.666962 6.789505 394.552826
4.880000 -0.920000 -7.160000 -16.848703 8.480043 355.789948
4.880000 -0.920000 -7.120000 -43.919434 -28.215986 2725.058594
4.880000 -0.920000 -7.080000 -29.655596 -83.035538 7774.354492
4.880000 -0.920000 -7.040000 28.859102 -114.226128 13880.456055
4.880000 -0.920000 -7.000000 98.296257 -92.979080 18307.263672
4.880000 -0.920000 -6.960000 134.669388 -28.142479 18927.843750
4.880000 -0.920000 -6.920000 117.927208 41.009850 15588.633789
4.880000 -0.920000 -6.880000 65.141327 76.448570 10087.776367
4.880000 -0.920000 -6.840000 12.865840 68.573677 4867.878906
4.880000 -0.920000 -6.800000 -12.616797 36.910454 1521.565186
4.880000 -0.880000 -7.200000 13.585203 15.537762 425.979797
4.880000 -0.880000 -7.160000 -13.169763 1.559464 175.874573
4.880000 -0.880000 -7.120000 -14.985281 -34.951035 1446.133423
4.880000 -0.880000 -7.080000 19.462364 -62.867348 4331.086914
4.880000 -0.880000 -7.040000 69.996063 -53.687401 7781.785645
4.880000 -0.880000 -7.000000 100.674904 -7.002216 10184.467773
4.880000 -0.880000 -6.960000 89.578064 48.764717 10402.226562
4.880000 -0.880000 -6.920000 45.391426 80.109619 8477.932617
4.880000 -0.880000 -6.880000 -2.571507 74.033348 5487.549316
4.880000 -0.880000 -6.840000 -29.053644 43.494511 2735.886719
4.880000 -0.880000 -6.800000 -29.104202 11.828928 986.978088
4.880000 -0.840000 -7.200000 2.853466 16.364597 275.942322
4.880000 -0.840000 -7.160000 -8.518887 -3.593468 85.484436
4.880000 -0.840000 -7.120000 6.191808 -25.095823 668.138855
4.880000 -0.840000 -7.080000 37.061073 -23.829327 1941.359985
4.880000 -0.840000 -7.040000 57.599724 5.167763 3344.434082
4.880000 -0.840000 -7.000000 48.750031 42.590557 4190.520996
4.880000 -0.840000 -6.960000 15.197746 62.291893 4111.251465
4.880000 -0.840000 -6.920000 -20.510902 53.245724 3255.804199
4.880000 -0.840000 -6.880000 -38.153229 25.719440 2117.158447
4.880000 -0.840000 -6.840000 -34.110085 -1.269157 1165.108643
4.880000 -0.840000 -6.800000 -18.459610 -16.132210 601.005371
4.880000 -0.800000 -7.200000 -3.871784 8.375415 85.138283
4.880000 -0.800000 -7.160000 -2.005010 -7.219633 56.143166
4.880000 -0.800000 -7.120000 14.529419 -10.736701 326.380768
4.880000 -0.800000 -7.080000 26.964529 5.252331 754.672791
4.880000 -0.800000 -7.040000 19.266235 27.885326 1148.779297
4.880000 -0.800000 -7.000000 -5.767414 36.615978 1373.992920
4.880000 -0.800000 -6.960000 -29.532974 22.925920 1397.794434
4.880000 -0.800000 -6.920000 -35.470600 -2.877161 1266.441528
4.880000 -0.800000 -6.880000 -22.873270 -23.072712 1055.536499
4.880000 -0.800000 -6.840000 -3.889810 -28.635237 835.107422
4.880000 -0.800000 -6.800000 10.338018 -23.607714 664.198792
4.920000 -1.200000 -7.200000 26.743067 12.954210 883.003235
4.920000 -1.200000 -7.160000 10.875105 35.565022 1383.138672
4.920000 -1.200000 -7.120000 -21.678200 36.798798 1824.095825
4.920000 -1.200000 -7.080000 -43.961445 9.479599 2022.471436
4.920000 -1.200000 -7.040000 -34.661255 -24.896629 1821.244751
4.920000 -1.200000 -7.000000 -2.125305 -35.422161 1259.246460
4.920000 -1.200000 -6.960000 21.574080 -13.592850 650.206482
4.920000 -1.200000 -6.920000 12.627872 16.369766 427.432404
4.920000 -1.200000 -6.880000 -19.365274 21.290020 828.278809
4.920000 -1.200000 -6.840000 -40.312649 -6.818503 1671.601562
4.920000 -1.200000 -6.800000 -26.224712 -41.950653 2447.592773
4.920000 -1.160000 -7.200000 18.595449 22.374144 846.393066
4.920000 -1.160000 -7.160000 3.965258 36.924015 1379.106201
4.920000 -1.160000 -7.120000 -18.322487 36.512230 1668.856445
4.920000 -1.160000 -7.080000 -32.469940 21.189293 1503.283203
4.920000 -1.160000 -7.040000 -30.946392 4.897783 981.667480
4.920000 -1.160000 -7.000000 -22.593586 0.317482 510.570923
4.920000 -1.160000 -6.960000 -22.248215 4.607841 516.215271
4.920000 -1.160000 -6.920000 -32.936317 2.711235 1092.151855
4.920000 -1.160000 -6.880000 -40.989109 -14.645134 1894.587036
4.920000 -1.160000 -6.840000 -30.593664 -38.164604 2392.509277
4.920000 -1.160000 -6.800000 -2.496338 -47.564346 2268.598633
4.920000 -1.120000 -7.200000 6.817269 23.186893 584.107178
4.920000 -1.120000 -7.160000 -2.459997 39.187061 1541.677368
4.920000 -1.120000 -7.120000 -24.376308 48.719803 2967.823486
4.920000 -1.120000 -7.080000 -51.697258 43.259247 4543.968750
4.920000 -1.120000 -7.040000 -73.308487 22.098152 5862.462402
4.920000 -1.120000 -7.000000 -80.987244 -8.201202 6626.193359
4.920000 -1.120000 -6.960000 -72.486679 -38.362732 6726.018066
4.920000 -1.120000 -6.920000 -50.633507 -60.193451 6187.003418
4.920000 -1.120000 -6.880000 -21.652103 -68.119728 5109.110840
4.920000 -1.120000 -6.840000 5.860869 -60.313316 3672.045898
4.920000 -1.120000 -6.800000 22.974102 -40.492413 2167.444824
4.920000 -1.080000 -7.200000 -0.173596 15.824413 250.442200
4.920000 -1.080000 -7.160000 -12.042953 40.975208 1824.000366
4.920000 -1.080000 -7.120000 -49.720898 55.311241 5531.500977
4.920000 -1.080000 -7.080000 -98.248535 36.966408 11019.290039
4.920000 -1.080000 -7.040000 -127.828262 -16.357983 16607.648438
4.920000 -1.080000 -7.000000 -115.756081 -81.634598 20063.677734
4.920000 -1.080000 -6.960000 -64.553604 -125.411705 19895.263672
4.920000 -1.080000 -6.920000 -0.756725 -127.488251 16253.826172
4.920000 -1.080000 -6.880000 44.444492 -93.887329 10790.142578
4.920000 -1.080000 -6.840000 56.248787 -49.513195 5615.482422
4.920000 -1.080000 -6.800000 42.513786 -18.402538 2146.075439
4.920000 -1.040000 -7.200000 2.128075 7.751369 64.612427
4.920000 -1.040000 -7.160000 -24.418968 37.637653 2012.878906
4.920000 -1.040000 -7.120000 -81.457970 37.379227 8032.607422
4.920000 -1.040000 -7.080000 -133.053436 -14.957041 17926.929688
4.920000 -1.040000 -7.040000 -135.025925 -101.762787 28587.664062
4.920000 -1.040000 -7.000000 -72.802742 -173.493469 35400.222656
4.920000 -1.040000 -6.960000 22.953056 -185.897156 35084.597656
4.920000 -1.040000 -6.920000 98.568039 -134.730042 27867.841797
4.920000 -1.040000 -6.880000 118.338715 -57.272671 17284.210938
4.920000 -1.040000 -6.840000 88.363274 -0.573530 7808.397461
4.920000 -1.040000 -6.800000 44.588291 14.091775 2186.693848
4.920000 -1.000000 -7.200000 9.938494 6.952207 147.106842
4.920000 -1.000000 -7.160000 -34.399830 27.022141 1913.544434
4.920000 -1.000000 -7.120000 -94.594315 -3.449932 8959.986328
4.920000 -1.000000 -7.080000 -118.203247 -86.240021 21409.349609
4.920000 -1.000000 -7.040000 -68.909309 -174.955185 35357.808594
4.920000 -1.000000 -7.000000 37.169876 -207.906921 44606.890625
4.920000 -1.000000 -6.960000 139.127686 -158.754745 44559.582031
4.920000 -1.000000 -6.920000 178.479019 -58.885452 35322.257812
4.920000 -1.000000 -6.880000 143.974472 28.945694 21566.501953
4.920000 -1.000000 -6.840000 74.833374 60.947880 9314.677734
4.920000 -1.000000 -6.800000 22.876699 41.381153 2235.743164
4.920000 -0.960000 -7.200000 14.538812 14.638935 425.675476
4.920000 -0.960000 -7.160000 -36.831573 12.652319 1516.645996
4.920000 -0.960000 -7.120000 -76.193108 -44.192841 7758.396973
4.920000 -0.960000 -7.080000 -54.854675 -128.736572 19582.140625
4.920000 -0.960000 -7.040000 34.235168 -179.275589 33311.781250
4.920000 -0.960000 -7.000000 142.482178 -149.939667 42783.078125
4.920000 -0.960000 -6.960000 201.431290 -51.678955 43245.281250
4.920000 -0.960000 -6.920000 177.650085 54.897667 34573.304688
4.920000 -0.960000 -6.880000 97.213089 108.652351 21255.718750
4.920000 -0.960000 -6.840000 19.444237 94.108810 9234.545898
4.920000 -0.960000 -6.800000 -13.109749 44.952076 2192.554688
4.920000 -0.920000 -7.200000 10.248911 24.287813 694.938049
4.920000 -0.920000 -7.160000 -31.572901 0.849734 997.570129
4.920000 -0.920000 -7.120000 -37.873295 -61.120087 5170.051758
4.920000 -0.920000 -7.080000 16.636463 -116.104973 13757.135742
4.920000 -0.920000 -7.040000 107.098419 -112.391907 24102.011719
4.920000 -0.920000 -7.000000 173.318832 -38.574131 31527.380859
4.920000 -0.920000 -6.960000 168.353973 62.987717 32310.513672
4.920000 -0.920000 -6.920000 97.026207 129.528763 26191.785156
4.920000 -0.920000 -6.880000 9.671673 127.786667 16422.974609
4.920000 -0.920000 -6.840000 -41.105354 75.702209 7420.474609
4.920000 -0.920000 -6.800000 -39.808105 19.882139 1979.984741
4.920000 -0.880000 -7.200000 -0.675029 27.854816 776.346497
4.920000 -0.880000 -7.160000 -23.217009 -4.828865 562.347412
4.920000 -0.880000 -7.120000 -4.354979 -50.297066 2548.760742
4.920000 -0.880000 -7.080000 53.604336 -65.497925 7163.402832
4.920000 -0.880000 -7.040000 110.831879 -25.885212 12953.749023
4.920000 -0.880000 -7.000000 121.678070 49.611507 17266.855469
4.920000 -0.880000 -6.960000 73.739830 111.912254 17961.914062
4.920000 -0.880000 -6.920000 -1.772438 121.766388 14830.195312
4.920000 -0.880000 -6.880000 -56.961121 79.835312 9618.246094
4.920000 -0.880000 -6.840000 -65.311661 21.245310 4716.976074
4.920000 -0.880000 -6.800000 -37.028965 -16.634079 1647.836914
4.920000 -0.840000 -7.200000 -10.716099 22.968903 642.405273
4.920000 -0.840000 -7.160000 -16.388975 -5.727668 301.404694
4.920000 -0.840000 -7.120000 8.864877 -27.844097 853.879822
4.920000 -0.840000 -7.080000 46.794891 -17.581860 2498.883789
4.920000 -0.840000 -7.040000 63.940163 24.102287 4669.264648
4.920000 -0.840000 -7.000000 41.300823 68.097305 6343.000977
4.920000 -0.840000 -6.960000 -8.441635 81.554703 6722.430664
4.920000 -0.840000 -6.920000 -51.925373 55.215019 5744.942383
4.920000 -0.840000 -6.880000 -62.914093 8.942924 4038.158936
4.920000 -0.840000 -6.840000 -40.996731 -27.176636 2419.301514
4.920000 -0.840000 -6.800000 -6.563190 -36.540184 1378.260498
4.920000 -0.800000 -7.200000 -14.361090 14.230702 408.753784
4.920000 -0.800000 -7.160000 -12.150370 -5.204032 174.713440
4.920000 -0.800000 -7.120000 5.852699 -12.026546 178.891907
4.920000 -0.800000 -7.080000 20.865810 1.646770 438.093903
4.920000 -0.800000 -7.040000 16.100307 23.677002 819.820312
4.920000 -0.800000 -7.000000 -7.153118 33.174652 1151.724609
4.920000 -0.800000 -6.960000 -30.802620 19.704052 1337.051025
4.920000 -0.800000 -6.920000 -36.397789 -8.043808 1389.501953
4.920000 -0.800000 -6.880000 -20.267536 -31.112503 1378.760864
4.920000 -0.800000 -6.840000 5.960438 -36.360580 1357.618652
4.920000 -0.800000 -6.800000 27.175247 -24.439304 1335.773682
4.960000 -1.200000 -7.200000 10.305109 35.765560 1385.370605
4.960000 -1.200000 -7.160000 -21.798561 39.958912 2071.891846
4.960000 -1.200000 -7.120000 -49.365852 15.012281 2662.355957
4.960000 -1.200000 -7.080000 -47.446247 -24.072104 2830.612793
4.960000 -1.200000 -7.040000 -15.842224 -45.704807 2339.905518
4.960000 -1.200000 -7.000000 17.139061 -32.415260 1344.496582
4.960000 -1.200000 -6.960000 21.080786 -0.008438 444.399597
4.960000 -1.200000 -6.920000 -5.766270 16.704479 312.289490
4.960000 -1.200000 -6.880000 -33.788231 -1.354513 1143.479248
4.960000 -1.200000 -6.840000 -31.465286 -37.820663 2420.466797
4.960000 -1.200000 -6.800000 2.763190 -57.035648 3260.700439
4.960000 -1.160000 -7.200000 -6.770863 32.100777 1076.304443
4.960000 -1.160000 -7.160000 -27.560333 29.867525 1651.640991
4.960000 -1.160000 -7.120000 -42.674133 12.963615 1989.136963
4.960000 -1.160000 -7.080000 -42.255478 -8.147015 1851.899292
4.960000 -1.160000 -7.040000 -30.677685 -19.451279 1319.472656
4.960000 -1.160000 -7.000000 -22.224819 -18.439064 833.941650
4.960000 -1.160000 -6.960000 -25.004875 -16.950760 912.572021
4.960000 -1.160000 -6.920000 -30.957146 -27.442112 1711.414307
4.960000 -1.160000 -6.880000 -24.105545 -47.287312 2817.167236
4.960000 -1.160000 -6.840000 0.896587 -59.140915 3498.451660
4.960000 -1.160000 -6.800000 30.181337 -48.388245 3252.335205
4.960000 -1.120000 -7.200000 -14.114622 19.210686 568.273010
4.960000 -1.120000 -7.160000 -28.284939 25.711128 1461.099854
4.960000 -1.120000 -7.120000 -50.614487 21.530954 3025.408203
4.960000 -1.120000 -7.080000 -70.884338 1.241222 5026.129883
4.960000 -1.120000 -7.040000 -77.506424 -31.101036 6974.520020
4.960000 -1.120000 -7.000000 -64.898186 -64.350883 8352.810547
4.960000 -1.120000 -6.960000 -36.101639 -86.679344 8816.636719
4.960000 -1.120000 -6.920000 -0.485435 -91.013138 8283.626953
4.960000 -1.120000 -6.880000 30.721483 -77.219063 6906.593262
4.960000 -1.120000 -6.840000 48.572075 -51.545418 5016.176758
4.960000 -1.120000 -6.800000 49.638779 -24.226013 3050.907959
4.960000 -1.080000 -7.200000 -9.260698 8.449310 157.151382
4.960000 -1.080000 -7.160000 -33.159954 25.698511 1759.995972
4.960000 -1.080000 -7.120000 -76.185379 16.919792 6090.491211
4.960000 -1.080000 -7.080000 -109.324997 -30.230137 12865.816406
4.960000 -1.080000 -7.040000 -101.755493 -98.383591 20033.511719
4.960000 -1.080000 -7.000000 -47.089939 -149.881134 24681.816406
4.960000 -1.080000 -6.960000 29.013760 -154.627441 24751.445312
4.960000 -1.080000 -6.920000 87.329765 -112.608940 20307.261719
4.960000 -1.080000 -6.880000 103.614151 -52.111816 13451.534180
4.960000 -1.080000 -6.840000 83.197281 -6.531569 6964.449219
4.960000 -1.080000 -6.800000 51.321198 9.208372 2718.659424
4.960000 -1.040000 -7.200000 0.386206 7.856319 61.870911
4.960000 -1.040000 -7.160000 -43.420242 21.009005 2326.695557
4.960000 -1.040000 -7.120000 -97.316803 -15.004509 9695.696289
4.960000 -1.040000 -7.080000 -111.742661 -97.197578 21933.791016
4.960000 -1.040000 -7.040000 -56.431026 -178.751007 35136.382812
4.960000 -1.040000 -7.000000 48.404633 -202.876007 43501.683594
4.960000 -1.040000 -6.960000 143.431213 -149.511215 42926.117188
4.960000 -1.040000 -6.920000 176.104462 -52.447830 33763.554688
4.960000 -1.040000 -6.880000 140.408340 28.854641 20547.091797
4.960000 -1.040000 -6.840000 75.920273 56.440620 8949.431641
4.960000 -1.040000 -6.800000 30.289339 37.987778 2360.515381
4.960000 -1.000000 -7.200000 4.870180 16.045158 281.165771
4.960000 -1.000000 -7.160000 -50.950314 7.183338 2647.534912
4.960000 -1.000000 -7.120000 -88.884796 -60.582897 11570.793945
4.960000 -1.000000 -7.080000 -57.573395 -154.072495 27053.029297
4.960000 -1.000000 -7.040000 46.485878 -204.818481 44111.546875
4.960000 -1.000000 -7.000000 166.404190 -165.371567 55038.109375
4.960000 -1.000000 -6.960000 226.987213 -52.522461 54281.804688
4.960000 -1.000000 -6.920000 195.348297 64.077194 42266.843750
4.960000 -1.000000 -6.880000 105.017021 118.460846 25061.546875
4.960000 -1.000000 -6.840000 23.187225 98.374802 10215.249023
4.960000 -1.000000 -6.800000 -6.084871 45.412907 2099.357666
4.960000 -0.960000 -7.200000 0.151812 24.955782 622.814148
4.960000 -0.960000 -7.160000 -47.731781 -9.969049 2377.704834
4.960000 -0.960000 -7.120000 -49.315636 -89.566376 10454.167969
4.960000 -0.960000 -7.080000 24.768789 -156.819611 25205.882812
4.960000 -0.960000 -7.040000 141.572998 -147.999863 41946.875000
4.960000 -0.960000 -7.000000 224.629730 -50.787476 53037.882812
4.960000 -0.960000 -6.960000 215.661316 79.161926 52776.414062
4.960000 -0.960000 -6.920000 123.387474 161.613297 41343.328125
4.960000 -0.960000 -6.880000 14.308010 156.238846 24615.294922
4.960000 -0.960000 -6.840000 -44.644432 89.744652 10047.227539
4.960000 -0.960000 -6.800000 -37.472866 24.335163 1996.415771
4.960000 -0.920000 -7.200000 -9.982683 27.728884 868.544922
4.960000 -0.920000 -7.160000 -35.053925 -20.213133 1637.348389
4.960000 -0.920000 -7.120000 -3.442312 -83.866180 7045.385742
4.960000 -0.920000 -7.080000 82.665451 -104.318222 17715.867188
4.960000 -0.920000 -7.040000 168.068832 -45.934013 30357.066406
4.960000 -0.920000 -7.000000 186.699829 65.806404 39187.312500
4.960000 -0.920000 -6.960000 118.621536 159.966568 39660.371094
4.960000 -0.920000 -6.920000 8.460552 177.609985 31616.886719
4.960000 -0.920000 -6.880000 -72.331978 118.614700 19301.363281
4.960000 -0.920000 -6.840000 -83.709572 36.021641 8304.851562
4.960000 -0.920000 -6.800000 -42.717033 -13.206371 1999.153198
4.960000 -0.880000 -7.200000 -19.067150 23.780546 929.070618
4.960000 -0.880000 -7.160000 -22.328701 -19.503815 878.969666
4.960000 -0.880000 -7.120000 20.915911 -53.759876 3327.599609
4.960000 -0.880000 -7.080000 86.697937 -37.550682 8926.585938
4.960000 -0.880000 -7.040000 122.205185 33.058968 16027.002930
4.960000 -0.880000 -7.000000 91.121750 114.312111 21370.431641
4.960000 -0.880000 -6.960000 7.806732 148.856934 22219.332031
4.960000 -0.880000 -6.920000 -72.905151 113.754829 18255.322266
4.960000 -0.880000 -6.880000 -101.239784 38.097412 11700.907227
4.960000 -0.880000 -6.840000 -70.949425 -24.577702 5637.884277
4.960000 -0.880000 -6.800000 -17.330421 -41.084457 1988.276123
4.960000 -0.840000 -7.200000 -24.027819 17.042522 867.783630
4.960000 -0.840000 -7.160000 -17.379793 -13.570658 486.219971
4.960000 -0.840000 -7.120000 17.608231 -25.750660 973.146240
4.960000 -0.840000 -7.080000 52.773071 0.288788 2785.080566
4.960000 -0.840000 -7.040000 53.374737 50.711525 5420.521484
4.960000 -0.840000 -7.000000 10.759979 86.732330 7638.274414
4.960000 -0.840000 -6.960000 -47.433395 77.865829 8313.014648
4.960000 -0.840000 -6.920000 -80.029427 28.615910 7223.579102
4.960000 -0.840000 -6.880000 -66.690063 -26.131989 5130.445312
4.960000 -0.840000 -6.840000 -22.219488 -51.333145 3128.797363
4.960000 -0.840000 -6.800000 19.936535 -38.612587 1888.397339
4.960000 -0.800000 -7.200000 -26.257631 10.666776 803.243286
4.960000 -0.800000 -7.160000 -19.174751 -11.176704 492.589813
4.960000 -0.800000 -7.120000 3.377345 -16.683001 289.728973
4.960000 -0.800000 -7.080000 19.854641 0.392796 394.361053
4.960000 -0.800000 -7.040000 13.054024 24.427933 767.131409
4.960000 -0.800000 -7.000000 -12.851677 31.939533 1185.299438
4.960000 -0.800000 -6.960000 -35.548107 13.458763 1444.806274
4.960000 -0.800000 -6.920000 -34.677578 -17.781693 1518.723022
4.960000 -0.800000 -6.880000 -9.386902 -37.980217 1530.610718
4.960000 -0.800000 -6.840000 22.466585 -33.081375 1599.124756
4.960000 -0.800000 -6.800000 40.622223 -8.358059 1720.022217
5.000000 -1.200000 -7.200000 -16.571957 34.728039 1480.666382
5.000000 -1.200000 -7.160000 -44.133499 16.277868 2212.734863
5.000000 -1.200000 -7.120000 -49.853100 -21.036133 2927.850342
5.000000 -1.200000 -7.080000 -24.433840 -51.110916 3209.338135
5.000000 -1.200000 -7.040000 13.636583 -50.166332 2702.617188
5.000000 -1.200000 -7.000000 32.861855 -21.264397 1532.076050
5.000000 -1.200000 -6.960000 18.963673 6.461205 401.368042
5.000000 -1.200000 -6.920000 -10.219326 5.547155 135.205551
5.000000 -1.200000 -6.880000 -21.903706 -22.425619 982.680664
5.000000 -1.200000 -6.840000 -1.127901 -48.219879 2326.428955
5.000000 -1.200000 -6.800000 34.201534 -44.328770 3134.784668
5.000000 -1.160000 -7.200000 -27.223904 17.601328 1050.947632
5.000000 -1.160000 -7.160000 -39.933983 2.311737 1600.067139
5.000000 -1.160000 -7.120000 -40.185139 -19.884214 2010.227295
5.000000 -1.160000 -7.080000 -26.485435 -36.255482 2015.938232
5.000000 -1.160000 -7.040000 -9.531727 -38.674889 1586.600708
5.000000 -1.160000 -7.000000 -1.578136 -32.622139 1066.694458
5.000000 -1.160000 -6.960000 -3.012985 -31.332300 990.791077
5.000000 -1.160000 -6.920000 -1.628494 -40.490707 1642.149414
5.000000 -1.160000 -6.880000 13.376028 -50.457199 2724.847168
5.000000 -1.160000 -6.840000 37.523235 -45.714996 3497.854004
5.000000 -1.160000 -6.800000 53.241859 -22.363214 3334.808838
5.000000 -1.120000 -7.200000 -21.291746 2.168169 458.039398
5.000000 -1.120000 -7.160000 -34.082600 0.530771 1161.905396
5.000000 -1.120000 -7.120000 -48.825325 -14.509781 2594.446045
5.000000 -1.120000 -7.080000 -52.782402 -42.195751 4566.463379
5.000000 -1.120000 -7.040000 -37.969418 -71.601044 6568.386230
5.000000 -1.120000 -7.000000 -7.022476 -89.231216 8011.524902
5.000000 -1.120000 -6.960000 29.054260 -87.527054 8505.135742
5.000000 -1.120000 -6.920000 57.896732 -68.074722 7986.199219
5.000000 -1.120000 -6.880000 71.710144 -39.057743 6667.852051
5.000000 -1.120000 -6.840000 69.241257 -10.592424 4906.550781
5.000000 -1.120000 -6.800000 54.913361 9.054934 3097.468750
5.000000 -1.080000 -7.200000 -8.523523 -0.035547 72.651718
5.000000 -1.080000 -7.160000 -37.735527 2.614339 1430.804688
5.000000 -1.080000 -7.120000 -68.215660 -28.437941 5462.092773
5.000000 -1.080000 -7.080000 -67.587242 -85.707626 11913.832031
5.000000 -1.080000 -7.040000 -20.965767 -135.529205 18807.728516
5.000000 -1.080000 -7.000000 53.286274 -143.111176 23320.236328
5.000000 -1.080000 -6.960000 115.526306 -100.431747 23432.863281
5.000000 -1.080000 -6.920000 134.678253 -32.463295 19192.097656
5.000000 -1.080000 -6.880000 110.000374 23.156155 12636.289062
5.000000 -1.080000 -6.840000 67.263115 44.221069 6479.829590
5.000000 -1.080000 -6.800000 35.368652 36.040596 2549.866211
5.000000 -1.040000 -7.200000 -2.469212 8.934417 85.920815
5.000000 -1.040000 -7.160000 -47.371517 -4.256876 2262.181641
5.000000 -1.040000 -7.120000 -71.661598 -64.860779 9342.304688
5.000000 -1.040000 -7.080000 -35.914406 -140.366608 20992.628906
5.000000 -1.040000 -7.040000 56.497108 -173.897446 33432.246094
5.000000 -1.040000 -7.000000 154.654755 -131.318848 41162.734375
5.000000 -1.040000 -6.960000 198.266296 -32.494038 40365.386719
5.000000 -1.040000 -6.920000 165.757156 63.185379 31467.828125
5.000000 -1.040000 -6.880000 89.097961 104.461540 18850.660156
5.000000 -1.040000 -6.840000 23.502506 85.944267 7938.784668
5.000000 -1.040000 -6.800000 1.771347 44.012501 1940.237915
5.000000 -1.000000 -7.200000 -7.673758 17.867464 378.132843
5.000000 -1.000000 -7.160000 -49.596874 -21.609816 2926.833984
5.000000 -1.000000 -7.120000 -42.428555 -99.566673 11713.705078
5.000000 -1.000000 -7.080000 36.794464 -158.566315 26497.107422
5.000000 -1.000000 -7.040000 150.862335 -140.196350 42414.460938
5.000000 -1.000000 -7.000000 225.172714 -38.933487 52218.566406
5.000000 -1.000000 -6.960000 208.099258 87.016830 50877.230469
5.000000 -1.000000 -6.920000 114.323135 161.181610 39049.289062
5.000000 -1.000000 -6.880000 10.921043 150.067017 22639.378906
5.000000 -1.000000 -6.840000 -40.024780 84.831757 8798.410156
5.000000 -1.000000 -6.800000 -28.684864 26.697102 1535.556641
5.000000 -0.960000 -7.200000 -17.682514 18.666937 661.125854
5.000000 -0.960000 -7.160000 -37.199490 -37.321381 2776.687500
5.000000 -0.960000 -7.120000 6.233496 -103.989502 10852.672852
5.000000 -0.960000 -7.080000 104.990540 -118.068054 24963.078125
5.000000 -0.960000 -7.040000 196.110596 -45.425114 40522.808594
5.000000 -0.960000 -7.000000 209.345795 80.882950 50367.710938
5.000000 -0.960000 -6.960000 128.191849 181.477539 49367.250000
5.000000 -0.960000 -6.920000 6.226902 194.873413 38014.421875
5.000000 -0.960000 -6.880000 -77.756218 126.611038 22076.384766
5.000000 -0.960000 -6.840000 -84.164284 38.817703 8590.440430
5.000000 -0.960000 -6.800000 -37.722214 -7.041733 1472.551514
5.000000 -0.920000 -7.200000 -24.139675 13.041486 752.804321
5.000000 -0.920000 -7.160000 -18.087425 -38.996246 1847.862183
5.000000 -0.920000 -7.120000 42.135834 -74.059959 7260.305664
5.000000 -0.920000 -7.080000 124.232697 -44.788647 17439.785156
5.000000 -0.920000 -7.040000 163.589981 49.388199 29200.875000
5.000000 -0.920000 -7.000000 118.541168 151.853302 37111.433594
5.000000 -0.920000 -6.960000 10.806831 192.128235 37030.046875
5.000000 -0.920000 -6.920000 -89.376862 145.078674 29036.044922
5.000000 -0.920000 -6.880000 -121.405098 50.853050 17325.230469
5.000000 -0.920000 -6.840000 -81.844299 -22.347748 7197.911133
5.000000 -0.920000 -6.800000 -19.093508 -36.040871 1663.506348
5.000000 -0.880000 -7.200000 -25.759893 7.644542 722.011108
5.000000 -0.880000 -7.160000 -7.212704 -27.779015 823.696716
5.000000 -0.880000 -7.120000 44.717300 -34.339394 3178.831055
5.000000 -0.880000 -7.080000 91.141953 11.460468 8438.198242
5.000000 -0.880000 -7.040000 85.695610 87.986633 15085.384766
5.000000 -0.880000 -7.000000 18.693790 140.303146 20034.429688
5.000000 -0.880000 -6.960000 -68.889832 126.263412 20688.257812
5.000000 -0.880000 -6.920000 -117.791222 54.118988 16803.636719
5.000000 -0.880000 -6.880000 -99.970123 -24.470360 10592.824219
5.000000 -0.880000 -6.840000 -39.199814 -59.124050 5032.278809
5.000000 -0.880000 -6.800000 14.505607 -40.594009 1858.286255
5.000000 -0.840000 -7.200000 -27.532852 4.836627 781.450867
5.000000 -0.840000 -7.160000 -10.691138 -17.289373 413.222870
5.000000 -0.840000 -7.120000 23.124123 -13.724213 723.079041
5.000000 -0.840000 -7.080000 42.339020 22.399176 2294.315674
5.000000 -0.840000 -7.040000 21.881004 65.543152 4774.683105
5.000000 -0.840000 -7.000000 -30.135040 77.835976 6966.559570
5.000000 -0.840000 -6.960000 -75.971268 43.800568 7690.123047
5.000000 -0.840000 -6.920000 -80.455414 -14.087166 6671.521973
5.000000 -0.840000 -6.880000 -41.425518 -54.477322 4683.852051
5.000000 -0.840000 -6.840000 10.171032 -52.483829 2858.002197
5.000000 -0.840000 -6.800000 38.912109 -17.882486 1833.935547
5.000000 -0.800000 -7.200000 -32.415085 0.114017 1050.750610
5.000000 -0.800000 -7.160000 -19.648731 -19.135206 752.228760
5.000000 -0.800000 -7.120000 4.139137 -18.877253 373.483124
5.000000 -0.800000 -7.080000 16.418213 1.779500 272.724335
5.000000 -0.800000 -7.040000 4.417500 23.128956 554.462891
5.000000 -0.800000 -7.000000 -21.286598 23.358852 998.755249
5.000000 -0.800000 -6.960000 -36.007523 -0.098816 1296.551392
5.000000 -0.800000 -6.920000 -24.118044 -27.577915 1342.221436
5.000000 -0.800000 -6.880000 6.624027 -35.312283 1290.834961
5.000000 -0.800000 -6.840000 32.872520 -16.483032 1352.292969
5.000000 -0.800000 -6.800000 36.675354 14.622969 1558.912720
5.040000 -1.200000 -7.200000 -29.685328 13.628841 1066.963989
5.040000 -1.200000 -7.160000 -38.493591 -13.999510 1677.742920
5.040000 -1.200000 -7.120000 -23.081835 -43.687431 2441.362793
5.040000 -1.200000 -7.080000 10.973210 -53.294613 2960.727051
5.040000 -1.200000 -7.040000 39.942791 -34.328899 2773.899902
5.040000 -1.200000 -7.000000 42.473560 -2.772793 1811.691650
5.040000 -1.200000 -6.960000 20.521858 14.071755 619.160950
5.040000 -1.200000 -6.920000 -1.558002 3.487768 14.591899
5.040000 -1.200000 -6.880000 -0.583437 -20.156614 406.629486
5.040000 -1.200000 -6.840000 22.487906 -29.869282 1397.879883
5.040000 -1.200000 -6.800000 43.833282 -13.358492 2099.805908
5.040000 -1.160000 -7.200000 -26.309345 -4.861437 715.815186
5.040000 -1.160000 -7.160000 -26.427624 -21.189213 1147.402100
5.040000 -1.160000 -7.120000 -15.054602 -37.321762 1619.554932
5.040000 -1.160000 -7.080000 4.715689 -43.098175 1879.690308
5.040000 -1.160000 -7.040000 21.561432 -35.629772 1734.376099
5.040000 -1.160000 -7.000000 27.012337 -23.425747 1278.431885
5.040000 -1.160000 -6.960000 24.521152 -17.760567 916.724670
5.040000 -1.160000 -6.920000 25.489067 -20.217552 1058.442017
5.040000 -1.160000 -6.880000 35.826447 -20.702011 1712.107544
5.040000 -1.160000 -6.840000 47.973030 -9.142128 2384.990234
5.040000 -1.160000 -6.800000 48.193802 11.652422 2458.421387
5.040000 -1.120000 -7.200000 -12.116437 -10.487839 256.802795
5.040000 -1.120000 -7.160000 -20.825691 -16.393967 702.471558
5.040000 -1.120000 -7.120000 -23.838865 -34.998535 1793.188965
5.040000 -1.120000 -7.080000 -10.522415 -57.132805 3374.878662
5.040000 -1.120000 -7.040000 17.901814 -68.247917 4978.253418
5.040000 -1.120000 -7.000000 49.387394 -60.188847 6061.812012
5.040000 -1.120000 -6.960000 70.620872 -36.391056 6311.616699
5.040000 -1.120000 -6.920000 75.615654 -7.504440 5774.043457
5.040000 -1.120000 -6.880000 66.802254 16.575846 4737.299805
5.040000 -1.120000 -6.840000 50.534988 30.992767 3514.336914
5.040000 -1.120000 -6.800000 32.978260 35.144104 2322.673828
5.040000 -1.080000 -7.200000 -3.210865 -2.126323 14.830902
5.040000 -1.080000 -7.160000 -27.293509 -14.230545 947.444031
5.040000 -1.080000 -7.120000 -33.514870 -52.752785 3906.102539
5.040000 -1.080000 -7.080000 -2.240356 -93.063347 8665.805664
5.040000 -1.080000 -7.040000 57.601105 -102.120712 13746.527344
5.040000 -1.080000 -7.000000 112.707405 -66.052490 17065.890625
5.040000 -1.080000 -6.960000 130.915451 -2.443748 17144.828125
5.040000 -1.080000 -6.920000 105.612595 53.507118 14017.032227
5.040000 -1.080000 -6.880000 58.337841 76.046234 9186.333984
5.040000 -1.080000 -6.840000 19.244209 65.531464 4664.711914
5.040000 -1.080000 -6.800000 4.257266 42.459557 1820.938232
5.040000 -1.040000 -7.200000 -7.359358 7.757895 114.345078
5.040000 -1.040000 -7.160000 -34.454044 -25.171080 1820.664429
5.040000 -1.040000 -7.120000 -20.895903 -81.827141 7132.319824
5.040000 -1.040000 -7.080000 43.976349 -117.170258 15662.788086
5.040000 -1.040000 -7.040000 126.875519 -92.338348 24623.767578
5.040000 -1.040000 -7.000000 173.149200 -10.601048 30093.029297
5.040000 -1.040000 -6.960000 150.895630 81.383171 29392.710938
5.040000 -1.040000 -6.920000 77.105881 130.043121 22856.529297
5.040000 -1.040000 -6.880000 2.228889 116.717415 13627.922852
5.040000 -1.040000 -6.840000 -31.877247 67.955574 5634.118652
5.040000 -1.040000 -6.800000 -22.227558 27.710814 1261.953491
5.040000 -1.000000 -7.200000 -17.645138 7.964615 374.785980
5.040000 -1.000000 -7.160000 -27.826828 -42.445011 2575.911377
5.040000 -1.000000 -7.120000 17.104660 -94.961800 9310.312500
5.040000 -1.000000 -7.080000 103.767899 -96.865250 20150.652344
5.040000 -1.000000 -7.040000 175.568756 -25.700689 31484.914062
5.040000 -1.000000 -7.000000 176.426422 84.075821 38195.027344
5.040000 -1.000000 -6.960000 99.462189 164.207397 36856.796875
5.040000 -1.000000 -6.920000 -5.110594 167.497803 28081.632812
5.040000 -1.000000 -6.880000 -71.516365 104.997849 16139.138672
5.040000 -1.000000 -6.840000 -71.431091 32.141647 6135.486328
5.040000 -1.000000 -6.800000 -30.716063 -1.217604 944.959045
5.040000 -0.960000 -7.200000 -22.481417 0.021344 505.414551
5.040000 -0.960000 -7.160000 -7.649672 -49.119099 2471.203369
5.040000 -0.960000 -7.120000 56.401146 -74.564087 8740.892578
5.040000 -0.960000 -7.080000 133.516449 -35.656349 19098.017578
5.040000 -0.960000 -7.040000 162.434906 61.046989 30111.833984
5.040000 -0.960000 -7.000000 109.207214 157.480652 36726.371094
5.040000 -0.960000 -6.960000 1.189201 188.402954 35497.085938
5.040000 -0.960000 -6.920000 -92.152908 136.065002 27005.843750
5.040000 -0.960000 -6.880000 -116.237885 44.373871 15480.286133
5.040000 -0.960000 -6.840000 -74.023438 -20.716223 5908.631348
5.040000 -0.960000 -6.800000 -16.182886 -26.740255 976.927063
5.040000 -0.920000 -7.200000 -19.397236 -5.937042 411.501221
5.040000 -0.920000 -7.160000 9.881437 -37.488827 1503.054932
5.040000 -0.920000 -7.120000 67.999451 -32.662956 5690.793945
5.040000 -0.920000 -7.080000 111.418411 26.800600 13132.334961
5.040000 -0.920000 -7.040000 94.482635 111.903481 21449.357422
5.040000 -0.920000 -7.000000 13.629181 163.078583 26780.378906
5.040000 -0.920000 -6.960000 -82.456772 139.715637 26319.578125
5.040000 -0.920000 -6.920000 -130.688782 56.992893 20327.748047
5.040000 -0.920000 -6.880000 -106.081024 -26.136599 11936.305664
5.040000 -0.920000 -6.840000 -40.061523 -57.443924 4904.729980
5.040000 -0.920000 -6.800000 11.427574 -32.969631 1217.586060
5.040000 -0.880000 -7.200000 -16.675680 -4.804132 301.157990
5.040000 -0.880000 -7.160000 9.788439 -18.846050 450.987152
5.040000 -0.880000 -7.120000 46.630405 -0.671036 2174.844971
5.040000 -0.880000 -7.080000 58.069351 50.636742 5936.128906
5.040000 -0.880000 -7.040000 20.511074 101.133331 10648.655273
5.040000 -0.880000 -7.000000 -49.871780 107.713043 14089.293945
5.040000 -0.880000 -6.960000 -105.295685 57.705421 14417.097656
5.040000 -0.880000 -6.920000 -106.152588 -16.479832 11539.957031
5.040000 -0.880000 -6.880000 -55.467335 -63.817024 7149.237793
5.040000 -0.880000 -6.840000 5.117620 -58.030655 3393.746826
5.040000 -0.880000 -6.800000 33.356148 -16.846025 1396.421143
5.040000 -0.840000 -7.200000 -21.690535 -3.184975 480.623352
5.040000 -0.840000 -7.160000 -4.959649 -12.290693 175.659256
5.040000 -0.840000 -7.120000 15.667517 0.714537 245.981644
5.040000 -0.840000 -7.080000 15.877384 31.133766 1221.402710
5.040000 -0.840000 -7.040000 -13.757874 52.550678 2950.852783
5.040000 -0.840000 -7.000000 -54.036690 40.602863 4568.556641
5.040000 -0.840000 -6.960000 -71.701790 -1.829079 5144.492188
5.040000 -0.840000 -6.920000 -49.788605 -44.285419 4440.103516
5.040000 -0.840000 -6.880000 -3.917450 -55.149563 3056.820801
5.040000 -0.840000 -6.840000 31.785824 -29.343992 1871.408447
5.040000 -0.840000 -6.800000 35.079788 9.352831 1318.067017
5.040000 -0.800000 -7.200000 -30.168129 -11.214523 1035.881592
5.040000 -0.800000 -7.160000 -15.830223 -24.451790 848.485962
5.040000 -0.800000 -7.120000 3.484386 -19.785660 403.613281
5.040000 -0.800000 -7.080000 9.469734 -1.458984 91.804504
5.040000 -0.800000 -7.040000 -3.301044 11.929024 153.198502
5.040000 -0.800000 -7.000000 -20.961060 6.148655 477.171997
5.040000 -0.800000 -6.960000 -23.843815 -13.745861 757.476196
5.040000 -0.800000 -6.920000 -6.241825 -27.902491 817.509399
5.040000 -0.800000 -6.880000 17.781937 -21.012550 757.724548
5.040000 -0.800000 -6.840000 28.011793 3.277584 795.403137
5.040000 -0.800000 -6.800000 16.734295 26.832701 1000.030457
5.080000 -1.200000 -7.200000 -20.448927 -6.172212 456.254791
5.080000 -1.200000 -7.160000 -13.400350 -25.629250 836.427856
5.080000 -1.200000 -7.120000 8.554080 -37.781448 1500.610107
5.080000 -1.200000 -7.080000 35.598488 -30.677698 2208.373535
5.080000 -1.200000 -7.040000 49.801682 -5.599777 2511.564941
5.080000 -1.200000 -7.000000 41.025421 20.554783 2105.584229
5.080000 -1.200000 -6.960000 17.916126 29.069485 1166.022461
5.080000 -1.200000 -6.920000 1.060453 16.946255 288.300110
5.080000 -1.200000 -6.880000 3.593179 -0.092484 12.919489
5.080000 -1.200000 -6.840000 18.613655 -3.320478 357.493744
5.080000 -1.200000 -6.800000 26.834526 10.021405 820.520386
5.080000 -1.160000 -7.200000 -9.207112 -14.288177 288.922943
5.080000 -1.160000 -7.160000 -3.205550 -22.885435 534.018738
5.080000 -1.160000 -7.120000 10.743900 -29.254318 971.246521
5.080000 -1.160000 -7.080000 28.861092 -25.072855 1461.610596
5.080000 -1.160000 -7.040000 40.441895 -9.527249 1726.315308
5.080000 -1.160000 -7.000000 38.764061 7.862534 1564.471924
5.080000 -1.160000 -6.960000 28.657694 16.317390 1087.520630
5.080000 -1.160000 -6.920000 21.447533 14.903961 682.124695
5.080000 -1.160000 -6.880000 22.511520 12.840210 671.639526
5.080000 -1.160000 -6.840000 25.589748 18.187851 985.633118
5.080000 -1.160000 -6.800000 20.782816 27.790363 1204.229736
5.080000 -1.120000 -7.200000 0.815940 -8.639474 75.306267
5.080000 -1.120000 -7.160000 -4.179964 -15.731919 264.965393
5.080000 -1.120000 -7.120000 2.736210 -30.172396 917.860291
5.080000 -1.120000 -7.080000 24.156096 -37.195595 1967.029297
5.080000 -1.120000 -7.040000 48.680294 -26.435755 3068.620117
5.080000 -1.120000 -7.000000 61.395103 -1.340965 3771.156738
5.080000 -1.120000 -6.960000 56.516869 24.860386 3812.195312
5.080000 -1.120000 -6.920000 40.105568 40.940990 3284.621094
5.080000 -1.120000 -6.880000 22.344162 44.986504 2523.047119
5.080000 -1.120000 -6.840000 9.038902 41.703674 1820.898193
5.080000 -1.120000 -6.800000 0.526101 35.487503 1259.639648
5.080000 -1.080000 -7.200000 -1.082687 1.147514 2.489001
5.080000 -1.080000 -7.160000 -12.454019 -18.137953 484.087891
5.080000 -1.080000 -7.120000 1.941051 -45.786469 2100.168213
5.080000 -1.080000 -7.080000 41.184349 -54.944019 4714.996094
5.080000 -1.080000 -7.040000 81.506989 -29.829889 7533.211426
5.080000 -1.080000 -7.000000 95.060905 19.732540 9425.949219
5.080000 -1.080000 -6.960000 72.380989 65.727768 9559.147461
5.080000 -1.080000 -6.920000 28.814781 84.088142 7901.107422
5.080000 -1.080000 -6.880000 -9.328325 71.758926 5236.361328
5.080000 -1.080000 -6.840000 -25.142124 45.210274 2676.095215
5.080000 -1.080000 -6.800000 -20.559799 24.546156 1025.219116
5.080000 -1.040000 -7.200000 -10.721884 2.198524 119.792305
5.080000 -1.040000 -7.160000 -13.030027 -31.607075 1168.788818
5.080000 -1.040000 -7.120000 21.587255 -60.549145 4132.208496
5.080000 -1.040000 -7.080000 77.545418 -51.856056 8702.342773
5.080000 -1.040000 -7.040000 115.846771 1.979511 13424.393555
5.080000 -1.040000 -7.000000 105.015526 72.819977 16331.009766
5.080000 -1.040000 -6.960000 47.973415 117.292236 16058.916992
5.080000 -1.040000 -6.920000 -19.564560 111.001663 12704.141602
5.080000 -1.040000 -6.880000 -57.986237 66.505630 7785.402344
5.080000 -1.040000 -6.840000 -54.120426 20.072031 3331.906982
5.080000 -1.040000 -6.800000 -27.086847 0.652136 734.122620
5.080000 -1.000000 -7.200000 -15.307148 -6.550124 277.212891
5.080000 -1.000000 -7.160000 1.804111 -41.867233 1756.119995
5.080000 -1.000000 -7.120000 52.654007 -53.224091 5605.248047
5.080000 -1.000000 -7.080000 105.670044 -15.567928 11408.518555
5.080000 -1.000000 -7.040000 117.174660 59.374443 17255.226562
5.080000 -1.000000 -7.000000 68.576721 126.149933 20616.572266
5.080000 -1.000000 -6.960000 -14.303411 140.166840 19851.330078
5.080000 -1.000000 -6.920000 -79.723587 94.467552 15279.968750
5.080000 -1.000000 -6.880000 -91.490013 25.114130 9001.142578
5.080000 -1.000000 -6.840000 -56.452293 -19.993120 3586.586182
5.080000 -1.000000 -6.800000 -14.052219 -20.316830 610.238403
5.080000 -0.960000 -7.200000 -9.347380 -13.953001 282.059753
5.080000 -0.960000 -7.160000 21.431145 -34.756157 1667.284424
5.080000 -0.960000 -7.120000 69.592926 -21.123552 5289.379883
5.080000 -0.960000 -7.080000 97.970840 35.099182 10830.238281
5.080000 -0.960000 -7.040000 73.644058 104.991104 16446.578125
5.080000 -0.960000 -7.000000 0.245766 140.102402 19628.744141
5.080000 -0.960000 -6.960000 -78.720642 112.137314 18771.716797
5.080000 -0.960000 -6.920000 -112.930893 39.064274 14279.404297
5.080000 -0.960000 -6.880000 -86.586113 -28.426510 8305.221680
5.080000 -0.960000 -6.840000 -29.998837 -49.301262 3330.544678
5.080000 -0.960000 -6.800000 9.272799 -24.666740 694.432861
5.080000 -0.920000 -7.200000 -1.337742 -10.969043 122.109451
5.080000 -0.920000 -7.160000 26.924938 -13.725770 913.348999
5.080000 -0.920000 -7.120000 55.802948 13.459513 3295.127441
5.080000 -0.920000 -7.080000 55.309856 64.554779 7226.499512
5.080000 -0.920000 -7.040000 10.630766 106.389740 11431.789062
5.080000 -0.920000 -7.000000 -57.811939 103.103546 13972.560547
5.080000 -0.920000 -6.960000 -105.367081 49.199554 13522.818359
5.080000 -0.920000 -6.920000 -99.443863 -21.244343 10340.404297
5.080000 -0.920000 -6.880000 -48.191078 -61.323242 6082.919922
5.080000 -0.920000 -6.840000 6.631176 -50.754784 2620.020508
5.080000 -0.920000 -6.800000 26.813828 -11.056501 841.227539
5.080000 -0.880000 -7.200000 -3.190179 -2.564594 16.754385
5.080000 -0.880000 -7.160000 12.093772 1.538454 148.626160
5.080000 -0.880000 -7.120000 22.118710 23.451927 1039.230225
5.080000 -0.880000 -7.080000 8.609283 53.342331 2919.524170
5.080000 -0.880000 -7.040000 -30.416620 65.820168 5257.465332
5.080000 -0.880000 -7.000000 -71.742592 42.284084 6934.943359
5.080000 -0.880000 -6.960000 -83.462112 -8.009220 7030.071777
5.080000 -0.880000 -6.920000 -53.811935 -51.474339 5545.332031
5.080000 -0.880000 -6.880000 -3.938826 -58.182297 3400.694092
5.080000 -0.880000 -6.840000 29.788227 -28.255983 1685.739014
5.080000 -0.880000 -6.800000 27.864700 9.410821 865.005066
5.080000 -0.840000 -7.200000 -14.727144 -2.737178 224.380920
5.080000 -0.840000 -7.160000 -7.906242 -4.690831 84.512566
5.080000 -0.840000 -7.120000 -2.188560 3.741332 18.787361
5.080000 -0.840000 -7.080000 -9.195816 16.300705 350.276001
5.080000 -0.840000 -7.040000 -28.377283 17.377754 1107.256592
5.080000 -0.840000 -7.000000 -43.570175 -1.259720 1899.947021
5.080000 -0.840000 -6.960000 -37.426888 -28.760303 2227.926758
5.080000 -0.840000 -6.920000 -9.833862 -42.792740 1927.923462
5.080000 -0.840000 -6.880000 19.577507 -30.430365 1309.285889
5.080000 -0.840000 -6.840000 28.887447 -1.074966 835.640198
5.080000 -0.840000 -6.800000 14.061748 22.334185 696.548523
5.080000 -0.800000 -7.200000 -21.677485 -17.698513 783.150696
5.080000 -0.800000 -7.160000 -11.000724 -26.578819 827.449585
5.080000 -0.800000 -7.120000 2.381083 -23.538279 559.720093
5.080000 -0.800000 -7.080000 7.184683 -12.460991 206.895966
5.080000 -0.800000 -7.040000 1.679384 -4.933750 27.162220
5.080000 -0.800000 -7.000000 -4.709148 -7.484829 78.198746
5.080000 -0.800000 -6.960000 -2.132847 -14.440911 213.088959
5.080000 -0.800000 -6.920000 8.495178 -14.312599 277.018555
5.080000 -0.800000 -6.880000 16.190845 -2.638908 269.107300
5.080000 -0.800000 -6.840000 11.581314 12.879965 300.020325
5.080000 -0.800000 -6.800000 -3.398674 20.327131 424.743256
5.120000 -1.200000 -7.200000 -2.051240 -7.738698 64.095039
5.120000 -1.200000 -7.160000 6.605241 -13.051144 213.961563
5.120000 -1.200000 -7.120000 21.204803 -13.105627 621.401123
5.120000 -1.200000 -7.080000 35.988918 -1.164940 1296.559326
5.120000 -1.200000 -7.040000 39.295059 21.016506 1985.795166
5.120000 -1.200000 -7.000000 25.014496 40.638126 2277.182129
5.120000 -1.200000 -6.960000 1.058365 43.974419 1934.869629
5.120000 -1.200000 -6.920000 -15.960299 29.818981 1143.902710
5.120000 -1.200000 -6.880000 -15.983321 11.445913 386.475464
5.120000 -1.200000 -6.840000 -4.919369 3.738914 38.179665
5.120000 -1.200000 -6.800000 2.289406 8.520309 77.837051
5.120000 -1.160000 -7.200000 4.801075 -5.063684 48.691212
5.120000 -1.160000 -7.160000 7.828657 -6.950065 109.591278
5.120000 -1.160000 -7.120000 17.844458 -7.642779 376.836761
5.120000 -1.160000 -7.080000 30.220890 1.907103 916.939209
5.120000 -1.160000 -7.040000 33.134850 21.101196 1543.178711
5.120000 -1.160000 -7.000000 20.836563 37.955494 1874.781860
5.120000 -1.160000 -6.960000 1.161025 40.749123 1661.838989
5.120000 -1.160000 -6.920000 -11.789263 30.140173 1047.416748
5.120000 -1.160000 -6.880000 -11.848915 18.028597 465.427094
5.120000 -1.160000 -6.840000 -5.996649 14.379125 242.719025
5.120000 -1.160000 -6.800000 -4.846927 17.060398 314.549896
5.120000 -1.120000 -7.200000 3.821752 2.221561 19.541122
5.120000 -1.120000 -7.160000 1.332512 -4.904322 25.827961
5.120000 -1.120000 -7.120000 12.129883 -11.398862 277.068115
5.120000 -1.120000 -7.080000 28.964008 -4.030145 855.155823
5.120000 -1.120000 -7.040000 36.284653 17.270744 1614.854614
5.120000 -1.120000 -7.000000 25.879982 39.097794 2198.410889
5.120000 -1.120000 -6.960000 4.352718 47.659927 2290.414795
5.120000 -1.120000 -6.920000 -14.321499 40.939049 1881.111084
5.120000 -1.120000 -6.880000 -21.964424 27.985016 1265.597046
5.120000 -1.120000 -6.840000 -21.100946 18.160730 775.062073
5.120000 -1.120000 -6.800000 -18.359276 13.194795 511.165619
5.120000 -1.080000 -7.200000 -4.149057 3.326453 28.279968
5.120000 -1.080000 -7.160000 -3.284773 -12.847754 175.854523
5.120000 -1.080000 -7.120000 16.288063 -21.431700 724.618774
5.120000 -1.080000 -7.080000 40.174850 -8.060574 1678.991455
5.120000 -1.080000 -7.040000 47.702507 23.279451 2817.462158
5.120000 -1.080000 -7.000000 29.889317 53.223980 3726.163086
5.120000 -1.080000 -6.960000 -3.390076 63.212303 4007.287842
5.120000 -1.080000 -6.920000 -32.470078 49.726357 3527.016357
5.120000 -1.080000 -6.880000 -43.557076 24.739429 2509.258301
5.120000 -1.080000 -6.840000 -37.081203 4.275831 1393.298340
5.120000 -1.080000 -6.800000 -23.620670 -3.292959 568.779663
5.120000 -1.040000 -7.200000 -8.409184 -4.824896 93.994003
5.120000 -1.040000 -7.160000 4.150491 -23.108292 551.219727
5.120000 -1.040000 -7.120000 32.771217 -23.206886 1612.512207
5.120000 -1.040000 -7.080000 55.934845 3.744603 3142.728760
5.120000 -1.040000 -7.040000 52.060555 44.997059 4735.036621
5.120000 -1.040000 -7.000000 17.712490 74.358940 5842.984375
5.120000 -1.040000 -6.960000 -28.341370 72.222778 6019.363281
5.120000 -1.040000 -6.920000 -59.077377 40.781723 5153.285156
5.120000 -1.040000 -6.880000 -59.597805 1.715954 3554.843018
5.120000 -1.040000 -6.840000 -37.038803 -21.189972 1820.887817
5.120000 -1.040000 -6.800000 -12.697393 -19.604038 545.542114
5.120000 -1.000000 -7.200000 -1.814540 -12.910601 169.976166
5.120000 -1.000000 -7.160000 20.323746 -21.534256 876.778809
5.120000 -1.000000 -7.120000 47.552490 -6.656597 2305.549561
5.120000 -1.000000 -7.080000 57.314636 30.685585 4226.572754
5.120000 -1.000000 -7.040000 34.544701 69.838768 6070.790039
5.120000 -1.000000 -7.000000 -13.551385 83.539001 7162.404785
5.120000 -1.000000 -6.960000 -59.472301 59.341015 7058.310547
5.120000 -1.000000 -6.920000 -75.213013 11.314691 5785.019531
5.120000 -1.000000 -6.880000 -54.314850 -29.639500 3828.603027
5.120000 -1.000000 -6.840000 -16.866177 -40.039196 1887.605103
5.120000 -1.000000 -6.800000 7.695872 -21.972778 542.029419
5.120000 -0.960000 -7.200000 9.354305 -10.041359 188.331909
5.120000 -0.960000 -7.160000 29.174574 -4.451006 870.967224
5.120000 -0.960000 -7.120000 42.744202 19.541445 2208.934814
5.120000 -0.960000 -7.080000 34.056602 53.404575 4011.900879
5.120000 -0.960000 -7.040000 -1.380415 75.598892 5717.098145
5.120000 -0.960000 -7.000000 -47.519249 66.164543 6635.825684
5.120000 -0.960000 -6.960000 -75.719574 25.006252 6358.766602
5.120000 -0.960000 -6.920000 -66.736679 -23.802048 5020.321777
5.120000 -0.960000 -6.880000 -28.135067 -49.171238 3209.392578
5.120000 -0.960000 -6.840000 10.488932 -38.552811 1596.336914
5.120000 -0.960000 -6.800000 22.405869 -8.438498 573.231201
5.120000 -0.920000 -7.200000 11.577553 2.274922 139.215012
5.120000 -0.920000 -7.160000 18.729725 14.153780 551.132080
5.120000 -0.920000 -7.120000 16.700638 33.141296 1377.256836
5.120000 -0.920000 -7.080000 -1.462379 50.685108 2571.118896
5.120000 -0.920000 -7.040000 -32.904198 51.904861 3776.801025
5.120000 -0.920000 -7.000000 -60.702713 27.826925 4459.157227
5.120000 -0.920000 -6.960000 -64.117897 -12.324179 4262.989746
5.120000 -0.920000 -6.920000 -37.199177 -43.747242 3297.600098
5.120000 -0.920000 -6.880000 2.507715 -45.421303 2069.383301
5.120000 -0.920000 -6.840000 26.827574 -19.410007 1096.467041
5.120000 -0.920000 -6.800000 21.594763 9.890822 564.162109
5.120000 -0.880000 -7.200000 0.192549 9.993179 99.900703
5.120000 -0.880000 -7.160000 -3.881598 15.362212 251.064362
5.120000 -0.880000 -7.120000 -10.729283 20.048981 517.079163
5.120000 -0.880000 -7.080000 -22.670494 21.324203 968.672974
5.120000 -0.880000 -7.040000 -37.019547 12.631271 1529.995850
5.120000 -0.880000 -7.000000 -43.304527 -7.982630 1939.004517
5.120000 -0.880000 -6.960000 -31.620495 -30.631399 1938.138306
5.120000 -0.880000 -6.920000 -4.916958 -38.724281 1523.746460
5.120000 -0.880000 -6.880000 19.525412 -24.315765 972.498169
5.120000 -0.880000 -6.840000 24.263407 2.048338 592.908569
5.120000 -0.880000 -6.800000 8.563969 19.443424 451.388306
5.120000 -0.840000 -7.200000 -13.210053 1.792460 177.718430
5.120000 -0.840000 -7.160000 -17.099911 -4.199071 310.039154
5.120000 -0.840000 -7.120000 -15.733630 -9.652525 340.718353
5.120000 -0.840000 -7.080000 -13.236362 -12.137926 322.530548
5.120000 -0.840000 -7.040000 -11.879049 -14.590618 353.997955
5.120000 -0.840000 -7.000000 -8.472078 -19.185804 439.871216
5.120000 -0.840000 -6.960000 0.618870 -21.991272 483.999023
5.120000 -0.840000 -6.920000 12.240307 -16.412495 419.195129
5.120000 -0.840000 -6.880000 17.210894 -2.063452 300.472717
5.120000 -0.840000 -6.840000 9.776798 12.061256 241.059692
5.120000 -0.840000 -6.800000 -4.866280 15.568892 266.071045
5.120000 -0.800000 -7.200000 -11.806951 -16.712280 418.704407
5.120000 -0.800000 -7.160000 -6.340340 -26.502682 742.592041
5.120000 -0.800000 -7.120000 5.815360 -29.487875 903.353210
5.120000 -0.800000 -7.080000 16.848049 -23.313175 827.360901
5.120000 -0.800000 -7.040000 21.103445 -12.578651 603.577881
5.120000 -0.800000 -7.000000 19.082180 -3.223247 374.518921
5.120000 -0.800000 -6.960000 14.549244 2.706383 219.005005
5.120000 -0.800000 -6.920000 9.538334 6.560699 134.022583
5.120000 -0.800000 -6.880000 3.453198 9.012559 93.150795
5.120000 -0.800000 -6.840000 -3.701054 8.554232 86.872681
5.120000 -0.800000 -6.800000 -9.383440 4.311027 106.633896
5.160000 -1.200000 -7.200000 5.785313 6.039128 69.940918
5.160000 -1.200000 -7.160000 5.371131 6.728220 74.117989
5.160000 -1.200000 -7.120000 10.461857 6.739873 154.876343
5.160000 -1.200000 -7.080000 18.152994 15.187392 560.188049
5.160000 -1.200000 -7.040000 16.667683 32.683678 1346.034424
5.160000 -1.200000 -7.000000 -1.084945 46.825912 2193.843018
5.160000 -1.200000 -6.960000 -26.899323 43.351639 2602.938232
5.160000 -1.200000 -6.920000 -42.877060 21.561152 2303.325439
5.160000 -1.200000 -6.880000 -38.457073 -3.399064 1490.500122
5.160000 -1.200000 -6.840000 -20.686077 -14.896473 649.818726
5.160000 -1.200000 -6.800000 -6.271870 -10.683825 153.480453
5.160000 -1.160000 -7.200000 2.378263 9.835769 102.398483
5.160000 -1.160000 -7.160000 -0.307088 7.297020 53.340805
5.160000 -1.160000 -7.120000 5.858052 6.465508 76.119576
5.160000 -1.160000 -7.080000 12.675013 16.819052 443.536438
5.160000 -1.160000 -7.040000 6.920115 33.986271 1202.954590
5.160000 -1.160000 -7.000000 -13.627231 42.603577 2000.766113
5.160000 -1.160000 -6.960000 -35.660828 32.440758 2324.097168
5.160000 -1.160000 -6.920000 -43.039284 9.843180 1949.268188
5.160000 -1.160000 -6.880000 -32.843651 -8.380398 1148.936523
5.160000 -1.160000 -6.840000 -17.191105 -11.911734 437.423492
5.160000 -1.160000 -6.800000 -9.281111 -5.856552 120.438217
5.160000 -1.120000 -7.200000 -4.702362 8.691072 97.646957
5.160000 -1.120000 -7.160000 -5.193947 1.638780 29.662683
5.160000 -1.120000 -7.120000 3.687990 1.470799 15.764523
5.160000 -1.120000 -7.080000 9.275112 13.836729 277.482788
5.160000 -1.120000 -7.040000 0.439364 29.516249 871.401978
5.160000 -1.120000 -7.000000 -19.961559 33.760265 1538.219360
5.160000 -1.120000 -6.960000 -37.632736 21.445515 1876.132812
5.160000 -1.120000 -6.920000 -41.007130 1.711267 1684.513184
5.160000 -1.120000 -6.880000 -31.512136 -11.949615 1135.808105
5.160000 -1.120000 -6.840000 -19.716021 -14.494362 598.807983
5.160000 -1.120000 -6.800000 -13.253185 -11.326536 303.937347
5.160000 -1.080000 -7.200000 -7.870863 0.444312 62.147907
5.160000 -1.080000 -7.160000 -2.126412 -6.964046 53.019554
5.160000 -1.080000 -7.120000 8.603228 -2.959079 82.771675
5.160000 -1.080000 -7.080000 11.223900 11.768351 264.470001
5.160000 -1.080000 -7.040000 -0.620863 25.558313 653.612854
5.160000 -1.080000 -7.000000 -20.751822 26.680241 1142.473389
5.160000 -1.080000 -6.960000 -36.421803 13.433007 1506.993408
5.160000 -1.080000 -6.920000 -39.199387 -5.648372 1568.495972
5.160000 -1.080000 -6.880000 -30.352257 -19.981556 1320.522095
5.160000 -1.080000 -6.840000 -17.365547 -24.622553 907.832275
5.160000 -1.080000 -6.800000 -7.109158 -21.263298 502.667969
5.160000 -1.040000 -7.200000 -1.106694 -7.563507 58.431408
5.160000 -1.040000 -7.160000 8.997993 -8.579350 154.569122
5.160000 -1.040000 -7.120000 16.715147 1.285995 281.049927
5.160000 -1.040000 -7.080000 13.513018 16.347586 449.845215
5.160000 -1.040000 -7.040000 -1.652405 26.184006 688.332642
5.160000 -1.040000 -7.000000 -21.513523 23.007729 992.187256
5.160000 -1.040000 -6.960000 -35.290134 6.822058 1291.934082
5.160000 -1.040000 -6.920000 -35.438381 -14.539034 1467.262451
5.160000 -1.040000 -6.880000 -22.288616 -30.146938 1405.620361
5.160000 -1.040000 -6.840000 -3.974952 -32.610401 1079.238525
5.160000 -1.040000 -6.800000 8.526620 -22.851570 594.897522
5.160000 -1.000000 -7.200000 10.991331 -5.281477 148.703354
5.160000 -1.000000 -7.160000 17.614786 2.463796 316.350983
5.160000 -1.000000 -7.120000 16.866245 14.291607 488.720245
5.160000 -1.000000 -7.080000 7.333332 24.381855 648.252625
5.160000 -1.000000 -7.040000 -8.718765 26.906292 799.965393
5.160000 -1.000000 -7.000000 -25.184752 17.902855 954.783936
5.160000 -1.000000 -6.960000 -33.266155 -1.506145 1108.905518
5.160000 -1.000000 -6.920000 -26.365955 -22.914593 1220.242188
5.160000 -1.000000 -6.880000 -6.587976 -34.061584 1203.593018
5.160000 -1.000000 -6.840000 13.985367 -28.020464 980.736938
5.160000 -1.000000 -6.800000 21.460312 -10.606745 573.048035
5.160000 -0.960000 -7.200000 15.953680 7.939189 317.550629
5.160000 -0.960000 -7.160000 11.951074 18.583447 488.172638
5.160000 -0.960000 -7.120000 2.570151 24.222675 593.343628
5.160000 -0.960000 -7.080000 -8.356415 24.295284 660.090515
5.160000 -0.960000 -7.040000 -19.187199 18.822029 722.417358
5.160000 -0.960000 -7.000000 -27.117188 6.499904 777.590637
5.160000 -0.960000 -6.960000 -26.137341 -11.125877 806.945740
5.160000 -0.960000 -6.920000 -12.216864 -25.674273 808.420044
5.160000 -0.960000 -6.880000 9.089861 -26.430948 781.220581
5.160000 -0.960000 -6.840000 23.585966 -11.451817 687.441895
5.160000 -0.960000 -6.800000 20.645329 7.237443 478.610168
5.160000 -0.920000 -7.200000 6.619211 20.308136 456.234344
5.160000 -0.920000 -7.160000 -7.207155 23.870865 621.761230
5.160000 -0.920000 -7.120000 -17.922405 17.524546 628.322327
5.160000 -0.920000 -7.080000 -21.731548 8.226359 539.933167
5.160000 -0.920000 -7.040000 -21.520380 0.069537 463.131592
5.160000 -0.920000 -7.000000 -19.111340 -8.138996 431.486542
5.160000 -0.920000 -6.960000 -11.741735 -16.479301 409.435730
5.160000 -0.920000 -6.920000 2.034740 -19.332104 377.870392
5.160000 -0.920000 -6.880000 15.708153 -10.820847 363.836792
5.160000 -0.920000 -6.840000 18.513687 5.607290 374.198334
5.160000 -0.920000 -6.800000 7.554700 16.940344 344.048737
5.160000 -0.880000 -7.200000 -9.498935 18.877163 446.577057
5.160000 -0.880000 -7.160000 -24.195446 10.094745 687.323486
5.160000 -0.880000 -7.120000 -26.475710 -5.780233 734.374268
5.160000 -0.880000 -7.080000 -17.645908 -16.606537 587.155151
5.160000 -0.880000 -7.040000 -6.674481 -18.280546 378.727081
5.160000 -0.880000 -7.000000 0.713239 -15.049044 226.982422
5.160000 -0.880000 -6.960000 5.601269 -11.043433 153.331635
5.160000 -0.880000 -6.920000 9.892117 -5.327742 126.238800
5.160000 -0.880000 -6.880000 10.893435 3.690194 132.284439
5.160000 -0.880000 -6.840000 4.786674 12.104822 169.438965
5.160000 -0.880000 -6.800000 -5.717298 12.813208 196.865784
5.160000 -0.840000 -7.200000 -16.342451 4.002226 283.093536
5.160000 -0.840000 -7.160000 -22.560032 -12.756254 671.677063
5.160000 -0.840000 -7.120000 -12.417937 -28.613415 972.932617
5.160000 -0.840000 -7.080000 6.252033 -31.254076 1015.905151
5.160000 -0.840000 -7.040000 20.216972 -20.328144 821.959412
5.160000 -0.840000 -7.000000 22.712715 -4.980632 540.674133
5.160000 -0.840000 -6.960000 16.457230 6.109866 308.170837
5.160000 -0.840000 -6.920000 7.596608 10.656652 171.272690
5.160000 -0.840000 -6.880000 -0.324057 10.512411 110.615799
5.160000 -0.840000 -6.840000 -6.267891 7.195820 91.066284
5.160000 -0.840000 -6.800000 -8.800874 1.709701 80.378448
5.160000 -0.800000 -7.200000 -5.907736 -9.186775 119.298180
5.160000 -0.800000 -7.160000 -2.288580 -24.110718 586.564331
5.160000 -0.800000 -7.120000 14.901951 -31.365078 1205.836304
5.160000 -0.800000 -7.080000 34.046074 -22.154118 1649.940063
5.160000 -0.800000 -7.040000 41.315567 -0.827604 1707.661011
5.160000 -0.800000 -7.000000 32.016499 19.442297 1403.059082
5.160000 -0.800000 -6.960000 13.028290 27.588240 930.847290
5.160000 -0.800000 -6.920000 -4.028217 21.991924 499.871277
5.160000 -0.800000 -6.880000 -11.432058 9.388223 218.830688
5.160000 -0.800000 -6.840000 -9.030272 -1.458512 83.673065
5.160000 -0.800000 -6.800000 -2.233390 -5.331940 33.417610
5.200000 -1.200000 -7.200000 -3.512743 17.895432 332.585815
5.200000 -1.200000 -7.160000 -10.999287 12.894548 287.253693
5.200000 -1.200000 -7.120000 -7.506142 6.893594 103.863800
5.200000 -1.200000 -7.080000 0.057664 12.287796 150.993256
5.200000 -1.200000 -7.040000 -3.782701 27.156311 751.774048
5.200000 -1.200000 -7.000000 -24.450104 34.829010 1810.867432
5.200000 -1.200000 -6.960000 -48.420322 21.229652 2795.225830
5.200000 -1.200000 -6.920000 -55.195312 -8.719797 3122.557373
5.200000 -1.200000 -6.880000 -37.970661 -34.231155 2613.542969
5.200000 -1.200000 -6.840000 -10.681387 -38.669392 1609.413940
5.200000 -1.200000 -6.800000 6.343022 -25.126228 671.561279
5.200000 -1.160000 -7.200000 -12.047076 13.738955 333.890930
5.200000 -1.160000 -7.160000 -15.443695 5.435844 268.056122
5.200000 -1.160000 -7.120000 -9.033846 2.658381 88.677368
5.200000 -1.160000 -7.080000 -5.460874 11.700607 166.725357
5.200000 -1.160000 -7.040000 -16.224804 22.689135 778.041077
5.200000 -1.160000 -7.000000 -36.997196 19.633526 1754.267822
5.200000 -1.160000 -6.960000 -50.349293 -1.539938 2537.422607
5.200000 -1.160000 -6.920000 -43.392803 -27.194727 2622.488525
5.200000 -1.160000 -6.880000 -21.126453 -39.156761 1979.578979
5.200000 -1.160000 -6.840000 -0.919665 -32.493500 1056.673340
5.200000 -1.160000 -6.800000 5.395874 -18.642225 376.648010
5.200000 -1.120000 -7.200000 -14.658984 3.528291 227.334656
5.200000 -1.120000 -7.160000 -12.888204 -3.129253 175.898010
5.200000 -1.120000 -7.120000 -7.714721 -1.341340 61.316109
5.200000 -1.120000 -7.080000 -10.178617 6.680620 148.234924
5.200000 -1.120000 -7.040000 -22.885187 9.360497 611.350708
5.200000 -1.120000 -7.000000 -36.062840 -1.342946 1302.331909
5.200000 -1.120000 -6.960000 -37.345207 -20.602694 1819.135498
5.200000 -1.120000 -6.920000 -24.477913 -35.216896 1839.397949
5.200000 -1.120000 -6.880000 -7.084491 -36.650726 1393.465820
5.200000 -1.120000 -6.840000 3.699505 -28.273775 813.092712
5.200000 -1.120000 -6.800000 5.662194 -19.662403 418.670563
5.200000 -1.080000 -7.200000 -7.180471 -5.242254 79.040390
5.200000 -1.080000 -7.160000 -4.107577 -5.916189 51.873482
5.200000 -1.080000 -7.120000 -4.358262 -2.130887 23.535128
5.200000 -1.080000 -7.080000 -10.711190 -0.014575 114.729813
5.200000 -1.080000 -7.040000 -18.803373 -5.000523 378.572083
5.200000 -1.080000 -7.000000 -21.607649 -16.015518 723.387329
5.200000 -1.080000 -6.960000 -16.306900 -26.691628 978.357971
5.200000 -1.080000 -6.920000 -6.239614 -31.594357 1037.136108
5.200000 -1.080000 -6.880000 3.255316 -30.324940 930.199097
5.200000 -1.080000 -6.840000 9.604763 -25.822800 759.068420
5.200000 -1.080000 -6.800000 13.201095 -20.201658 582.375916
5.200000 -1.040000 -7.200000 5.542178 -3.599966 43.675495
5.200000 -1.040000 -7.160000 3.326221 1.105102 12.285000
5.200000 -1.040000 -7.120000 -3.360055 1.419104 13.303825
5.200000 -1.040000 -7.080000 -8.491557 -4.457542 91.976227
5.200000 -1.040000 -7.040000 -7.953291 -12.351700 215.819336
5.200000 -1.040000 -7.000000 -3.305633 -17.394266 313.487701
5.200000 -1.040000 -6.960000 1.423673 -19.095926 366.681244
5.200000 -1.040000 -6.920000 5.143441 -20.183149 433.814514
5.200000 -1.040000 -6.880000 10.192207 -21.364187 560.309570
5.200000 -1.040000 -6.840000 17.374636 -19.441162 679.836731
5.200000 -1.040000 -6.800000 22.517689 -11.898308 648.616028
5.200000 -1.000000 -7.200000 12.011090 9.281835 230.418747
5.200000 -1.000000 -7.160000 0.520213 13.111829 172.190674
5.200000 -1.000000 -7.120000 -8.941074 4.912970 104.080078
5.200000 -1.000000 -7.080000 -7.518867 -7.152370 107.689774
5.200000 -1.000000 -7.040000 1.630751 -12.374905 155.797607
5.200000 -1.000000 -7.000000 8.566238 -9.319871 160.240433
5.200000 -1.000000 -6.960000 8.880476 -5.674366 111.061279
5.200000 -1.000000 -6.920000 7.984714 -7.290985 116.914124
5.200000 -1.000000 -6.880000 12.647577 -10.453788 269.242889
5.200000 -1.000000 -6.840000 20.836931 -7.163763 485.497192
5.200000 -1.000000 -6.800000 23.198284 3.214202 548.491516
5.200000 -0.960000 -7.200000 4.798358 23.276546 564.821838
5.200000 -0.960000 -7.160000 -13.435423 18.595650 526.308777
5.200000 -0.960000 -7.120000 -18.956203 0.816761 360.004730
5.200000 -0.960000 -7.080000 -7.874637 -12.677216 222.721710
5.200000 -0.960000 -7.040000 7.145240 -11.305456 178.867798
5.200000 -0.960000 -7.000000 12.532034 -1.119627 158.305450
5.200000 -0.960000 -6.960000 8.309554 4.791436 92.006554
5.200000 -0.960000 -6.920000 5.201058 2.411728 32.867443
5.200000 -0.960000 -6.880000 9.496969 -0.079040 90.198669
5.200000 -0.960000 -6.840000 15.084690 5.191572 254.500305
5.200000 -0.960000 -6.800000 12.366203 14.195151 354.425293
5.200000 -0.920000 -7.200000 -11.109978 26.069607 803.055969
5.200000 -0.920000 -7.160000 -28.336956 9.754354 898.130493
5.200000 -0.920000 -7.120000 -24.056301 -13.484586 760.539673
5.200000 -0.920000 -7.080000 -3.616005 -22.693686 528.078857
5.200000 -0.920000 -7.040000 13.620005 -12.789328 349.071411
5.200000 -0.920000 -7.000000 15.393787 3.163032 246.973465
5.200000 -0.920000 -6.960000 6.941154 10.636055 161.305298
5.200000 -0.920000 -6.920000 1.044687 8.611700 75.252747
5.200000 -0.920000 -6.880000 2.034070 6.548221 47.016632
5.200000 -0.920000 -6.840000 3.159369 9.827760 106.566467
5.200000 -0.920000 -6.800000 -1.410069 13.060783 172.572357
5.200000 -0.880000 -7.200000 -22.120514 15.502374 729.640747
5.200000 -0.880000 -7.160000 -31.027527 -8.667606 1037.834839
5.200000 -0.880000 -7.120000 -15.551218 -30.270794 1158.161377
5.200000 -0.880000 -7.080000 10.672718 -30.685003 1055.476318
5.200000 -0.880000 -7.040000 26.143242 -11.816001 823.086975
5.200000 -0.880000 -7.000000 22.241243 8.915138 574.152588
5.200000 -0.880000 -6.960000 7.944093 17.397432 365.779266
5.200000 -0.880000 -6.920000 -3.164092 14.140079 209.953323
5.200000 -0.880000 -6.880000 -6.540253 8.338326 112.302582
5.200000 -0.880000 -6.840000 -6.625802 5.365828 72.693359
5.200000 -0.880000 -6.800000 -7.065031 3.359445 61.200523
5.200000 -0.840000 -7.200000 -19.291515 2.487387 378.349670
5.200000 -0.840000 -7.160000 -18.176750 -22.106392 819.086792
5.200000 -0.840000 -7.120000 4.702719 -36.252991 1336.394897
5.200000 -0.840000 -7.080000 31.166788 -26.343052 1665.324951
5.200000 -0.840000 -7.040000 40.700031 0.117938 1656.506470
5.200000 -0.840000 -7.000000 28.375290 23.370224 1351.324463
5.200000 -0.840000 -6.960000 6.203367 29.640371 917.033386
5.200000 -0.840000 -6.920000 -10.176318 20.412506 520.227844
5.200000 -0.840000 -6.880000 -14.150827 6.693502 245.048889
5.200000 -0.840000 -6.840000 -9.308201 -2.270131 91.796097
5.200000 -0.840000 -6.800000 -2.442017 -4.077673 22.590862
5.200000 -0.800000 -7.200000 -7.804830 0.491146 61.156590
5.200000 -0.800000 -7.160000 -0.816684 -19.376064 376.098816
5.200000 -0.800000 -7.120000 23.287874 -24.833809 1159.043213
5.200000 -0.800000 -7.080000 44.846943 -6.753508 2056.858154
5.200000 -0.800000 -7.040000 45.235664 23.539167 2600.357910
5.200000 -0.800000 -7.000000 23.029743 44.640888 2523.177979
5.200000 -0.800000 -6.960000 -5.979276 43.327843 1913.053711
5.200000 -0.800000 -6.920000 -23.065008 23.993557 1107.685425
5.200000 -0.800000 -6.880000 -21.061983 2.601593 450.375427
5.200000 -0.800000 -6.840000 -7.341032 -7.126974 104.684509
5.200000 -0.800000 -6.800000 4.613453 -2.936316 29.905899
