#kx 	ky 	kz 	real 	imag 	intensity
2.800000 -7.200000 4.800000 -49.365734 -8.775782 2513.989990
2.800000 -7.200000 4.840000 -38.257210 -21.828438 1940.094849
2.800000 -7.200000 4.880000 -25.325884 -25.629612 1298.277344
2.800000 -7.200000 4.920000 -16.674862 -23.748180 842.027100
2.800000 -7.200000 4.960000 -12.398460 -22.255465 649.027527
2.800000 -7.200000 5.000000 -7.699765 -23.406414 607.146606
2.800000 -7.200000 5.040000 1.122900 -23.467552 551.986938
2.800000 -7.200000 5.080000 11.805077 -16.902767 425.063385
2.800000 -7.200000 5.120000 17.336918 -2.777296 308.282104
2.800000 -7.200000 5.160000 12.279116 12.933474 318.051422
2.800000 -7.200000 5.200000 -1.800978 21.591602 469.440826
2.800000 -7.160000 4.800000 -35.003967 -29.334797 2085.808105
2.800000 -7.160000 4.840000 -19.967247 -30.942320 1356.118164
2.800000 -7.160000 4.880000 -10.545573 -26.130165 793.994629
2.800000 -7.160000 4.920000 -7.043436 -21.154022 497.102631
2.800000 -7.160000 4.960000 -5.558720 -18.930601 389.266998
2.800000 -7.160000 5.000000 -2.724030 -17.865364 326.591583
2.800000 -7.160000 5.040000 1.292228 -14.839586 221.883163
2.800000 -7.160000 5.080000 3.595924 -8.813974 90.616814
2.800000 -7.160000 5.120000 1.693558 -1.894968 6.459042
2.800000 -7.160000 5.160000 -4.217840 2.464625 23.864555
2.800000 -7.160000 5.200000 -11.319796 2.086736 132.492233
2.800000 -7.120000 4.800000 -13.708447 -32.078251 1216.935669
2.800000 -7.120000 4.840000 -4.247093 -24.511818 618.867004
2.800000 -7.120000 4.880000 -2.473515 -16.816792 288.922760
2.800000 -7.120000 4.920000 -4.431549 -12.732243 181.748627
2.800000 -7.120000 4.960000 -6.582902 -11.703764 180.312683
2.800000 -7.120000 5.000000 -8.036739 -12.059536 210.021576
2.800000 -7.120000 5.040000 -8.991590 -13.363211 259.424103
2.800000 -7.120000 5.080000 -8.814653 -15.664781 323.083466
2.800000 -7.120000 5.120000 -6.613457 -17.834606 361.810974
2.800000 -7.120000 5.160000 -3.047752 -18.009708 333.638397
2.800000 -7.120000 5.200000 -0.351770 -15.753021 248.281433
2.800000 -7.080000 4.800000 -2.566433 -20.372000 421.604950
2.800000 -7.080000 4.840000 -1.867860 -12.306240 154.932449
2.800000 -7.080000 4.880000 -5.635130 -8.049118 96.542992
2.800000 -7.080000 4.920000 -10.343086 -7.654581 165.572052
2.800000 -7.080000 4.960000 -14.815724 -10.283838 325.263031
2.800000 -7.080000 5.000000 -18.019102 -16.387651 593.243164
2.800000 -7.080000 5.040000 -16.969955 -25.673271 947.096313
2.800000 -7.080000 5.080000 -8.886240 -34.255245 1252.387085
2.800000 -7.080000 5.120000 4.507355 -36.125908 1325.397461
2.800000 -7.080000 5.160000 16.406246 -28.628750 1088.770264
2.800000 -7.080000 5.200000 20.154446 -15.918913 659.613464
2.800000 -7.040000 4.800000 -7.182999 -10.379383 159.327072
2.800000 -7.040000 4.840000 -9.783131 -8.387531 166.060333
2.800000 -7.040000 4.880000 -13.144636 -8.969006 253.224518
2.800000 -7.040000 4.920000 -17.021822 -11.800817 429.001709
2.800000 -7.040000 4.960000 -20.714567 -18.604795 775.231689
2.800000 -7.040000 5.000000 -20.112505 -30.418367 1329.789917
2.800000 -7.040000 5.040000 -10.084103 -43.073013 1956.973511
2.800000 -7.040000 5.080000 9.072695 -47.782444 2365.475586
2.800000 -7.040000 5.120000 28.743006 -38.387039 2299.725098
2.800000 -7.040000 5.160000 37.627468 -18.326601 1751.690674
2.800000 -7.040000 5.200000 31.430897 0.842786 988.611511
2.800000 -7.000000 4.800000 -16.195797 -14.338894 467.907715
2.800000 -7.000000 4.840000 -14.306895 -16.574223 479.392120
2.800000 -7.000000 4.880000 -13.576371 -17.686659 497.135742
2.800000 -7.000000 4.920000 -15.330929 -20.753222 665.733582
2.800000 -7.000000 4.960000 -16.005327 -29.482874 1125.410400
2.800000 -7.000000 5.000000 -8.550262 -42.058937 1842.061157
2.800000 -7.000000 5.040000 10.082001 -49.431427 2545.112793
2.800000 -7.000000 5.080000 33.004456 -42.164749 2867.160156
2.800000 -7.000000 5.120000 46.802345 -20.174109 2597.454102
2.800000 -7.000000 5.160000 42.665993 4.989516 1845.282227
2.800000 -7.000000 5.200000 24.623623 19.015251 967.902588
2.800000 -6.960000 4.800000 -13.749994 -27.526068 946.746704
2.800000 -6.960000 4.840000 -5.885284 -26.227957 722.542297
2.800000 -6.960000 4.880000 -3.437299 -22.828178 532.940735
2.800000 -6.960000 4.920000 -5.103819 -23.870369 595.843445
2.800000 -6.960000 4.960000 -3.419222 -31.665012 1014.364136
2.800000 -6.960000 5.000000 8.381411 -39.852058 1658.434570
2.800000 -6.960000 5.040000 28.106007 -37.680435 2209.762695
2.800000 -6.960000 5.080000 44.088036 -20.361273 2358.336426
2.800000 -6.960000 5.120000 44.551674 4.617563 2006.173584
2.800000 -6.960000 5.160000 28.606665 22.537746 1326.291260
2.800000 -6.960000 5.200000 7.745310 23.957056 633.930359
2.800000 -6.920000 4.800000 2.849802 -33.304562 1117.315186
2.800000 -6.920000 4.840000 9.964796 -23.660118 659.098389
2.800000 -6.920000 4.880000 8.258005 -15.804199 317.967377
2.800000 -6.920000 4.920000 3.746010 -15.917471 267.398468
2.800000 -6.920000 4.960000 5.281762 -22.157967 518.872498
2.800000 -6.920000 5.000000 16.098415 -25.435522 906.124756
2.800000 -6.920000 5.040000 29.652229 -17.636475 1190.299927
2.800000 -6.920000 5.080000 34.762383 0.030579 1208.424194
2.800000 -6.920000 5.120000 25.929132 16.974005 960.436768
2.800000 -6.920000 5.160000 8.987104 22.384472 581.832642
2.800000 -6.920000 5.200000 -3.887852 15.049501 241.602875
2.800000 -6.880000 4.800000 19.377390 -21.401140 833.492065
2.800000 -6.880000 4.840000 17.803038 -7.489117 373.035034
2.800000 -6.880000 4.880000 9.043870 -0.919765 82.637558
2.800000 -6.880000 4.920000 1.494385 -3.624416 15.369577
2.800000 -6.880000 4.960000 1.607963 -10.201172 106.649445
2.800000 -6.880000 5.000000 8.676974 -12.477646 230.981537
2.800000 -6.880000 5.040000 15.645905 -6.622543 288.652435
2.800000 -6.880000 5.080000 15.620462 3.517761 256.373474
2.800000 -6.880000 5.120000 8.265867 10.189093 172.142181
2.800000 -6.880000 5.160000 -0.073046 9.229930 85.196938
2.800000 -6.880000 5.200000 -2.835271 4.006260 24.088881
2.800000 -6.840000 4.800000 19.302998 0.094551 372.614655
2.800000 -6.840000 4.840000 8.593401 8.666599 148.956482
2.800000 -6.840000 4.880000 -3.355114 8.046997 76.010956
2.800000 -6.840000 4.920000 -10.419673 0.692410 109.049019
2.800000 -6.840000 4.960000 -10.276911 -7.881021 167.725403
2.800000 -6.840000 5.000000 -5.041386 -12.803448 189.343842
2.800000 -6.840000 5.040000 0.964981 -12.615241 160.075485
2.800000 -6.840000 5.080000 4.575447 -9.255424 106.597580
2.800000 -6.840000 5.120000 5.584846 -5.483367 61.257824
2.800000 -6.840000 5.160000 5.548396 -2.179776 35.536121
2.800000 -6.840000 5.200000 4.949346 1.768888 27.624989
2.800000 -6.800000 4.800000 1.494370 12.099158 148.622772
2.800000 -6.800000 4.840000 -9.983629 9.570596 191.269165
2.800000 -6.800000 4.880000 -17.512802 1.920537 310.386719
2.800000 -6.800000 4.920000 -20.033657 -7.763590 461.620728
2.800000 -6.800000 4.960000 -17.697165 -17.256760 610.985352
2.800000 -6.800000 5.000000 -10.862076 -24.577784 722.052124
2.800000 -6.800000 5.040000 -0.692335 -27.393476 750.881836
2.800000 -6.800000 5.080000 9.914558 -23.848045 667.027710
2.800000 -6.800000 5.120000 16.796238 -14.251451 485.217468
2.800000 -6.800000 5.160000 16.489822 -1.850885 275.340027
2.800000 -6.800000 5.200000 8.294292 8.226363 136.468338
2.840000 -7.200000 4.800000 -53.255531 -24.091223 3416.538574
2.840000 -7.200000 4.840000 -37.242447 -35.133583 2621.368652
2.840000 -7.200000 4.880000 -22.003963 -36.270870 1799.750488
2.840000 -7.200000 4.920000 -11.931883 -32.714050 1212.578979
2.840000 -7.200000 4.960000 -5.314631 -29.355404 889.985046
2.840000 -7.200000 5.000000 1.663349 -26.051373 681.440735
2.840000 -7.200000 5.040000 9.138762 -19.101789 448.395325
2.840000 -7.200000 5.080000 12.460712 -7.091457 205.558121
2.840000 -7.200000 5.120000 7.160755 5.491768 81.435928
2.840000 -7.200000 5.160000 -5.244758 11.245199 153.961990
2.840000 -7.200000 5.200000 -17.126417 6.769944 339.146301
2.840000 -7.160000 4.800000 -27.913416 -48.034771 3086.498047
2.840000 -7.160000 4.840000 -8.789278 -44.548012 2061.776855
2.840000 -7.160000 4.880000 2.577356 -34.471352 1194.916870
2.840000 -7.160000 4.920000 6.254906 -24.043747 617.225586
2.840000 -7.160000 4.960000 5.506437 -16.493649 302.361298
2.840000 -7.160000 5.000000 3.337336 -11.817509 150.791321
2.840000 -7.160000 5.040000 0.867981 -8.867996 79.394745
2.840000 -7.160000 5.080000 -1.941668 -7.205362 55.687321
2.840000 -7.160000 5.120000 -4.792819 -7.150887 74.106293
2.840000 -7.160000 5.160000 -6.642859 -8.671003 119.313873
2.840000 -7.160000 5.200000 -6.561357 -10.642793 156.320435
2.840000 -7.120000 4.800000 3.196657 -46.760536 2196.766357
2.840000 -7.120000 4.840000 16.332376 -31.800819 1278.038574
2.840000 -7.120000 4.880000 18.387684 -14.499743 548.349426
2.840000 -7.120000 4.920000 10.579355 -1.231133 113.438446
2.840000 -7.120000 4.960000 -2.627373 3.150913 16.831341
2.840000 -7.120000 5.000000 -14.276068 -2.715942 211.182449
2.840000 -7.120000 5.040000 -17.727789 -14.959408 538.058350
2.840000 -7.120000 5.080000 -10.942825 -25.695900 780.024719
2.840000 -7.120000 5.120000 1.455204 -27.939651 782.741760
2.840000 -7.120000 5.160000 11.180698 -20.752949 555.692871
2.840000 -7.120000 5.200000 12.584463 -9.774180 253.903320
2.840000 -7.080000 4.800000 19.333836 -27.709290 1141.601929
2.840000 -7.080000 4.840000 23.264036 -8.245422 609.202393
2.840000 -7.080000 4.880000 13.865455 10.210529 296.505737
2.840000 -7.080000 4.920000 -6.835913 18.065023 373.074768
2.840000 -7.080000 4.960000 -28.768053 8.294724 896.403320
2.840000 -7.080000 5.000000 -37.700611 -16.131149 1681.550049
2.840000 -7.080000 5.040000 -25.591892 -40.959507 2332.625977
2.840000 -7.080000 5.080000 1.322401 -49.689552 2470.800293
2.840000 -7.080000 5.120000 25.688774 -36.637016 2002.184082
2.840000 -7.080000 5.160000 32.384293 -11.928633 1191.034668
2.840000 -7.080000 5.200000 20.356140 6.991885 463.258881
2.840000 -7.040000 4.800000 16.098488 -10.770055 375.155396
2.840000 -7.040000 4.840000 12.763710 8.348598 232.611389
2.840000 -7.040000 4.880000 -6.646672 22.052813 530.504761
2.840000 -7.040000 4.920000 -34.761333 16.422764 1478.057495
2.840000 -7.040000 4.960000 -52.589809 -12.138464 2913.030273
2.840000 -7.040000 5.000000 -43.195107 -48.926540 4259.623535
2.840000 -7.040000 5.040000 -7.837707 -69.121201 4839.169922
2.840000 -7.040000 5.080000 31.805054 -57.607666 4330.204590
2.840000 -7.040000 5.120000 49.950424 -22.579014 3004.856689
2.840000 -7.040000 5.160000 37.734367 10.768516 1539.843384
2.840000 -7.040000 5.200000 9.475503 21.414658 548.372681
2.840000 -7.000000 4.800000 7.050001 -8.099811 115.309448
2.840000 -7.000000 4.840000 -1.261648 9.723162 96.131630
2.840000 -7.000000 4.880000 -26.602758 14.695034 923.650757
2.840000 -7.000000 4.920000 -51.819820 -6.440473 2726.773438
2.840000 -7.000000 4.960000 -52.773216 -46.247482 4923.841797
2.840000 -7.000000 5.000000 -20.345078 -77.870720 6477.771484
2.840000 -7.000000 5.040000 27.884844 -76.141083 6575.028809
2.840000 -7.000000 5.080000 59.844833 -40.158108 5194.077637
2.840000 -7.000000 5.120000 55.563938 4.564932 3108.189941
2.840000 -7.000000 5.160000 23.668945 27.605978 1322.309082
2.840000 -7.000000 5.200000 -7.712253 18.920670 417.470581
2.840000 -6.960000 4.800000 7.098583 -13.547957 233.937042
2.840000 -6.960000 4.840000 -6.435389 2.710927 48.763355
2.840000 -6.960000 4.880000 -32.445374 -2.290022 1057.946533
2.840000 -6.960000 4.920000 -46.027939 -32.987045 3206.716309
2.840000 -6.960000 4.960000 -27.710306 -69.178932 5553.585938
2.840000 -6.960000 5.000000 16.489670 -81.052864 6841.476074
2.840000 -6.960000 5.040000 57.245384 -55.654545 6374.462402
2.840000 -6.960000 5.080000 66.296692 -9.700952 4489.359863
2.840000 -6.960000 5.120000 40.844360 24.312122 2259.341064
2.840000 -6.960000 5.160000 4.931127 26.147465 708.005981
2.840000 -6.960000 5.200000 -13.070701 3.639305 184.087753
2.840000 -6.920000 4.800000 16.119181 -12.384824 413.211853
2.840000 -6.920000 4.840000 -3.249816 -0.601880 10.923564
2.840000 -6.920000 4.880000 -24.951641 -13.985920 818.190369
2.840000 -6.920000 4.920000 -25.173052 -44.447865 2609.295166
2.840000 -6.920000 4.960000 2.947647 -66.287521 4402.724121
2.840000 -6.920000 5.000000 41.301491 -58.564423 5135.604492
2.840000 -6.920000 5.040000 61.824463 -24.356180 4415.487793
2.840000 -6.920000 5.080000 51.104290 11.636915 2747.066162
2.840000 -6.920000 5.120000 21.494059 25.101357 1092.072754
2.840000 -6.920000 5.160000 -1.384972 12.865927 167.450226
2.840000 -6.920000 5.200000 -2.117580 -6.779900 50.451183
2.840000 -6.880000 4.800000 20.541191 0.252690 422.004364
2.840000 -6.880000 4.840000 -1.633962 3.288293 13.482700
2.840000 -6.880000 4.880000 -15.697147 -14.546149 457.990906
2.840000 -6.880000 4.920000 -7.714857 -37.682964 1479.524902
2.840000 -6.880000 4.960000 17.467394 -45.784206 2401.303467
2.840000 -6.880000 5.000000 40.677612 -31.374910 2639.053223
2.840000 -6.880000 5.040000 45.436077 -5.604374 2095.845947
2.840000 -6.880000 5.080000 31.725208 12.704619 1167.896240
2.840000 -6.880000 5.120000 14.086227 13.968242 393.533569
2.840000 -6.880000 5.160000 6.937370 4.804311 71.208511
2.840000 -6.880000 5.200000 11.649341 -0.475219 135.932968
2.840000 -6.840000 4.800000 10.435672 13.011471 278.201599
2.840000 -6.840000 4.840000 -7.604216 6.570444 100.994827
2.840000 -6.840000 4.880000 -13.465215 -10.595748 293.581879
2.840000 -6.840000 4.920000 -4.393915 -25.428175 665.898621
2.840000 -6.840000 4.960000 11.829021 -28.549688 955.010437
2.840000 -6.840000 5.000000 24.462120 -20.236391 1007.906860
2.840000 -6.840000 5.040000 28.129261 -7.820475 852.415161
2.840000 -6.840000 5.080000 25.024281 1.764507 629.328064
2.840000 -6.840000 5.120000 20.376198 7.104950 465.669739
2.840000 -6.840000 5.160000 16.580404 11.146759 399.160065
2.840000 -6.840000 5.200000 11.610724 16.097446 393.936707
2.840000 -6.800000 4.800000 -7.505959 11.102784 179.611221
2.840000 -6.800000 4.840000 -15.492727 0.778619 240.630844
2.840000 -6.800000 4.880000 -15.716295 -11.253320 373.639160
2.840000 -6.800000 4.920000 -9.817620 -21.076527 540.605652
2.840000 -6.800000 4.960000 0.309153 -26.907473 724.107666
2.840000 -6.800000 5.000000 13.102066 -27.022802 901.895996
2.840000 -6.800000 5.040000 25.443295 -19.475367 1026.651123
2.840000 -6.800000 5.080000 32.030670 -4.650493 1047.590942
2.840000 -6.800000 5.120000 28.226925 12.579481 955.002625
2.840000 -6.800000 5.160000 14.141078 24.495583 800.003662
2.840000 -6.800000 5.200000 -4.353554 25.361330 662.150513
2.880000 -7.200000 4.800000 -50.107578 -46.133511 4639.070312
2.880000 -7.200000 4.840000 -28.175415 -52.763725 3577.864746
2.880000 -7.200000 4.880000 -10.034162 -48.331062 2436.575928
2.880000 -7.200000 4.920000 0.717396 -39.331242 1547.461182
2.880000 -7.200000 4.960000 6.240028 -30.570477 973.491943
2.880000 -7.200000 5.000000 9.423668 -22.132998 578.675110
2.880000 -7.200000 5.040000 9.624459 -12.589144 251.116760
2.880000 -7.200000 5.080000 4.289834 -3.822891 33.017178
2.880000 -7.200000 5.120000 -5.699606 -0.967338 33.421249
2.880000 -7.200000 5.160000 -13.976296 -6.755141 240.968796
2.880000 -7.200000 5.200000 -13.593312 -16.718441 464.284393
2.880000 -7.160000 4.800000 -8.797320 -64.186005 4197.236328
2.880000 -7.160000 4.840000 12.491415 -52.167328 2877.465576
2.880000 -7.160000 4.880000 22.123917 -33.388359 1604.250122
2.880000 -7.160000 4.920000 19.898222 -16.174929 657.567566
2.880000 -7.160000 4.960000 10.504642 -6.281439 149.803986
2.880000 -7.160000 5.000000 0.224598 -4.893143 23.993290
2.880000 -7.160000 5.040000 -6.244037 -9.429905 127.911102
2.880000 -7.160000 5.080000 -7.128268 -15.837006 301.622955
2.880000 -7.160000 5.120000 -3.168524 -20.450371 428.257202
2.880000 -7.160000 5.160000 3.283525 -20.849201 445.470703
2.880000 -7.160000 5.200000 8.940962 -16.276749 344.873352
2.880000 -7.120000 4.800000 30.299288 -48.815365 3300.986816
2.880000 -7.120000 4.840000 41.168205 -22.089720 2182.776855
2.880000 -7.120000 4.880000 33.437225 5.569725 1149.069946
2.880000 -7.120000 4.920000 9.940166 20.992392 539.487427
2.880000 -7.120000 4.960000 -16.760534 15.860363 532.466614
2.880000 -7.120000 5.000000 -30.877089 -6.218758 992.067566
2.880000 -7.120000 5.040000 -24.218952 -30.594997 1522.611572
2.880000 -7.120000 5.080000 -2.496496 -41.424194 1722.196411
2.880000 -7.120000 5.120000 18.909424 -33.021126 1447.961060
2.880000 -7.120000 5.160000 26.599640 -13.186698 881.429810
2.880000 -7.120000 5.200000 18.376007 4.048739 354.069946
2.880000 -7.080000 4.800000 44.588917 -15.441158 2226.600830
2.880000 -7.080000 4.840000 39.389042 18.431438 1891.214478
2.880000 -7.080000 4.880000 9.323429 43.138199 1947.830566
2.880000 -7.080000 4.920000 -33.304424 39.477135 2667.628906
2.880000 -7.080000 4.960000 -62.176498 4.157787 3883.204102
2.880000 -7.080000 5.000000 -56.072289 -42.587559 4957.801758
2.880000 -7.080000 5.040000 -17.653698 -69.790985 5182.434570
2.880000 -7.080000 5.080000 26.545704 -60.015511 4306.536133
2.880000 -7.080000 5.120000 46.860802 -23.445614 2745.631592
2.880000 -7.080000 5.160000 33.903595 11.396538 1279.334839
2.880000 -7.080000 5.200000 3.717123 21.774830 487.960236
2.880000 -7.040000 4.800000 33.591698 10.994579 1249.282837
2.880000 -7.040000 4.840000 10.860486 43.212181 1985.242798
2.880000 -7.040000 4.880000 -37.261810 50.446789 3933.320801
2.880000 -7.040000 4.920000 -81.934937 15.370731 6949.593262
2.880000 -7.040000 4.960000 -87.490158 -47.336475 9895.269531
2.880000 -7.040000 5.000000 -43.264160 -96.728485 11228.187500
2.880000 -7.040000 5.040000 23.016182 -97.813568 10097.238281
2.880000 -7.040000 5.080000 65.911636 -51.806808 7028.289062
2.880000 -7.040000 5.120000 59.759274 4.593931 3592.274902
2.880000 -7.040000 5.160000 18.512890 30.972261 1302.008057
2.880000 -7.040000 5.200000 -19.758827 16.241732 654.205078
2.880000 -7.000000 4.800000 15.051029 18.143476 555.719238
2.880000 -7.000000 4.840000 -22.433434 39.892956 2094.706787
2.880000 -7.000000 4.880000 -74.271088 20.667450 5943.337891
2.880000 -7.000000 4.920000 -97.876221 -41.104889 11269.367188
2.880000 -7.000000 4.960000 -64.441940 -107.388977 15685.156250
2.880000 -7.000000 5.000000 10.817545 -128.981979 16753.371094
2.880000 -7.000000 5.040000 77.066391 -88.581779 13785.959961
2.880000 -7.000000 5.080000 90.091385 -17.457836 8421.233398
2.880000 -7.000000 5.120000 49.558807 31.475653 3446.792236
2.880000 -7.000000 5.160000 -3.612142 29.117264 860.862610
2.880000 -7.000000 5.200000 -25.905556 -8.427795 742.125549
2.880000 -6.960000 4.800000 5.142136 13.317616 203.800461
2.880000 -6.960000 4.840000 -39.484402 17.827370 1876.833008
2.880000 -6.960000 4.880000 -77.404510 -24.461750 6589.834961
2.880000 -6.960000 4.920000 -67.266701 -91.672913 12928.732422
2.880000 -6.960000 4.960000 -3.401906 -133.099060 17726.931641
2.880000 -6.960000 5.000000 73.635834 -113.077629 18208.785156
2.880000 -6.960000 5.040000 109.960938 -44.449997 14067.210938
2.880000 -6.960000 5.080000 85.082283 21.642216 7707.380859
2.880000 -6.960000 5.120000 28.197264 40.738907 2454.744141
2.880000 -6.960000 5.160000 -10.704323 12.066613 260.185669
2.880000 -6.960000 5.200000 -5.846039 -26.339006 727.919434
2.880000 -6.920000 4.800000 4.268454 10.500452 128.479187
2.880000 -6.920000 4.840000 -36.297585 -3.411322 1329.151733
2.880000 -6.920000 4.880000 -49.927708 -53.933090 5401.554199
2.880000 -6.920000 4.920000 -13.321881 -103.234657 10834.867188
2.880000 -6.920000 4.960000 54.155487 -108.432877 14690.505859
2.880000 -6.920000 5.000000 104.726921 -60.849270 14670.361328
2.880000 -6.920000 5.040000 103.896698 5.156952 10821.117188
2.880000 -6.920000 5.080000 60.082077 42.911377 5451.242188
2.880000 -6.920000 5.120000 14.377598 34.237762 1378.939697
2.880000 -6.920000 5.160000 1.661953 1.779247 5.927809
2.880000 -6.920000 5.200000 21.218952 -16.626465 726.683228
2.880000 -6.880000 4.800000 1.979894 13.497273 186.096375
2.880000 -6.880000 4.840000 -24.466694 -12.183899 747.066467
2.880000 -6.880000 4.880000 -16.857098 -53.853180 3184.326660
2.880000 -6.880000 4.920000 25.355228 -75.974823 6415.061523
2.880000 -6.880000 4.960000 72.637558 -57.595367 8593.441406
2.880000 -6.880000 5.000000 91.170944 -10.950592 8432.055664
2.880000 -6.880000 5.040000 72.084488 30.401695 6120.436523
2.880000 -6.880000 5.080000 36.731518 41.915230 3106.090820
2.880000 -6.880000 5.120000 14.496109 27.693684 977.077271
2.880000 -6.880000 5.160000 15.948475 12.084255 400.383057
2.880000 -6.880000 5.200000 26.814676 13.938324 913.303711
2.880000 -6.840000 4.800000 -6.964904 13.738939 237.268341
2.880000 -6.840000 4.840000 -16.297178 -11.686350 402.168793
2.880000 -6.840000 4.880000 -0.601273 -35.679203 1273.367065
2.880000 -6.840000 4.920000 29.076841 -39.376144 2395.943359
2.880000 -6.840000 4.960000 52.142624 -20.626251 3144.295410
2.880000 -6.840000 5.000000 55.860832 6.565681 3163.540771
2.880000 -6.840000 5.040000 43.640915 26.013594 2581.236328
2.880000 -6.840000 5.080000 28.158478 32.468311 1847.091064
2.880000 -6.840000 5.120000 18.067333 32.320095 1371.017090
2.880000 -6.840000 5.160000 11.694187 33.560612 1263.068726
2.880000 -6.840000 5.200000 2.355595 36.642448 1348.217896
2.880000 -6.800000 4.800000 -14.844105 3.613900 233.407715
2.880000 -6.800000 4.840000 -13.292459 -11.116842 300.273682
2.880000 -6.800000 4.880000 -2.916714 -20.562037 431.304565
2.880000 -6.800000 4.920000 10.408261 -22.140255 598.522766
2.880000 -6.800000 4.960000 22.810890 -16.943218 807.409363
2.880000 -6.800000 5.000000 32.357155 -5.827532 1080.945557
2.880000 -6.800000 5.040000 36.048477 10.788214 1415.878174
2.880000 -6.800000 5.080000 29.594189 29.600548 1752.008423
2.880000 -6.800000 5.120000 11.648678 43.036243 1987.809937
2.880000 -6.800000 5.160000 -12.274876 43.383537 2032.803955
2.880000 -6.800000 5.200000 -31.672764 29.252098 1858.849121
2.920000 -7.200000 4.800000 -31.246223 -69.574356 5816.917480
2.920000 -7.200000 4.840000 -4.445947 -66.817245 4484.311035
2.920000 -7.200000 4.880000 13.078158 -52.501038 2927.397217
2.920000 -7.200000 4.920000 18.852064 -36.025406 1653.230225
2.920000 -7.200000 4.960000 17.043207 -23.524496 843.872803
2.920000 -7.200000 5.000000 12.270262 -15.551929 392.421814
2.920000 -7.200000 5.040000 5.888345 -11.062056 157.041672
2.920000 -7.200000 5.080000 -1.566795 -11.197523 127.839371
2.920000 -7.200000 5.120000 -6.419082 -17.394999 343.790588
2.920000 -7.200000 5.160000 -3.213499 -26.337257 703.977722
2.920000 -7.200000 5.200000 8.699104 -29.473713 944.374207
2.920000 -7.160000 4.800000 21.587019 -68.463287 5153.221191
2.920000 -7.160000 4.840000 39.820938 -45.242638 3632.603516
2.920000 -7.160000 4.880000 40.359226 -18.079536 1955.736816
2.920000 -7.160000 4.920000 25.708290 0.613670 661.292786
2.920000 -7.160000 4.960000 6.066227 4.095390 53.571335
2.920000 -7.160000 5.000000 -7.491207 -5.352936 84.772102
2.920000 -7.160000 5.040000 -9.351011 -19.343674 461.619110
2.920000 -7.160000 5.080000 -0.957432 -29.218775 854.653503
2.920000 -7.160000 5.120000 11.866883 -30.156006 1050.207642
2.920000 -7.160000 5.160000 22.459988 -21.916975 984.804810
2.920000 -7.160000 5.200000 25.527521 -7.910002 714.222473
2.920000 -7.120000 4.800000 56.861683 -31.679712 4236.854980
2.920000 -7.120000 4.840000 55.948952 5.273551 3158.095459
2.920000 -7.120000 4.880000 29.637444 34.085491 2040.198730
2.920000 -7.120000 4.920000 -9.958618 36.873909 1458.859253
2.920000 -7.120000 4.960000 -39.328995 10.817696 1663.792358
2.920000 -7.120000 5.000000 -40.229782 -27.252968 2361.159668
2.920000 -7.120000 5.040000 -13.820061 -52.286411 2924.863037
2.920000 -7.120000 5.080000 20.329346 -49.512932 2864.812744
2.920000 -7.120000 5.120000 39.610630 -24.359680 2162.395996
2.920000 -7.120000 5.160000 34.672382 3.913555 1217.489990
2.920000 -7.120000 5.200000 13.478818 17.940767 503.549652
2.920000 -7.080000 4.800000 55.905846 14.797428 3344.427490
2.920000 -7.080000 4.840000 29.341297 53.370865 3709.360840
2.920000 -7.080000 4.880000 -24.364416 64.102631 4702.772461
2.920000 -7.080000 4.920000 -74.614738 30.037727 6469.624512
2.920000 -7.080000 4.960000 -85.325562 -33.272903 8387.538086
2.920000 -7.080000 5.000000 -45.916420 -84.995193 9332.500977
2.920000 -7.080000 5.040000 16.944519 -90.650688 8504.664062
2.920000 -7.080000 5.080000 59.772236 -50.390877 6111.960938
2.920000 -7.080000 5.120000 57.296978 2.209948 3287.827393
2.920000 -7.080000 5.160000 20.572689 29.353336 1284.853882
2.920000 -7.080000 5.200000 -16.700020 18.843687 633.975220
2.920000 -7.040000 4.800000 27.196972 42.455490 2542.144043
2.920000 -7.040000 4.840000 -23.734436 66.961060 5047.106934
2.920000 -7.040000 4.880000 -88.905624 41.523113 9628.378906
2.920000 -7.040000 4.920000 -119.018967 -33.424789 15282.731445
2.920000 -7.040000 4.960000 -82.191620 -112.981522 19520.287109
2.920000 -7.040000 5.000000 3.083897 -141.046814 19903.712891
2.920000 -7.040000 5.040000 78.843414 -98.473251 15913.265625
2.920000 -7.040000 5.080000 95.347427 -20.526276 9512.459961
2.920000 -7.040000 5.120000 51.916656 33.801056 3837.850586
2.920000 -7.040000 5.160000 -6.631282 31.851986 1058.522949
2.920000 -7.040000 5.200000 -32.376209 -9.642330 1141.193359
2.920000 -7.000000 4.800000 -4.580101 42.095058 1792.971191
2.920000 -7.000000 4.840000 -67.993622 39.128616 6154.181641
2.920000 -7.000000 4.880000 -117.214561 -24.415564 14335.374023
2.920000 -7.000000 4.920000 -100.530243 -117.251022 23854.132812
2.920000 -7.000000 4.960000 -13.626358 -172.903000 30081.125000
2.920000 -7.000000 5.000000 88.662209 -146.588409 29349.148438
2.920000 -7.000000 5.040000 136.146576 -57.127075 21799.392578
2.920000 -7.000000 5.080000 103.427315 27.946270 11478.203125
2.920000 -7.000000 5.120000 29.573269 51.162369 3492.166016
2.920000 -7.000000 5.160000 -20.305086 12.221171 561.653564
2.920000 -7.000000 5.200000 -13.006014 -39.360683 1718.419800
2.920000 -6.960000 4.800000 -21.070045 25.987038 1119.272949
2.920000 -6.960000 4.840000 -77.456757 -7.335315 6053.355957
2.920000 -6.960000 4.880000 -88.694572 -89.399506 15858.998047
2.920000 -6.960000 4.920000 -24.698587 -162.716400 27086.646484
2.920000 -6.960000 4.960000 81.526054 -165.196030 33936.226562
2.920000 -6.960000 5.000000 156.775711 -87.831619 32293.015625
2.920000 -6.960000 5.040000 150.759766 13.970539 22923.683594
2.920000 -6.960000 5.080000 79.677734 68.492157 11039.716797
2.920000 -6.960000 5.120000 8.686394 49.732956 2548.820312
2.920000 -6.960000 5.160000 -8.514318 -5.223873 99.782471
2.920000 -6.960000 5.200000 25.898186 -36.869926 2030.107422
2.920000 -6.920000 4.800000 -22.317333 11.472942 629.691772
2.920000 -6.920000 4.840000 -54.463326 -40.594452 4614.163574
2.920000 -6.920000 4.880000 -26.782013 -111.296478 13104.182617
2.920000 -6.920000 4.920000 56.670021 -140.040634 22822.871094
2.920000 -6.920000 4.960000 140.281250 -94.229172 28557.964844
2.920000 -6.920000 5.000000 163.842499 -1.773258 26847.509766
2.920000 -6.920000 5.040000 115.876724 72.163979 18635.054688
2.920000 -6.920000 5.080000 41.959618 82.743477 8607.092773
2.920000 -6.920000 5.120000 0.874483 42.136990 1776.290649
2.920000 -6.920000 5.160000 12.300648 1.801493 154.551315
2.920000 -6.920000 5.200000 45.654289 1.120302 2085.569336
2.920000 -6.880000 4.800000 -19.315062 4.686116 395.031281
2.920000 -6.880000 4.840000 -22.968718 -45.712734 2617.216064
2.920000 -6.880000 4.880000 23.066870 -84.962555 7750.716309
2.920000 -6.880000 4.920000 90.791855 -73.796341 13689.060547
2.920000 -6.880000 4.960000 130.505875 -13.128075 17204.128906
2.920000 -6.880000 5.000000 114.609444 55.705872 16238.468750
2.920000 -6.880000 5.040000 60.782288 88.004227 11439.230469
2.920000 -6.880000 5.080000 12.942692 74.035835 5648.817871
2.920000 -6.880000 5.120000 0.161363 42.538208 1809.525146
2.920000 -6.880000 5.160000 13.838850 28.892014 1026.262207
2.920000 -6.880000 5.200000 22.771736 41.602272 2249.301025
2.920000 -6.840000 4.800000 -18.481728 0.069337 341.579071
2.920000 -6.840000 4.840000 -4.842920 -32.119717 1055.130005
2.920000 -6.840000 4.880000 33.360054 -41.841331 2863.590332
2.920000 -6.840000 4.920000 68.546120 -17.787018 5014.948242
2.920000 -6.840000 4.960000 76.162956 24.569485 6404.455566
2.920000 -6.840000 5.000000 54.626228 58.098961 6359.514160
2.920000 -6.840000 5.040000 22.974037 67.671722 5107.268555
2.920000 -6.840000 5.080000 0.903116 59.634056 3557.036377
2.920000 -6.840000 5.120000 -7.887220 50.332207 2595.539307
2.920000 -6.840000 5.160000 -13.862288 47.920113 2488.500244
2.920000 -6.840000 5.200000 -26.291988 46.250832 2830.408203
2.920000 -6.800000 4.800000 -15.939108 -7.357306 308.185120
2.920000 -6.800000 4.840000 -3.103775 -18.629780 356.702118
2.920000 -6.800000 4.880000 13.880257 -17.274784 491.079681
2.920000 -6.800000 4.920000 25.873011 -5.725193 702.190491
2.920000 -6.800000 4.960000 29.827244 9.923822 988.146729
2.920000 -6.800000 5.000000 26.692688 26.039692 1390.565186
2.920000 -6.800000 5.040000 16.392597 41.221325 1967.914917
2.920000 -6.800000 5.080000 -2.475800 51.895321 2699.253906
2.920000 -6.800000 5.120000 -27.695560 51.389294 3407.903809
2.920000 -6.800000 5.160000 -50.439949 35.501953 3804.577148
2.920000 -6.800000 5.200000 -59.856041 8.724697 3658.865967
2.960000 -7.200000 4.800000 4.713759 -79.391296 6325.197754
2.960000 -7.200000 4.840000 30.070616 -62.855927 4855.109375
2.960000 -7.200000 4.880000 38.854866 -38.472580 2989.839844
2.960000 -7.200000 4.920000 32.911736 -19.088205 1447.541992
2.960000 -7.200000 4.960000 21.251186 -10.339199 558.511963
2.960000 -7.200000 5.000000 11.268241 -10.010555 227.184479
2.960000 -7.200000 5.040000 5.183675 -14.092278 225.462769
2.960000 -7.200000 5.080000 3.458881 -20.767582 443.256317
2.960000 -7.200000 5.120000 8.132580 -28.017508 851.119568
2.960000 -7.200000 5.160000 20.053093 -30.119556 1309.314209
2.960000 -7.200000 5.200000 33.439545 -20.486784 1537.911377
2.960000 -7.160000 4.800000 53.350437 -52.024815 5552.850586
2.960000 -7.160000 4.840000 60.827271 -19.397667 4076.226318
2.960000 -7.160000 4.880000 46.010460 8.956247 2197.176758
2.960000 -7.160000 4.920000 18.761934 18.774242 704.482361
2.960000 -7.160000 4.960000 -4.140531 8.072548 82.310028
2.960000 -7.160000 5.000000 -10.891391 -12.746212 281.088318
2.960000 -7.160000 5.040000 -1.162533 -29.600063 877.515259
2.960000 -7.160000 5.080000 16.548904 -33.766228 1414.024292
2.960000 -7.160000 5.120000 31.959055 -24.686337 1630.796387
2.960000 -7.160000 5.160000 37.878788 -7.420366 1489.864502
2.960000 -7.160000 5.200000 31.408939 10.554073 1097.909912
2.960000 -7.120000 4.800000 68.206955 1.257656 4653.770020
2.960000 -7.120000 4.840000 48.927254 38.886372 3906.026123
2.960000 -7.120000 4.880000 5.524767 54.037659 2950.591553
2.960000 -7.120000 4.920000 -37.265419 33.191368 2490.378418
2.960000 -7.120000 4.960000 -51.621414 -12.044998 2809.852539
2.960000 -7.120000 5.000000 -28.868660 -51.962292 3533.479492
2.960000 -7.120000 5.040000 13.516537 -61.382164 3950.466797
2.960000 -7.120000 5.080000 46.259315 -38.122681 3593.263184
2.960000 -7.120000 5.120000 50.630028 -1.987142 2567.348389
2.960000 -7.120000 5.160000 29.710117 22.681820 1397.156006
2.960000 -7.120000 5.200000 1.515066 24.359699 595.690369
2.960000 -7.080000 4.800000 42.467896 46.848133 3998.269531
2.960000 -7.080000 4.840000 -5.631149 72.235130 5249.624023
2.960000 -7.080000 4.880000 -66.986160 52.312668 7223.760742
2.960000 -7.080000 4.920000 -98.220284 -12.260956 9797.554688
2.960000 -7.080000 4.960000 -71.511620 -82.838814 11976.180664
2.960000 -7.080000 5.000000 -1.692360 -111.459915 12426.176758
2.960000 -7.080000 5.040000 63.315384 -80.674561 10517.222656
2.960000 -7.080000 5.080000 81.450912 -17.686468 6947.062012
2.960000 -7.080000 5.120000 49.442261 29.966587 3342.533447
2.960000 -7.080000 5.160000 0.798268 33.778408 1141.618042
2.960000 -7.080000 5.200000 -26.132275 3.069180 692.315613
2.960000 -7.040000 4.800000 -2.961385 59.528877 3552.457031
2.960000 -7.040000 4.840000 -69.263016 54.591251 7777.570312
2.960000 -7.040000 4.880000 -120.179207 -10.387062 14550.932617
2.960000 -7.040000 4.920000 -105.589478 -104.148727 21996.093750
2.960000 -7.040000 4.960000 -21.551636 -161.832581 26654.255859
2.960000 -7.040000 5.000000 78.857010 -139.687744 25731.093750
2.960000 -7.040000 5.040000 127.580757 -55.045559 19306.863281
2.960000 -7.040000 5.080000 98.883423 27.731915 10546.990234
2.960000 -7.040000 5.120000 28.421341 52.728626 3588.080811
2.960000 -7.040000 5.160000 -22.166821 17.215843 787.753174
2.960000 -7.040000 5.200000 -19.354343 -33.966236 1528.295776
2.960000 -7.000000 4.800000 -38.064758 39.936394 3043.841309
2.960000 -7.000000 4.840000 -99.639709 -3.099253 9937.676758
2.960000 -7.000000 4.880000 -109.234512 -97.660103 21469.675781
2.960000 -7.000000 4.920000 -35.424690 -180.213257 33731.726562
2.960000 -7.000000 4.960000 84.302345 -182.960571 40581.457031
2.960000 -7.000000 5.000000 168.808044 -96.720924 37851.093750
2.960000 -7.000000 5.040000 162.429886 16.800051 26665.710938
2.960000 -7.000000 5.080000 82.922562 77.751740 12921.484375
2.960000 -7.000000 5.120000 2.523287 56.411781 3188.656006
2.960000 -7.000000 5.160000 -18.187616 -7.084486 380.979340
2.960000 -7.000000 5.200000 20.307892 -46.555580 2579.832520
2.960000 -6.960000 4.800000 -47.156681 9.207281 2308.526611
2.960000 -6.960000 4.840000 -79.924942 -60.942856 10102.028320
2.960000 -6.960000 4.880000 -37.595734 -149.444000 23746.949219
2.960000 -6.960000 4.920000 72.353317 -181.531799 38188.796875
2.960000 -6.960000 4.960000 178.657944 -118.224518 45895.695312
2.960000 -6.960000 5.000000 205.255707 2.863667 42138.105469
2.960000 -6.960000 5.040000 138.976166 97.115738 28745.841797
2.960000 -6.960000 5.080000 40.230812 106.680664 12999.282227
2.960000 -6.960000 5.120000 -13.390841 48.060654 2489.141113
2.960000 -6.960000 5.160000 4.718227 -10.335896 129.092407
2.960000 -6.960000 5.200000 54.670181 -14.968779 3212.893066
2.960000 -6.920000 4.800000 -36.587410 -11.670860 1474.847534
2.960000 -6.920000 4.840000 -30.893469 -83.280785 7890.095215
2.960000 -6.920000 4.880000 43.881393 -133.362549 19711.146484
2.960000 -6.920000 4.920000 144.813873 -106.719444 32360.097656
2.960000 -6.920000 4.960000 197.613800 -8.042305 39115.894531
2.960000 -6.920000 5.000000 162.593719 97.085625 35862.335938
2.960000 -6.920000 5.040000 70.742981 138.954407 24312.898438
2.960000 -6.920000 5.080000 -5.701441 104.199066 10889.952148
2.960000 -6.920000 5.120000 -18.973177 42.206642 2141.382080
2.960000 -6.920000 5.160000 16.071020 14.028870 455.086853
2.960000 -6.920000 5.200000 45.157265 36.366261 3361.683594
2.960000 -6.880000 4.800000 -22.697086 -17.462975 820.113159
2.960000 -6.880000 4.840000 9.802500 -66.249969 4485.147461
2.960000 -6.880000 4.880000 81.313293 -71.306030 11696.401367
2.960000 -6.880000 4.920000 139.474609 -13.755119 19642.369141
2.960000 -6.880000 4.960000 137.344208 72.536469 24124.970703
2.960000 -6.880000 5.000000 75.987289 129.398468 22518.031250
2.960000 -6.880000 5.040000 2.402412 125.595169 15779.917969
2.960000 -6.880000 5.080000 -34.554146 81.301529 7803.927734
2.960000 -6.880000 5.120000 -26.399950 43.761311 2612.009521
2.960000 -6.880000 5.160000 -5.450558 40.947266 1706.387207
2.960000 -6.880000 5.200000 -7.255318 59.461426 3588.300781
2.960000 -6.840000 4.800000 -14.807621 -16.388588 487.851440
2.960000 -6.840000 4.840000 20.406546 -35.107704 1648.978027
2.960000 -6.840000 4.880000 62.956787 -16.018845 4220.160645
2.960000 -6.840000 4.920000 78.666588 32.959568 7274.765137
2.960000 -6.840000 4.960000 54.550594 79.562103 9305.895508
2.960000 -6.840000 5.000000 8.613281 96.001854 9290.544922
2.960000 -6.840000 5.040000 -29.067253 81.378098 7467.299805
2.960000 -6.840000 5.080000 -43.598061 57.025146 5152.658203
2.960000 -6.840000 5.120000 -44.029427 42.435749 3739.383301
2.960000 -6.840000 5.160000 -47.766716 37.721180 3704.546631
2.960000 -6.840000 5.200000 -59.885735 28.898577 4421.429199
2.960000 -6.800000 4.800000 -10.267548 -16.290483 370.802368
2.960000 -6.800000 4.840000 8.764368 -16.908615 362.715424
2.960000 -6.800000 4.880000 22.418285 -2.350449 508.104126
2.960000 -6.800000 4.920000 22.693436 17.743053 829.807983
2.960000 -6.800000 4.960000 11.829643 33.632580 1271.090820
2.960000 -6.800000 5.000000 -4.107300 42.441597 1818.159058
2.960000 -6.800000 5.040000 -22.534657 45.368919 2566.149658
2.960000 -6.800000 5.080000 -43.681675 41.098000 3597.134277
2.960000 -6.800000 5.120000 -64.167641 25.331608 4759.176758
2.960000 -6.800000 5.160000 -74.843079 -2.251301 5606.554688
2.960000 -6.800000 5.200000 -67.672531 -32.675652 5647.269531
3.000000 -7.200000 4.800000 43.337898 -62.181164 5744.670410
3.000000 -7.200000 4.840000 57.414192 -33.759510 4436.093750
3.000000 -7.200000 4.880000 50.512966 -6.964335 2600.061768
3.000000 -7.200000 4.920000 32.163784 5.458345 1064.302612
3.000000 -7.200000 4.960000 15.890614 3.114697 262.212921
3.000000 -7.200000 5.000000 8.560877 -6.042816 109.804245
3.000000 -7.200000 5.040000 9.222172 -14.947281 308.469666
3.000000 -7.200000 5.080000 15.166656 -20.982809 670.305786
3.000000 -7.200000 5.120000 25.412840 -22.260281 1141.332520
3.000000 -7.200000 5.160000 37.239456 -14.802124 1605.880005
3.000000 -7.200000 5.200000 42.518127 3.010556 1816.854614
3.000000 -7.160000 4.800000 69.540039 -16.419178 5105.406250
3.000000 -7.160000 4.840000 60.898090 17.532656 4015.971436
3.000000 -7.160000 4.880000 31.877998 35.868660 2302.767578
3.000000 -7.160000 4.920000 0.826503 28.956280 839.149231
3.000000 -7.160000 4.960000 -13.865990 4.661163 213.992111
3.000000 -7.160000 5.000000 -6.898048 -19.332411 421.325165
3.000000 -7.160000 5.040000 13.015373 -29.249458 1024.930786
3.000000 -7.160000 5.080000 32.331593 -22.556246 1554.116089
3.000000 -7.160000 5.120000 41.631126 -5.365955 1761.944092
3.000000 -7.160000 5.160000 37.907196 13.771511 1626.610107
3.000000 -7.160000 5.200000 22.689106 27.058407 1246.952881
3.000000 -7.120000 4.800000 55.559059 35.122215 4320.378906
3.000000 -7.120000 4.840000 20.630589 60.757763 4117.126953
3.000000 -7.120000 4.880000 -26.590677 52.847206 3499.891113
3.000000 -7.120000 4.920000 -54.627026 11.449089 3115.193359
3.000000 -7.120000 4.960000 -43.581062 -37.197998 3283.000000
3.000000 -7.120000 5.000000 -2.021294 -61.078583 3734.678955
3.000000 -7.120000 5.040000 40.469681 -47.499794 3894.025391
3.000000 -7.120000 5.080000 57.281757 -10.757990 3396.934082
3.000000 -7.120000 5.120000 43.354923 22.181324 2371.660645
3.000000 -7.120000 5.160000 14.182187 32.873905 1281.828003
3.000000 -7.120000 5.200000 -9.828127 21.278046 549.347290
3.000000 -7.080000 4.800000 10.585766 60.856560 3815.579102
3.000000 -7.080000 4.840000 -44.370705 60.734188 5657.400879
3.000000 -7.080000 4.880000 -88.905937 12.350853 8056.809082
3.000000 -7.080000 4.920000 -83.524323 -60.703156 10661.185547
3.000000 -7.080000 4.960000 -23.915100 -108.992706 12451.341797
3.000000 -7.080000 5.000000 51.296585 -98.404488 12314.783203
3.000000 -7.080000 5.040000 91.551918 -39.500633 9942.053711
3.000000 -7.080000 5.080000 75.742424 22.344795 6236.205078
3.000000 -7.080000 5.120000 26.291706 45.850300 2793.503906
3.000000 -7.080000 5.160000 -14.400467 25.315275 848.236572
3.000000 -7.080000 5.200000 -20.355873 -11.739316 552.173096
3.000000 -7.040000 4.800000 -35.741947 48.136036 3594.564697
3.000000 -7.040000 4.840000 -91.015640 10.658222 8397.444336
3.000000 -7.040000 4.880000 -101.911774 -71.956924 15563.808594
3.000000 -7.040000 4.920000 -40.840557 -145.677734 22889.953125
3.000000 -7.040000 4.960000 61.250420 -152.174850 26908.798828
3.000000 -7.040000 5.000000 135.754028 -82.132133 25174.843750
3.000000 -7.040000 5.040000 134.278046 13.777584 18220.416016
3.000000 -7.040000 5.080000 69.311844 68.127029 9445.423828
3.000000 -7.040000 5.120000 -0.141830 53.502285 2862.514404
3.000000 -7.040000 5.160000 -22.250181 0.232231 495.124481
3.000000 -7.040000 5.200000 6.347682 -37.650032 1457.817993
3.000000 -7.000000 4.800000 -56.551926 11.275103 3325.248291
3.000000 -7.000000 4.840000 -86.294312 -57.841553 10792.353516
3.000000 -7.000000 4.880000 -44.338417 -143.766235 22634.625000
3.000000 -7.000000 4.920000 62.393742 -175.379150 34650.824219
3.000000 -7.000000 4.960000 165.929535 -115.031197 40764.789062
3.000000 -7.000000 5.000000 192.885620 1.813765 37208.152344
3.000000 -7.000000 5.040000 129.438721 93.806183 25553.982422
3.000000 -7.000000 5.080000 32.833565 103.922462 11877.920898
3.000000 -7.000000 5.120000 -21.427549 46.071236 2581.698730
3.000000 -7.000000 5.160000 -5.148506 -14.486980 236.379715
3.000000 -7.000000 5.200000 45.687710 -24.164249 2671.277832
3.000000 -6.960000 4.800000 -47.007877 -22.459585 2714.173340
3.000000 -6.960000 4.840000 -35.682827 -98.998779 11074.023438
3.000000 -6.960000 4.880000 48.538071 -150.432983 24986.027344
3.000000 -6.960000 4.920000 159.138245 -117.919403 39229.964844
3.000000 -6.960000 4.960000 215.253326 -7.160124 46385.261719
3.000000 -6.960000 5.000000 173.451019 109.280701 42027.527344
3.000000 -6.960000 5.040000 68.392075 153.608292 28272.984375
3.000000 -6.960000 5.080000 -18.433880 110.328468 12512.178711
3.000000 -6.960000 5.120000 -31.748875 35.063362 2237.430420
3.000000 -6.960000 5.160000 13.153648 -1.434237 175.075500
3.000000 -6.960000 5.200000 54.283043 22.802462 3466.601074
3.000000 -6.920000 4.800000 -23.601898 -35.417393 1811.441406
3.000000 -6.920000 4.840000 21.902763 -90.727783 8711.261719
3.000000 -6.920000 4.880000 112.624405 -90.113472 20804.695312
3.000000 -6.920000 4.920000 182.660446 -11.077976 33487.562500
3.000000 -6.920000 4.960000 172.547195 101.629417 40101.074219
3.000000 -6.920000 5.000000 85.248352 171.301300 36611.417969
3.000000 -6.920000 5.040000 -14.847332 156.765442 24795.847656
3.000000 -6.920000 5.080000 -60.079876 86.826385 11148.413086
3.000000 -6.920000 5.120000 -38.133423 29.043182 2297.664551
3.000000 -6.920000 5.160000 4.625555 25.673555 680.527222
3.000000 -6.920000 5.200000 14.037664 59.899651 3785.023926
3.000000 -6.880000 4.800000 -6.250862 -30.401096 963.299988
3.000000 -6.880000 4.840000 48.507442 -50.617050 4915.057617
3.000000 -6.880000 4.880000 110.536407 -12.835335 12383.043945
3.000000 -6.880000 4.920000 125.690620 69.354752 20608.212891
3.000000 -6.880000 4.960000 73.827072 141.045929 25344.390625
3.000000 -6.880000 5.000000 -10.988007 153.941284 23818.656250
3.000000 -6.880000 5.040000 -71.268440 108.703827 16895.712891
3.000000 -6.880000 5.080000 -77.519104 50.474422 8556.878906
3.000000 -6.880000 5.120000 -50.018463 23.863125 3071.295410
3.000000 -6.880000 5.160000 -32.191467 33.371319 2149.935547
3.000000 -6.880000 5.200000 -45.771324 46.765503 4282.026367
3.000000 -6.840000 4.800000 -1.448515 -21.966064 484.606201
3.000000 -6.840000 4.840000 37.931900 -15.850403 1690.064209
3.000000 -6.840000 4.880000 61.204586 25.901016 4416.864258
3.000000 -6.840000 4.920000 43.950104 76.614075 7801.328125
3.000000 -6.840000 4.960000 -5.620827 100.904022 10213.215820
3.000000 -6.840000 5.000000 -55.007034 85.887703 10402.471680
3.000000 -6.840000 5.040000 -77.674835 49.575657 8491.125977
3.000000 -6.840000 5.080000 -74.346519 19.957106 5925.690918
3.000000 -6.840000 5.120000 -65.637733 8.068093 4373.406250
3.000000 -6.840000 5.160000 -66.907936 2.312012 4482.017090
3.000000 -6.840000 5.200000 -73.150375 -13.255745 5526.692383
3.000000 -6.800000 4.800000 -1.620651 -19.530115 384.051880
3.000000 -6.800000 4.840000 14.538280 -8.378330 281.558014
3.000000 -6.800000 4.880000 16.129356 12.868607 425.757141
3.000000 -6.800000 4.920000 1.780380 29.581383 878.227966
3.000000 -6.800000 4.960000 -18.974060 33.708454 1496.274902
3.000000 -6.800000 5.000000 -37.133984 27.754936 2149.269287
3.000000 -6.800000 5.040000 -51.375496 17.062256 2930.562256
3.000000 -6.800000 5.080000 -63.702652 1.644924 4060.733643
3.000000 -6.800000 5.120000 -71.042076 -21.766975 5520.777832
3.000000 -6.800000 5.160000 -65.105263 -50.715557 6810.762695
3.000000 -6.800000 5.200000 -42.019474 -73.634689 7187.703613
3.040000 -7.200000 4.800000 61.290054 -21.787392 4231.161133
3.040000 -7.200000 4.840000 57.854115 8.526414 3419.798340
3.040000 -7.200000 4.880000 36.743526 25.909452 2021.386475
3.040000 -7.200000 4.920000 14.094759 23.848896 767.432068
3.040000 -7.200000 4.960000 2.801928 10.169123 111.261856
3.040000 -7.200000 5.000000 4.100048 -3.112673 26.499126
3.040000 -7.200000 5.040000 11.782009 -10.016523 239.146484
3.040000 -7.200000 5.080000 20.940022 -10.876963 556.792847
3.040000 -7.200000 5.120000 30.039986 -6.130019 939.977905
3.040000 -7.200000 5.160000 36.005806 5.722281 1329.162598
3.040000 -7.200000 5.200000 31.999599 22.618591 1535.575073
3.040000 -7.160000 4.800000 58.263931 21.933083 3875.745850
3.040000 -7.160000 4.840000 35.717266 46.472462 3435.412842
3.040000 -7.160000 4.880000 2.395672 47.433132 2255.641357
3.040000 -7.160000 4.920000 -20.043503 25.373131 1045.537842
3.040000 -7.160000 4.960000 -19.500742 -3.022003 389.411438
3.040000 -7.160000 5.000000 -1.053875 -19.743975 390.935181
3.040000 -7.160000 5.040000 20.512363 -18.294613 755.449951
3.040000 -7.160000 5.080000 33.246498 -4.186014 1122.852295
3.040000 -7.160000 5.120000 33.588310 13.151114 1301.126343
3.040000 -7.160000 5.160000 23.506859 26.607368 1260.524414
3.040000 -7.160000 5.200000 6.772773 31.468788 1036.155029
3.040000 -7.120000 4.800000 24.568443 51.821007 3289.025146
3.040000 -7.120000 4.840000 -14.368781 58.592537 3639.547363
3.040000 -7.120000 4.880000 -49.238022 31.540758 3419.202148
3.040000 -7.120000 4.920000 -53.227932 -14.545307 3044.778564
3.040000 -7.120000 4.960000 -22.377155 -48.596413 2862.348389
3.040000 -7.120000 5.000000 21.171150 -49.096649 2858.698486
3.040000 -7.120000 5.040000 48.376511 -20.290649 2751.997314
3.040000 -7.120000 5.080000 45.941143 14.442226 2319.166504
3.040000 -7.120000 5.120000 22.727791 33.069862 1610.168335
3.040000 -7.120000 5.160000 -2.015911 29.629332 881.961182
3.040000 -7.120000 5.200000 -14.468109 12.922997 376.330017
3.040000 -7.080000 4.800000 -19.659916 49.359459 2822.868408
3.040000 -7.080000 4.840000 -62.551155 27.307404 4658.341309
3.040000 -7.080000 4.880000 -76.650970 -29.110325 6722.782227
3.040000 -7.080000 4.920000 -40.840427 -83.219589 8593.440430
3.040000 -7.080000 4.960000 25.911877 -94.341118 9571.671875
3.040000 -7.080000 5.000000 78.463394 -53.818848 9052.972656
3.040000 -7.080000 5.040000 83.519302 7.400974 7030.248047
3.040000 -7.080000 5.080000 46.058441 46.152138 4251.399414
3.040000 -7.080000 5.120000 1.065937 42.591492 1815.171387
3.040000 -7.080000 5.160000 -18.668941 11.790326 487.541199
3.040000 -7.080000 5.200000 -7.395903 -15.343054 290.108673
3.040000 -7.040000 4.800000 -47.306572 18.290905 2572.468994
3.040000 -7.040000 4.840000 -73.291489 -32.688133 6440.156250
3.040000 -7.040000 4.880000 -45.902195 -99.321030 11971.678711
3.040000 -7.040000 4.920000 32.085735 -127.819954 17367.435547
3.040000 -7.040000 4.960000 111.173645 -87.849838 20077.173828
3.040000 -7.040000 5.000000 135.843506 -3.246582 18464.000000
3.040000 -7.040000 5.040000 93.110764 66.677620 13115.519531
3.040000 -7.040000 5.080000 22.577286 78.170181 6620.311035
3.040000 -7.040000 5.120000 -20.561275 38.068432 1871.971436
3.040000 -7.040000 5.160000 -12.923172 -8.290980 235.748734
3.040000 -7.040000 5.200000 23.134825 -21.014509 976.829712
3.040000 -7.000000 4.800000 -44.747730 -18.648903 2350.140869
3.040000 -7.000000 4.840000 -36.424976 -81.783234 8015.275879
3.040000 -7.000000 4.880000 32.460129 -125.961868 16920.052734
3.040000 -7.000000 4.920000 124.998169 -101.232193 25872.500000
3.040000 -7.000000 4.960000 173.925568 -10.292347 30356.035156
3.040000 -7.000000 5.000000 141.256973 87.557571 27619.861328
3.040000 -7.000000 5.040000 53.827972 126.455811 18888.523438
3.040000 -7.000000 5.080000 -20.650524 90.966461 8701.341797
3.040000 -7.000000 5.120000 -33.853455 25.749098 1809.072510
3.040000 -7.000000 5.160000 4.454098 -9.185669 104.215500
3.040000 -7.000000 5.200000 43.544952 7.833639 1957.528687
3.040000 -6.960000 4.800000 -21.013721 -38.415642 1917.337891
3.040000 -6.960000 4.840000 21.693327 -87.584999 8141.732422
3.040000 -6.960000 4.880000 105.906769 -85.706848 18561.908203
3.040000 -6.960000 4.920000 170.939575 -10.843529 29337.919922
3.040000 -6.960000 4.960000 160.367737 95.858337 34906.632812
3.040000 -6.960000 5.000000 75.920303 161.496445 31844.994141
3.040000 -6.960000 5.040000 -21.177176 145.457657 21606.402344
3.040000 -6.960000 5.080000 -64.510826 74.335602 9687.427734
3.040000 -6.960000 5.120000 -39.982552 14.252693 1801.743652
3.040000 -6.960000 5.160000 8.114084 9.145887 149.485626
3.040000 -6.960000 5.200000 24.653719 45.441200 2672.708496
3.040000 -6.920000 4.800000 2.332653 -35.344460 1254.672119
3.040000 -6.920000 4.840000 60.100487 -52.471054 6365.280273
3.040000 -6.920000 4.880000 124.191330 -8.638697 15498.113281
3.040000 -6.920000 4.920000 136.480621 81.856186 25327.396484
3.040000 -6.920000 4.960000 74.837257 158.677856 30779.277344
3.040000 -6.920000 5.000000 -22.327847 167.509186 28557.861328
3.040000 -6.920000 5.040000 -88.625381 109.033600 19742.785156
3.040000 -6.920000 5.080000 -88.657661 36.521378 9193.992188
3.040000 -6.920000 5.120000 -45.943142 4.911028 2134.890381
3.040000 -6.920000 5.160000 -14.497318 22.352179 709.792114
3.040000 -6.920000 5.200000 -25.238626 50.229523 3159.993164
3.040000 -6.880000 4.800000 10.779951 -22.244841 611.040283
3.040000 -6.880000 4.840000 58.488171 -9.575081 3512.548340
3.040000 -6.880000 4.880000 83.474670 47.927856 9265.099609
3.040000 -6.880000 4.920000 53.011086 114.424973 15903.250000
3.040000 -6.880000 4.960000 -20.787785 140.172089 20080.347656
3.040000 -6.880000 5.000000 -89.306267 106.749054 19370.968750
3.040000 -6.880000 5.040000 -110.924454 43.204166 14170.833984
3.040000 -6.880000 5.080000 -86.749489 -2.792530 7533.271973
3.040000 -6.880000 5.120000 -54.029179 -9.052025 3001.091309
3.040000 -6.880000 5.160000 -46.492813 5.552498 2192.412109
3.040000 -6.880000 5.200000 -63.163048 6.527803 4032.182861
3.040000 -6.840000 4.800000 7.395660 -15.170712 284.846313
3.040000 -6.840000 4.840000 31.927109 8.860977 1097.857178
3.040000 -6.840000 4.880000 26.699265 50.668617 3280.159668
3.040000 -6.840000 4.920000 -12.867119 77.956070 6242.711914
3.040000 -6.840000 4.960000 -62.166016 68.660156 8578.831055
3.040000 -6.840000 5.000000 -90.129913 30.538647 9056.010742
3.040000 -6.840000 5.040000 -86.873116 -8.589420 7620.716309
3.040000 -6.840000 5.080000 -68.497238 -28.471588 5502.502930
3.040000 -6.840000 5.120000 -56.412315 -32.799305 4258.143555
3.040000 -6.840000 5.160000 -54.955170 -39.123104 4550.687988
3.040000 -6.840000 5.200000 -50.635887 -56.112110 5712.562012
3.040000 -6.800000 4.800000 5.363102 -17.775705 344.738586
3.040000 -6.800000 4.840000 11.856640 -0.747158 141.138153
3.040000 -6.800000 4.880000 0.830776 16.106644 260.114166
3.040000 -6.800000 4.920000 -20.178127 19.484550 786.804565
3.040000 -6.800000 4.960000 -37.710091 8.656937 1496.993408
3.040000 -6.800000 5.000000 -45.713326 -7.518448 2146.235107
3.040000 -6.800000 5.040000 -47.885033 -22.740734 2810.117188
3.040000 -6.800000 5.080000 -48.054779 -39.116074 3839.329102
3.040000 -6.800000 5.120000 -42.156670 -60.069805 5385.566406
3.040000 -6.800000 5.160000 -22.833336 -80.387756 6983.552734
3.040000 -6.800000 5.200000 8.640215 -87.447441 7721.708496
3.080000 -7.200000 4.800000 46.000690 18.289986 2450.587158
3.080000 -7.200000 4.840000 28.719624 38.260494 2288.682129
3.080000 -7.200000 4.880000 4.068025 39.333771 1563.694336
3.080000 -7.200000 4.920000 -11.519227 24.490887 732.496094
3.080000 -7.200000 4.960000 -11.883367 6.948645 189.498062
3.080000 -7.200000 5.000000 -2.896156 -3.048335 17.680065
3.080000 -7.200000 5.040000 6.935462 -4.734620 70.517258
3.080000 -7.200000 5.080000 14.457330 -1.963033 212.867889
3.080000 -7.200000 5.120000 20.141865 4.080241 422.343079
3.080000 -7.200000 5.160000 21.780588 14.423785 682.439575
3.080000 -7.200000 5.200000 14.354624 25.794245 871.398315
3.080000 -7.160000 4.800000 25.106079 40.941784 2306.544922
3.080000 -7.160000 4.840000 -1.487469 50.073746 2509.592773
3.080000 -7.160000 4.880000 -26.757210 36.229858 2028.551025
3.080000 -7.160000 4.920000 -33.752563 9.432479 1228.207275
3.080000 -7.160000 4.960000 -20.761875 -12.025283 575.662842
3.080000 -7.160000 5.000000 0.148855 -17.215054 296.380219
3.080000 -7.160000 5.040000 15.621678 -8.481432 315.971527
3.080000 -7.160000 5.080000 20.500128 5.108208 446.349030
3.080000 -7.160000 5.120000 16.835251 16.725296 563.161194
3.080000 -7.160000 5.160000 7.806387 23.698776 622.571716
3.080000 -7.160000 5.200000 -4.243794 23.998074 593.917297
3.080000 -7.120000 4.800000 -6.438332 43.333824 1919.272461
3.080000 -7.120000 4.840000 -36.797222 35.307549 2600.658447
3.080000 -7.120000 4.880000 -52.083946 3.393518 2724.253418
3.080000 -7.120000 4.920000 -37.972496 -30.984852 2401.971436
3.080000 -7.120000 4.960000 -3.753706 -43.886600 1940.124023
3.080000 -7.120000 5.000000 26.716743 -29.046032 1557.456299
3.080000 -7.120000 5.040000 35.643333 -0.716648 1270.960815
3.080000 -7.120000 5.080000 23.595867 20.923689 994.565674
3.080000 -7.120000 5.120000 4.391082 25.842075 687.094482
3.080000 -7.120000 5.160000 -8.800066 17.750477 392.520599
3.080000 -7.120000 5.200000 -11.793020 6.027317 175.403885
3.080000 -7.080000 4.800000 -30.339340 23.692442 1481.807373
3.080000 -7.080000 4.840000 -52.726559 -4.194276 2797.682129
3.080000 -7.080000 4.880000 -43.574089 -46.700043 4079.595215
3.080000 -7.080000 4.920000 -1.163921 -70.522636 4974.796875
3.080000 -7.080000 4.960000 46.829453 -54.783092 5194.184570
3.080000 -7.080000 5.000000 67.204201 -10.268654 4621.850098
3.080000 -7.080000 5.040000 49.753822 30.624990 3413.333008
3.080000 -7.080000 5.080000 13.664043 42.364494 1981.456421
3.080000 -7.080000 5.120000 -12.047160 25.735752 807.463013
3.080000 -7.080000 5.160000 -13.351320 2.076226 182.568466
3.080000 -7.080000 5.200000 1.403687 -8.485661 73.976768
3.080000 -7.040000 4.800000 -33.232689 -4.872831 1128.156128
3.080000 -7.040000 4.840000 -34.212059 -45.057663 3200.657959
3.080000 -7.040000 4.880000 5.167251 -78.112358 6128.241211
3.080000 -7.040000 4.920000 64.325478 -69.197983 8926.127930
3.080000 -7.040000 4.960000 100.168991 -16.073929 10292.198242
3.080000 -7.040000 5.000000 85.591400 45.895851 9432.316406
3.080000 -7.040000 5.040000 34.038074 74.304947 6679.815430
3.080000 -7.040000 5.080000 -13.457314 56.356411 3357.144531
3.080000 -7.040000 5.120000 -25.252026 16.966316 925.520691
3.080000 -7.040000 5.160000 -4.250013 -7.243883 70.536453
3.080000 -7.040000 5.200000 20.593960 -0.795551 424.744080
3.080000 -7.000000 4.800000 -16.995657 -23.985510 864.157043
3.080000 -7.000000 4.840000 8.213601 -59.176472 3569.317871
3.080000 -7.000000 4.880000 65.120346 -62.072598 8093.666992
3.080000 -7.000000 4.920000 112.619797 -13.724626 12871.583984
3.080000 -7.000000 4.960000 109.168755 60.033348 15521.820312
3.080000 -7.000000 5.000000 52.598747 108.102020 14452.674805
3.080000 -7.000000 5.040000 -15.895679 99.309860 10115.121094
3.080000 -7.000000 5.080000 -48.416058 49.525665 4796.906250
3.080000 -7.000000 5.120000 -32.050735 4.812659 1050.411377
3.080000 -7.000000 5.160000 3.984119 -1.593416 18.412182
3.080000 -7.000000 5.200000 19.962770 23.699039 960.156677
3.080000 -6.960000 4.800000 3.249112 -24.553288 613.420654
3.080000 -6.960000 4.840000 44.659412 -38.284447 3460.162109
3.080000 -6.960000 4.880000 93.296913 -6.430794 8745.669922
3.080000 -6.960000 4.920000 103.618324 62.709633 14669.254883
3.080000 -6.960000 4.960000 55.964188 122.876938 18230.732422
3.080000 -6.960000 5.000000 -21.152069 129.744598 17281.070312
3.080000 -6.960000 5.040000 -74.462326 81.647682 12210.982422
3.080000 -6.960000 5.080000 -73.272850 20.680614 5796.598633
3.080000 -6.960000 5.120000 -34.751877 -6.841862 1254.504028
3.080000 -6.960000 5.160000 -3.639534 8.656249 88.176857
3.080000 -6.960000 5.200000 -8.551757 36.657928 1416.936279
3.080000 -6.920000 4.800000 12.623448 -13.362098 337.897095
3.080000 -6.920000 4.840000 51.339973 -1.980091 2639.713623
3.080000 -6.920000 4.880000 71.178909 47.999786 7370.416504
3.080000 -6.920000 4.920000 42.091007 105.941956 12995.351562
3.080000 -6.920000 4.960000 -26.108793 126.516083 16687.988281
3.080000 -6.920000 5.000000 -88.606201 91.667633 16254.013672
3.080000 -6.920000 5.040000 -105.091675 28.295134 11844.874023
3.080000 -6.920000 5.080000 -75.358063 -16.726509 5958.613281
3.080000 -6.920000 5.120000 -36.177898 -19.306404 1681.577637
3.080000 -6.920000 5.160000 -24.002392 3.343851 587.296143
3.080000 -6.920000 5.200000 -41.729919 14.690028 1957.183105
3.080000 -6.880000 4.800000 9.335988 -5.157378 113.759224
3.080000 -6.880000 4.840000 31.209261 20.308952 1386.471436
3.080000 -6.880000 4.880000 21.803144 63.414841 4496.819336
3.080000 -6.880000 4.920000 -24.414574 89.130920 8540.392578
3.080000 -6.880000 4.960000 -79.553551 72.146591 11533.898438
3.080000 -6.880000 5.000000 -106.267639 21.671354 11762.458984
3.080000 -6.880000 5.040000 -91.624680 -26.899601 9118.670898
3.080000 -6.880000 5.080000 -56.836437 -45.129246 5267.029297
3.080000 -6.880000 5.120000 -34.052975 -35.855255 2445.204590
3.080000 -6.880000 5.160000 -35.160042 -25.280476 1875.330933
3.080000 -6.880000 5.200000 -44.087109 -33.520973 3067.328613
3.080000 -6.840000 4.800000 4.468443 -7.664644 78.713753
3.080000 -6.840000 4.840000 8.977369 16.324284 347.075409
3.080000 -6.840000 4.880000 -12.568115 38.330502 1627.184814
3.080000 -6.840000 4.920000 -48.616852 35.912445 3653.302246
3.080000 -6.840000 4.960000 -73.599472 6.620937 5460.719238
3.080000 -6.840000 5.000000 -71.967819 -30.037125 6081.596191
3.080000 -6.840000 5.040000 -51.185944 -52.305893 5355.907227
3.080000 -6.840000 5.080000 -30.976831 -56.107685 4107.636230
3.080000 -6.840000 5.120000 -21.893032 -54.676384 3468.812012
3.080000 -6.840000 5.160000 -16.783258 -60.395401 3929.282227
3.080000 -6.840000 5.200000 -2.808262 -70.344765 4956.271973
3.080000 -6.800000 4.800000 8.982311 -14.482683 290.430023
3.080000 -6.800000 4.840000 5.697302 -0.003967 32.459263
3.080000 -6.800000 4.880000 -9.915184 5.189629 125.243118
3.080000 -6.800000 4.920000 -24.828312 -4.536644 637.026184
3.080000 -6.800000 4.960000 -28.756264 -21.534172 1290.643311
3.080000 -6.800000 5.000000 -23.320887 -35.290955 1789.315186
3.080000 -6.800000 5.040000 -16.381615 -44.082146 2211.592773
3.080000 -6.800000 5.080000 -9.813320 -53.844177 2995.496582
3.080000 -6.800000 5.120000 3.267115 -66.407768 4420.665527
3.080000 -6.800000 5.160000 27.851118 -72.943481 6096.436035
3.080000 -6.800000 5.200000 56.432499 -62.283226 7063.827148
3.120000 -7.200000 4.800000 9.508406 32.144478 1123.677246
3.120000 -7.200000 4.840000 -9.673355 36.700951 1440.533569
3.120000 -7.200000 4.880000 -25.816088 25.491009 1316.261963
3.120000 -7.200000 4.920000 -28.893143 7.639714 893.178955
3.120000 -7.200000 4.960000 -20.675932 -5.176171 454.286926
3.120000 -7.200000 5.000000 -9.811138 -9.033842 177.868744
3.120000 -7.200000 5.040000 -1.862491 -7.782826 64.041252
3.120000 -7.200000 5.080000 3.936846 -5.248410 43.044563
3.120000 -7.200000 5.120000 9.198207 -0.558455 84.918884
3.120000 -7.200000 5.160000 11.093622 7.874388 185.074432
3.120000 -7.200000 5.200000 5.368920 16.197960 291.199188
3.120000 -7.160000 4.800000 -7.714919 30.443336 986.316711
3.120000 -7.160000 4.840000 -27.467813 27.651014 1519.059326
3.120000 -7.160000 4.880000 -38.887062 9.712546 1606.537109
3.120000 -7.160000 4.920000 -33.909878 -10.682744 1264.000732
3.120000 -7.160000 4.960000 -17.873316 -21.011274 760.929077
3.120000 -7.160000 5.000000 -2.106431 -18.850586 359.781647
3.120000 -7.160000 5.040000 6.689525 -10.287147 150.575134
3.120000 -7.160000 5.080000 9.195008 -1.460311 86.680687
3.120000 -7.160000 5.120000 8.115819 6.031188 102.241745
3.120000 -7.160000 5.160000 3.683255 12.105831 160.117508
3.120000 -7.160000 5.200000 -4.220269 14.192410 219.235153
3.120000 -7.120000 4.800000 -19.227049 18.752048 721.318726
3.120000 -7.120000 4.840000 -36.430298 7.255055 1379.802490
3.120000 -7.120000 4.880000 -38.029148 -16.257421 1710.519775
3.120000 -7.120000 4.920000 -20.576782 -33.952072 1576.147095
3.120000 -7.120000 4.960000 3.562617 -33.603180 1141.865967
3.120000 -7.120000 5.000000 18.658533 -18.182209 678.733582
3.120000 -7.120000 5.040000 18.879570 -0.481696 356.670197
3.120000 -7.120000 5.080000 10.052219 9.415411 189.697083
3.120000 -7.120000 5.120000 1.092219 10.680596 115.268082
3.120000 -7.120000 5.160000 -4.002549 8.029946 80.500435
3.120000 -7.120000 5.200000 -6.184549 4.880680 62.069683
3.120000 -7.080000 4.800000 -19.989418 4.080546 416.227692
3.120000 -7.080000 4.840000 -28.899818 -15.087687 1062.837769
3.120000 -7.080000 4.880000 -15.900006 -37.159115 1633.609985
3.120000 -7.080000 4.920000 12.440916 -41.540237 1880.367676
3.120000 -7.080000 4.960000 35.173874 -22.696646 1752.339111
3.120000 -7.080000 5.000000 36.521820 5.297098 1361.902588
3.120000 -7.080000 5.040000 19.194904 22.646078 881.289185
3.120000 -7.080000 5.080000 -0.473001 21.324860 454.973358
3.120000 -7.080000 5.120000 -8.692213 9.421926 164.327240
3.120000 -7.080000 5.160000 -5.001503 0.465071 25.231323
3.120000 -7.080000 5.200000 1.243140 0.464158 1.760840
3.120000 -7.040000 4.800000 -11.831772 -5.084335 165.841293
3.120000 -7.040000 4.840000 -7.719368 -25.506048 710.147095
3.120000 -7.040000 4.880000 17.417370 -35.106316 1535.818115
3.120000 -7.040000 4.920000 44.722786 -18.655579 2348.158203
3.120000 -7.040000 4.960000 50.433983 15.435663 2781.846436
3.120000 -7.040000 5.000000 28.685085 42.226189 2605.885254
3.120000 -7.040000 5.040000 -3.120152 43.351154 1889.057983
3.120000 -7.040000 5.080000 -21.113428 23.051741 977.159607
3.120000 -7.040000 5.120000 -16.541519 2.132326 278.168671
3.120000 -7.040000 5.160000 -1.230608 -2.650486 8.539474
3.120000 -7.040000 5.200000 6.505917 7.265388 95.112808
3.120000 -7.000000 4.800000 -2.479607 -4.816253 29.344744
3.120000 -7.000000 4.840000 13.041638 -17.205414 466.110596
3.120000 -7.000000 4.880000 38.680290 -7.810931 1557.175415
3.120000 -7.000000 4.920000 49.072182 24.525379 3009.573242
3.120000 -7.000000 4.960000 29.081490 57.244713 4122.689941
3.120000 -7.000000 5.000000 -9.915979 64.351700 4239.467773
3.120000 -7.000000 5.040000 -39.566849 41.069668 3252.253174
3.120000 -7.000000 5.080000 -40.641609 8.107552 1717.472778
3.120000 -7.000000 5.120000 -19.784889 -8.371086 461.516907
3.120000 -7.000000 5.160000 -1.024695 -0.685837 1.520373
3.120000 -7.000000 5.200000 -1.809935 15.761181 251.690689
3.120000 -6.960000 4.800000 0.446456 0.925560 1.055984
3.120000 -6.960000 4.840000 18.909258 1.967909 361.432678
3.120000 -6.960000 4.880000 31.512733 25.492622 1642.926147
3.120000 -6.960000 4.920000 17.971626 57.048904 3577.556641
3.120000 -6.960000 4.960000 -19.726107 69.593597 5232.388184
3.120000 -6.960000 5.000000 -56.345482 49.465206 5621.620117
3.120000 -6.960000 5.040000 -66.002472 10.548948 4467.606445
3.120000 -6.960000 5.080000 -46.060604 -18.193577 2452.585449
3.120000 -6.960000 5.120000 -18.504263 -19.521351 723.490845
3.120000 -6.960000 5.160000 -7.983567 -2.421833 69.602623
3.120000 -6.960000 5.200000 -18.991001 9.177385 444.882507
3.120000 -6.920000 4.800000 -3.717861 3.559786 26.494568
3.120000 -6.920000 4.840000 8.303452 15.344963 304.415192
3.120000 -6.920000 4.880000 2.833470 39.540005 1571.440552
3.120000 -6.920000 4.920000 -26.147045 54.038494 3603.826904
3.120000 -6.920000 4.960000 -61.497475 40.653961 5434.684082
3.120000 -6.920000 5.000000 -77.279083 4.189288 5989.606934
3.120000 -6.920000 5.040000 -63.039703 -30.669275 4914.608398
3.120000 -6.920000 5.080000 -33.354584 -42.083115 2883.516602
3.120000 -6.920000 5.120000 -13.101338 -30.553833 1105.181763
3.120000 -6.920000 5.160000 -13.808208 -16.012009 447.051025
3.120000 -6.920000 5.200000 -24.812113 -16.691872 894.259521
3.120000 -6.880000 4.800000 -7.565659 -1.794925 60.460945
3.120000 -6.880000 4.840000 -5.597742 12.865710 196.861221
3.120000 -6.880000 4.880000 -22.414257 26.158852 1186.684448
3.120000 -6.880000 4.920000 -49.662067 20.194540 2874.140625
3.120000 -6.880000 4.960000 -66.341370 -7.397198 4455.895996
3.120000 -6.880000 5.000000 -58.755844 -39.706764 5028.876465
3.120000 -6.880000 5.040000 -33.566479 -56.338001 4300.678711
3.120000 -6.880000 5.080000 -10.408179 -52.300571 2843.679932
3.120000 -6.880000 5.120000 -2.340178 -40.613213 1654.909424
3.120000 -6.880000 5.160000 -4.718147 -37.017250 1392.537720
3.120000 -6.880000 5.200000 -3.031374 -43.920151 1938.168823
3.120000 -6.840000 4.800000 -2.700509 -10.552713 118.652504
3.120000 -6.840000 4.840000 -7.794995 0.749377 61.323517
3.120000 -6.840000 4.880000 -24.480560 1.585854 601.812805
3.120000 -6.840000 4.920000 -38.184151 -14.479414 1667.682861
3.120000 -6.840000 4.960000 -35.758774 -37.962044 2719.806641
3.120000 -6.840000 5.000000 -18.568085 -53.175575 3172.415527
3.120000 -6.840000 5.040000 0.234367 -53.968521 2912.656250
3.120000 -6.840000 5.080000 10.531804 -48.074486 2422.075195
3.120000 -6.840000 5.120000 15.047565 -46.050808 2347.106201
3.120000 -6.840000 5.160000 23.535618 -48.406483 2897.112793
3.120000 -6.840000 5.200000 39.186291 -45.851097 3637.888428
3.120000 -6.800000 4.800000 10.886494 -12.076010 264.345764
3.120000 -6.800000 4.840000 3.377230 -5.156325 37.993370
3.120000 -6.800000 4.880000 -6.790457 -10.058847 147.290710
3.120000 -6.800000 4.920000 -8.268487 -22.972286 596.093811
3.120000 -6.800000 4.960000 0.476904 -32.892128 1082.119507
3.120000 -6.800000 5.000000 11.117863 -34.662151 1325.071533
3.120000 -6.800000 5.040000 17.234642 -33.750633 1436.138184
3.120000 -6.800000 5.080000 22.831600 -36.973526 1888.323608
3.120000 -6.800000 5.120000 36.387375 -41.165192 3018.614014
3.120000 -6.800000 5.160000 57.478504 -34.849327 4518.253906
3.120000 -6.800000 5.200000 73.102859 -12.372904 5497.116699
3.160000 -7.200000 4.800000 -19.331669 14.065569 571.553650
3.160000 -7.200000 4.840000 -29.522909 9.406517 960.084717
3.160000 -7.200000 4.880000 -33.386414 -2.641416 1121.629639
3.160000 -7.200000 4.920000 -28.320278 -14.150047 1002.261963
3.160000 -7.200000 4.960000 -18.907520 -19.714573 746.158691
3.160000 -7.200000 5.000000 -10.488143 -20.351387 524.180115
3.160000 -7.200000 5.040000 -3.759999 -19.589293 397.877991
3.160000 -7.200000 5.080000 3.523271 -17.736261 326.988434
3.160000 -7.200000 5.120000 10.938896 -11.947524 262.402771
3.160000 -7.200000 5.160000 13.966854 -1.742869 198.110611
3.160000 -7.200000 5.200000 9.303674 7.715931 146.093933
3.160000 -7.160000 4.800000 -17.874336 2.185148 324.266754
3.160000 -7.160000 4.840000 -26.964746 -2.421297 732.960205
3.160000 -7.160000 4.880000 -28.995983 -14.192536 1042.195068
3.160000 -7.160000 4.920000 -21.767420 -24.601089 1079.034180
3.160000 -7.160000 4.960000 -10.285971 -28.158785 898.718384
3.160000 -7.160000 5.000000 -0.167959 -25.710045 661.034607
3.160000 -7.160000 5.040000 7.113640 -20.532057 472.169250
3.160000 -7.160000 5.080000 12.451130 -13.594892 339.851715
3.160000 -7.160000 5.120000 14.861296 -4.188870 238.404739
3.160000 -7.160000 5.160000 11.518433 5.901335 167.500046
3.160000 -7.160000 5.200000 2.391345 11.491401 137.770813
3.160000 -7.120000 4.800000 -9.492762 -2.271432 95.271927
3.160000 -7.120000 4.840000 -19.019264 -7.958838 425.075500
3.160000 -7.120000 4.880000 -19.096449 -20.235207 774.137939
3.160000 -7.120000 4.920000 -9.094173 -28.754179 909.506775
3.160000 -7.120000 4.960000 3.787915 -28.066475 802.075317
3.160000 -7.120000 5.000000 12.496977 -20.499062 576.385925
3.160000 -7.120000 5.040000 15.399561 -11.346622 365.892334
3.160000 -7.120000 5.080000 14.538931 -3.391981 222.886047
3.160000 -7.120000 5.120000 11.215352 3.337709 136.924423
3.160000 -7.120000 5.160000 5.030918 8.174208 92.127808
3.160000 -7.120000 5.200000 -3.138017 8.702394 85.578804
3.160000 -7.080000 4.800000 -3.075494 2.447318 15.448028
3.160000 -7.080000 4.840000 -12.071706 -6.116798 183.141296
3.160000 -7.080000 4.880000 -8.924356 -18.173653 409.925781
3.160000 -7.080000 4.920000 3.031152 -22.536240 517.070007
3.160000 -7.080000 4.960000 13.728525 -16.357946 456.054810
3.160000 -7.080000 5.000000 16.383705 -5.691687 300.821075
3.160000 -7.080000 5.040000 12.240740 2.029770 153.955673
3.160000 -7.080000 5.080000 6.736789 4.664412 67.141075
3.160000 -7.080000 5.120000 2.973377 4.909462 32.943787
3.160000 -7.080000 5.160000 -0.114551 5.148158 26.516649
3.160000 -7.080000 5.200000 -4.194504 4.451626 37.410839
3.160000 -7.040000 4.800000 -4.996342 10.501804 135.251328
3.160000 -7.040000 4.840000 -10.991789 -0.719825 121.337570
3.160000 -7.040000 4.880000 -4.746839 -10.217823 126.936386
3.160000 -7.040000 4.920000 5.763218 -9.369811 121.008041
3.160000 -7.040000 4.960000 10.095951 -0.505054 102.183311
3.160000 -7.040000 5.000000 5.441555 7.155941 80.818008
3.160000 -7.040000 5.040000 -2.189203 7.486228 60.836220
3.160000 -7.040000 5.080000 -5.596333 2.692914 38.570724
3.160000 -7.040000 5.120000 -3.839420 -0.734785 15.281057
3.160000 -7.040000 5.160000 -1.875133 0.167173 3.544069
3.160000 -7.040000 5.200000 -3.862185 2.042938 19.090069
3.160000 -7.000000 4.800000 -14.480974 13.528385 392.715820
3.160000 -7.000000 4.840000 -16.077267 2.056388 262.707245
3.160000 -7.000000 4.880000 -9.188499 -3.328541 95.507706
3.160000 -7.000000 4.920000 -3.701159 0.213766 13.744270
3.160000 -7.000000 4.960000 -6.076703 5.810053 70.683029
3.160000 -7.000000 5.000000 -13.197577 5.224086 201.467102
3.160000 -7.000000 5.040000 -16.690132 -2.244930 283.600220
3.160000 -7.000000 5.080000 -12.417085 -9.586915 246.092926
3.160000 -7.000000 5.120000 -4.754653 -10.159555 125.823296
3.160000 -7.000000 5.160000 -1.450806 -4.944448 26.552402
3.160000 -7.000000 5.200000 -5.019398 -1.256446 26.773016
3.160000 -6.960000 4.800000 -24.481623 6.924800 647.302734
3.160000 -6.960000 4.840000 -22.546091 -2.105832 512.760742
3.160000 -6.960000 4.880000 -17.905914 -4.432858 340.272003
3.160000 -6.960000 4.920000 -17.621655 -2.994668 319.490753
3.160000 -6.960000 4.960000 -21.705475 -4.902470 495.161835
3.160000 -6.960000 5.000000 -23.625235 -12.815960 722.400574
3.160000 -6.960000 5.040000 -18.106400 -21.661160 797.047546
3.160000 -6.960000 5.080000 -7.407018 -24.097284 635.543030
3.160000 -6.960000 5.120000 0.672297 -18.550346 344.567352
3.160000 -6.960000 5.160000 0.867156 -11.118679 124.376984
3.160000 -6.960000 5.200000 -4.113371 -9.393658 105.160629
3.160000 -6.920000 4.800000 -26.703159 -6.756420 758.707947
3.160000 -6.920000 4.840000 -23.523773 -12.022923 697.918579
3.160000 -6.920000 4.880000 -22.037411 -14.016014 682.096130
3.160000 -6.920000 4.920000 -23.175144 -17.747164 852.049072
3.160000 -6.920000 4.960000 -22.344881 -25.609467 1155.138428
3.160000 -6.920000 5.000000 -15.214781 -33.850769 1377.364014
3.160000 -6.920000 5.040000 -3.336155 -36.309372 1329.500366
3.160000 -6.920000 5.080000 6.794917 -31.121994 1014.749390
3.160000 -6.920000 5.120000 10.121399 -22.926353 628.060425
3.160000 -6.920000 5.160000 7.938843 -18.270660 396.842224
3.160000 -6.920000 5.200000 6.223461 -19.271345 410.116211
3.160000 -6.880000 4.800000 -17.434624 -19.129513 669.904358
3.160000 -6.880000 4.840000 -15.428852 -20.835545 672.169373
3.160000 -6.880000 4.880000 -15.831957 -24.500309 850.916016
3.160000 -6.880000 4.920000 -13.915003 -32.202793 1230.647217
3.160000 -6.880000 4.960000 -5.564618 -39.822197 1616.772339
3.160000 -6.880000 5.000000 7.135203 -41.260201 1753.315308
3.160000 -6.880000 5.040000 17.546089 -35.332279 1556.235229
3.160000 -6.880000 5.080000 21.435318 -27.162247 1197.260498
3.160000 -6.880000 5.120000 21.163490 -22.483034 953.380127
3.160000 -6.880000 5.160000 22.356087 -21.583902 965.659424
3.160000 -6.880000 5.200000 27.228434 -19.787861 1132.947021
3.160000 -6.840000 4.800000 -0.768715 -21.243198 451.864380
3.160000 -6.840000 4.840000 -1.939536 -20.760986 434.780365
3.160000 -6.840000 4.880000 -2.599052 -26.348808 701.014771
3.160000 -6.840000 4.920000 3.796025 -34.133598 1179.512329
3.160000 -6.840000 4.960000 16.295250 -36.105366 1569.132568
3.160000 -6.840000 5.000000 27.025795 -29.631136 1608.397827
3.160000 -6.840000 5.040000 30.339041 -20.687065 1348.412109
3.160000 -6.840000 5.080000 29.425091 -16.571579 1140.453125
3.160000 -6.840000 5.120000 32.115570 -16.840004 1314.995483
3.160000 -6.840000 5.160000 40.647675 -13.646032 1838.447632
3.160000 -6.840000 5.200000 47.903320 -1.644397 2297.432129
3.160000 -6.800000 4.800000 13.161728 -9.966712 272.566437
3.160000 -6.800000 4.840000 7.657423 -9.842196 155.504959
3.160000 -6.800000 4.880000 7.461051 -16.925526 342.140686
3.160000 -6.800000 4.920000 16.269760 -21.979893 747.820801
3.160000 -6.800000 4.960000 27.096600 -18.070456 1060.767090
3.160000 -6.800000 5.000000 31.128859 -9.028868 1050.526367
3.160000 -6.800000 5.040000 29.033844 -4.297114 861.429321
3.160000 -6.800000 5.080000 30.310263 -6.138903 956.398193
3.160000 -6.800000 5.120000 40.607273 -5.332798 1677.389404
3.160000 -6.800000 5.160000 52.356304 8.096488 2806.735840
3.160000 -6.800000 5.200000 51.385918 31.100368 3607.745361
3.200000 -7.200000 4.800000 -19.300133 -15.679005 618.326294
3.200000 -7.200000 4.840000 -19.476688 -17.871883 698.745605
3.200000 -7.200000 4.880000 -17.814545 -22.012730 801.918274
3.200000 -7.200000 4.920000 -13.658647 -25.888994 856.798706
3.200000 -7.200000 4.960000 -8.019167 -28.415001 871.719360
3.200000 -7.200000 5.000000 -1.290713 -29.756788 887.132385
3.200000 -7.200000 5.040000 7.163602 -29.236294 906.078064
3.200000 -7.200000 5.080000 16.728470 -24.560379 883.053955
3.200000 -7.200000 5.120000 23.870333 -14.303204 774.374390
3.200000 -7.200000 5.160000 24.230917 -1.007085 588.151550
3.200000 -7.200000 5.200000 17.048939 9.461252 380.181610
3.200000 -7.160000 4.800000 -1.479669 -18.847950 357.434631
3.200000 -7.160000 4.840000 -5.456287 -16.988352 318.375183
3.200000 -7.160000 4.880000 -7.858838 -20.535301 483.459961
3.200000 -7.160000 4.920000 -5.640152 -26.038544 709.817078
3.200000 -7.160000 4.960000 0.914133 -29.921051 896.104919
3.200000 -7.160000 5.000000 10.094772 -30.085945 1007.068542
3.200000 -7.160000 5.040000 19.832043 -25.251965 1030.971680
3.200000 -7.160000 5.080000 27.027582 -14.840002 950.715820
3.200000 -7.160000 5.120000 27.686794 -0.710700 767.063660
3.200000 -7.160000 5.160000 19.722008 11.810914 528.455261
3.200000 -7.160000 5.200000 6.131381 16.635633 314.338135
3.200000 -7.120000 4.800000 10.378065 -4.835093 131.082367
3.200000 -7.120000 4.840000 -0.715506 -4.103159 17.347860
3.200000 -7.120000 4.880000 -6.906888 -12.170793 195.833282
3.200000 -7.120000 4.920000 -4.112326 -22.140175 507.098572
3.200000 -7.120000 4.960000 5.685955 -27.364395 781.140198
3.200000 -7.120000 5.000000 17.372509 -24.886292 921.131592
3.200000 -7.120000 5.040000 25.879417 -15.411434 907.256592
3.200000 -7.120000 5.080000 27.589443 -2.076261 765.488220
3.200000 -7.120000 5.120000 21.069412 10.277274 549.542480
3.200000 -7.120000 5.160000 8.306729 16.313744 335.140015
3.200000 -7.120000 5.200000 -4.992779 13.015392 194.328278
3.200000 -7.080000 4.800000 4.263622 14.065198 216.008270
3.200000 -7.080000 4.840000 -11.727009 7.164381 188.851089
3.200000 -7.080000 4.880000 -16.795872 -8.756372 358.775391
3.200000 -7.080000 4.920000 -8.780760 -22.726254 593.584351
3.200000 -7.080000 4.960000 6.174069 -26.712017 751.651001
3.200000 -7.080000 5.000000 19.183559 -19.828526 761.179321
3.200000 -7.080000 5.040000 24.240005 -6.946732 635.834961
3.200000 -7.080000 5.080000 20.291489 5.356896 440.440857
3.200000 -7.080000 5.120000 10.210852 12.019377 248.726913
3.200000 -7.080000 5.160000 -1.092911 10.862409 119.186371
3.200000 -7.080000 5.200000 -8.504016 3.047022 81.602623
3.200000 -7.040000 4.800000 -16.634499 20.857464 711.740356
3.200000 -7.040000 4.840000 -30.534254 3.541765 944.884827
3.200000 -7.040000 4.880000 -28.066099 -18.370001 1125.162842
3.200000 -7.040000 4.920000 -11.812268 -31.824902 1152.354004
3.200000 -7.040000 4.960000 7.483143 -30.704659 998.773499
3.200000 -7.040000 5.000000 19.321413 -18.635647 720.604370
3.200000 -7.040000 5.040000 19.939512 -4.515019 417.969543
3.200000 -7.040000 5.080000 12.666363 4.262035 178.601700
3.200000 -7.040000 5.120000 3.678423 5.435462 43.075047
3.200000 -7.040000 5.160000 -2.275579 1.024619 6.228105
3.200000 -7.040000 5.200000 -3.323982 -5.424799 40.477306
3.200000 -7.000000 4.800000 -36.745354 8.176086 1417.069458
3.200000 -7.000000 4.840000 -41.364853 -15.980985 1966.442871
3.200000 -7.000000 4.880000 -28.288387 -37.363091 2196.233398
3.200000 -7.000000 4.920000 -5.311261 -44.533489 2011.441162
3.200000 -7.000000 4.960000 14.560286 -35.997890 1507.850098
3.200000 -7.000000 5.000000 22.573383 -19.844454 903.359985
3.200000 -7.000000 5.040000 19.145342 -6.497544 408.762207
3.200000 -7.000000 5.080000 11.195934 -1.282916 126.994820
3.200000 -7.000000 5.120000 5.496759 -2.635081 37.158020
3.200000 -7.000000 5.160000 4.312196 -5.847409 52.787220
3.200000 -7.000000 5.200000 6.061508 -7.684456 95.792740
3.200000 -6.960000 4.800000 -41.055916 -16.095539 1944.654663
3.200000 -6.960000 4.840000 -34.087734 -39.112907 2691.793213
3.200000 -6.960000 4.880000 -13.288431 -53.074589 2993.494141
3.200000 -6.960000 4.920000 10.963043 -51.110542 2732.475830
3.200000 -6.960000 4.960000 27.030674 -36.275223 2046.549194
3.200000 -6.960000 5.000000 29.923023 -18.560339 1239.873535
3.200000 -6.960000 5.040000 23.548672 -7.109299 605.082031
3.200000 -6.960000 5.080000 16.058693 -4.217011 275.664795
3.200000 -6.960000 5.120000 12.903593 -5.684241 198.813324
3.200000 -6.960000 5.160000 13.723338 -6.174191 226.450623
3.200000 -6.960000 5.200000 14.879457 -3.969396 237.154358
3.200000 -6.920000 4.800000 -26.614471 -35.796085 1989.689819
3.200000 -6.920000 4.840000 -12.403157 -50.526833 2706.799072
3.200000 -6.920000 4.880000 9.130859 -54.616264 3066.308838
3.200000 -6.920000 4.920000 29.056280 -45.572441 2921.114746
3.200000 -6.920000 4.960000 39.213818 -28.123623 2328.661621
3.200000 -6.920000 5.000000 37.551395 -11.286388 1537.489868
3.200000 -6.920000 5.040000 29.183964 -2.087672 856.062134
3.200000 -6.920000 5.080000 21.953598 -0.890898 482.754181
3.200000 -6.920000 5.120000 20.070133 -2.329298 408.235870
3.200000 -6.920000 5.160000 21.494072 -0.962584 462.921692
3.200000 -6.920000 5.200000 21.242115 3.721596 465.077728
3.200000 -6.880000 4.800000 -3.574964 -39.026764 1535.868652
3.200000 -6.880000 4.840000 9.820312 -43.941437 2027.288330
3.200000 -6.880000 4.880000 25.939957 -41.623703 2405.414062
3.200000 -6.880000 4.920000 39.586960 -30.574835 2501.947998
3.200000 -6.880000 4.960000 44.914696 -13.976246 2212.665283
3.200000 -6.880000 5.000000 40.207550 0.809532 1617.302490
3.200000 -6.880000 5.040000 30.421455 7.493848 981.622742
3.200000 -6.880000 5.080000 23.560600 6.445165 596.642029
3.200000 -6.880000 5.120000 23.412846 4.366375 567.226562
3.200000 -6.880000 5.160000 26.080502 7.457091 735.800781
3.200000 -6.880000 5.200000 24.493980 14.835780 820.055420
3.200000 -6.840000 4.800000 13.446074 -25.815823 847.253601
3.200000 -6.840000 4.840000 19.827589 -25.810612 1059.321045
3.200000 -6.840000 4.880000 29.361723 -23.487080 1413.753662
3.200000 -6.840000 4.920000 39.071602 -14.486301 1736.442993
3.200000 -6.840000 4.960000 42.105835 0.190919 1772.937866
3.200000 -6.840000 5.000000 35.518532 12.857998 1426.894287
3.200000 -6.840000 5.040000 25.056690 16.482986 899.526550
3.200000 -6.840000 5.080000 20.074888 12.814594 567.214966
3.200000 -6.840000 5.120000 23.260849 11.196657 666.432190
3.200000 -6.840000 5.160000 27.088036 18.130665 1062.482666
3.200000 -6.840000 5.200000 22.136892 29.182709 1341.672485
3.200000 -6.800000 4.800000 15.558327 -6.247075 281.087463
3.200000 -6.800000 4.840000 14.754925 -8.832478 295.720459
3.200000 -6.800000 4.880000 21.633677 -10.859011 585.934082
3.200000 -6.800000 4.920000 31.216375 -4.251233 992.535095
3.200000 -6.800000 4.960000 33.456192 9.482489 1209.234375
3.200000 -6.800000 5.000000 25.484459 20.020992 1050.297729
3.200000 -6.800000 5.040000 15.851861 20.294641 663.153931
3.200000 -6.800000 5.080000 14.726382 15.527359 457.965210
3.200000 -6.800000 5.120000 21.088501 17.598869 754.445068
3.200000 -6.800000 5.160000 22.745026 30.357592 1438.919556
3.200000 -6.800000 5.200000 10.498492 43.241161 1980.016357
