#kx 	ky 	kz 	real 	imag 	intensity
2.800000 2.800000 6.800000 -15.179744 -4.259063 248.564240
2.800000 2.800000 6.840000 -14.371599 -5.356522 235.235199
2.800000 2.800000 6.880000 -14.854554 -9.323236 307.580505
2.800000 2.800000 6.920000 -11.678972 -16.517666 409.231689
2.800000 2.800000 6.960000 -1.823962 -21.874386 481.815613
2.800000 2.800000 7.000000 11.468839 -19.307405 504.310181
2.800000 2.800000 7.040000 20.574036 -8.023983 487.675262
2.800000 2.800000 7.080000 20.213657 5.960534 444.119904
2.800000 2.800000 7.120000 12.178204 15.051810 374.865631
2.800000 2.800000 7.160000 3.042498 16.725424 288.996613
2.800000 2.800000 7.200000 -2.592810 14.558281 218.666199
2.800000 2.840000 6.800000 -11.123356 -13.671838 310.648193
2.800000 2.840000 6.840000 -10.455167 -11.623377 244.413406
2.800000 2.840000 6.880000 -11.207132 -14.089039 324.100830
2.800000 2.840000 6.920000 -7.322136 -19.123938 419.338654
2.800000 2.840000 6.960000 1.746327 -20.098484 406.998718
2.800000 2.840000 7.000000 9.797668 -13.468111 277.384338
2.800000 2.840000 7.040000 10.493313 -3.328532 121.188736
2.800000 2.840000 7.080000 4.488695 2.647939 27.159964
2.800000 2.840000 7.120000 -1.205387 1.565901 3.905004
2.800000 2.840000 7.160000 -1.190748 -1.590904 3.948858
2.800000 2.840000 7.200000 1.977246 -0.054525 3.912474
2.800000 2.880000 6.800000 -0.518637 -20.205147 408.516937
2.800000 2.880000 6.840000 -1.544712 -16.031939 259.409180
2.800000 2.880000 6.880000 -3.067735 -17.264347 307.468689
2.800000 2.880000 6.920000 -0.319274 -19.958374 398.438629
2.800000 2.880000 6.960000 4.739355 -18.956497 381.810272
2.800000 2.880000 7.000000 6.891643 -14.660860 262.435547
2.800000 2.880000 7.040000 5.110341 -12.277994 176.864731
2.800000 2.880000 7.080000 4.521730 -14.456321 229.431259
2.800000 2.880000 7.120000 9.896916 -16.516523 370.744476
2.800000 2.880000 7.160000 18.154486 -11.043087 451.535126
2.800000 2.880000 7.200000 19.605577 2.502428 390.640808
2.800000 2.920000 6.800000 14.136978 -18.314501 535.275085
2.800000 2.920000 6.840000 10.604231 -13.171761 285.944977
2.800000 2.920000 6.880000 7.409964 -13.702775 242.673599
2.800000 2.920000 6.920000 7.450597 -15.896627 308.214142
2.800000 2.920000 6.960000 8.943466 -17.230944 376.891022
2.800000 2.920000 7.000000 10.664816 -19.028946 475.839050
2.800000 2.920000 7.040000 15.256136 -22.082970 720.407227
2.800000 2.920000 7.080000 25.358345 -22.079000 1130.527954
2.800000 2.920000 7.120000 37.011326 -12.368801 1522.825439
2.800000 2.920000 7.160000 39.705795 7.306623 1629.936890
2.800000 2.920000 7.200000 25.727018 26.228382 1349.807495
2.800000 2.960000 6.800000 25.300192 -5.741183 673.060913
2.800000 2.960000 6.840000 18.659485 -0.965765 349.109070
2.800000 2.960000 6.880000 13.110046 -2.419417 177.726898
2.800000 2.960000 6.920000 11.153580 -7.014714 173.608551
2.800000 2.960000 6.960000 13.340816 -12.728304 339.987122
2.800000 2.960000 7.000000 20.946953 -17.507599 745.290894
2.800000 2.960000 7.040000 34.223251 -16.478203 1442.762085
2.800000 2.960000 7.080000 47.816208 -3.914920 2301.716309
2.800000 2.960000 7.120000 50.799030 19.639494 2966.251221
2.800000 2.960000 7.160000 34.877762 42.933731 3059.763672
2.800000 2.960000 7.200000 4.308482 49.770508 2495.666504
2.800000 3.000000 6.800000 25.266823 12.497655 794.603760
2.800000 3.000000 6.840000 15.439747 14.913329 460.793152
2.800000 3.000000 6.880000 8.442618 10.195300 175.221954
2.800000 3.000000 6.920000 7.777469 1.816969 63.790401
2.800000 3.000000 6.960000 15.109838 -5.541466 259.015076
2.800000 3.000000 7.000000 29.240215 -5.649137 886.902954
2.800000 3.000000 7.040000 43.518177 6.956220 1942.220825
2.800000 3.000000 7.080000 46.707573 31.148413 3151.821045
2.800000 3.000000 7.120000 30.392405 55.593266 4014.309326
2.800000 3.000000 7.160000 -1.852369 63.866730 4082.390381
2.800000 3.000000 7.200000 -33.147133 46.925961 3300.778076
2.800000 3.040000 6.800000 12.848402 26.564440 870.750854
2.800000 3.040000 6.840000 1.208677 24.330505 593.434387
2.800000 3.040000 6.880000 -4.267427 15.093322 246.019302
2.800000 3.040000 6.920000 -0.018665 4.950804 24.510807
2.800000 3.040000 6.960000 12.775921 1.763439 166.333878
2.800000 3.040000 7.000000 26.783175 11.560596 850.985840
2.800000 3.040000 7.040000 30.567760 33.215759 2037.674561
2.800000 3.040000 7.080000 15.785437 55.812904 3364.260254
2.800000 3.040000 7.120000 -14.578598 63.639599 4262.534180
2.800000 3.040000 7.160000 -44.963863 47.541256 4281.919922
2.800000 3.040000 7.200000 -56.708748 13.830621 3407.168213
2.800000 3.080000 6.800000 -5.139397 29.255375 882.290344
2.800000 3.080000 6.840000 -15.536489 21.197926 690.734558
2.800000 3.080000 6.880000 -15.982296 8.926709 335.119934
2.800000 3.080000 6.920000 -5.982598 1.621137 38.419563
2.800000 3.080000 6.960000 7.359266 6.731421 99.470818
2.800000 3.080000 7.000000 12.366379 23.921862 725.182800
2.800000 3.080000 7.040000 0.596219 42.951744 1845.207764
2.800000 3.080000 7.080000 -25.412127 49.108215 3057.392822
2.800000 3.080000 7.120000 -51.487022 33.975929 3805.277344
2.800000 3.080000 7.160000 -60.818138 3.301253 3709.744141
2.800000 3.080000 7.200000 -46.602283 -25.577549 2825.983643
2.800000 3.120000 6.800000 -19.525122 21.256790 833.081543
2.800000 3.120000 6.840000 -25.205296 8.524771 707.978638
2.800000 3.120000 6.880000 -19.064419 -2.890833 371.808960
2.800000 3.120000 6.920000 -6.488129 -3.430919 53.867023
2.800000 3.120000 6.960000 0.636149 8.641433 75.079048
2.800000 3.120000 7.000000 -7.102892 24.130295 632.722168
2.800000 3.120000 7.040000 -27.980318 28.783354 1611.379639
2.800000 3.120000 7.080000 -48.691730 14.663142 2585.892334
2.800000 3.120000 7.120000 -53.895409 -12.322546 3056.560303
2.800000 3.120000 7.160000 -38.499634 -35.892265 2770.476562
2.800000 3.120000 7.200000 -12.175961 -41.760036 1892.154663
2.800000 3.160000 6.800000 -26.013275 9.033951 758.302734
2.800000 3.160000 6.840000 -24.941750 -5.220406 649.343506
2.800000 3.160000 6.880000 -13.867950 -11.844281 332.607056
2.800000 3.160000 6.920000 -3.890355 -5.380084 44.080162
2.800000 3.160000 6.960000 -6.447688 7.388672 96.165146
2.800000 3.160000 7.000000 -22.173794 12.182714 640.095642
2.800000 3.160000 7.040000 -38.696220 -0.054117 1497.400391
2.800000 3.160000 7.080000 -40.660435 -23.885141 2223.770996
2.800000 3.160000 7.120000 -23.507589 -42.892555 2392.377930
2.800000 3.160000 7.160000 1.778847 -43.509056 1896.202271
2.800000 3.160000 7.200000 17.734606 -26.732222 1029.127930
2.800000 3.200000 6.800000 -26.702616 -2.045554 717.213928
2.800000 3.200000 6.840000 -19.140926 -14.328522 571.681580
2.800000 3.200000 6.880000 -6.797494 -14.573456 258.591553
2.800000 3.200000 6.920000 -2.922676 -4.684378 30.485435
2.800000 3.200000 6.960000 -12.679813 2.087227 165.134186
2.800000 3.200000 7.000000 -26.466272 -6.073675 737.353088
2.800000 3.200000 7.040000 -28.101530 -26.674194 1501.208618
2.800000 3.200000 7.080000 -10.838396 -43.530098 2012.340210
2.800000 3.200000 7.120000 14.680578 -41.440075 1932.799194
2.800000 3.200000 7.160000 29.162977 -21.038868 1293.113281
2.800000 3.200000 7.200000 22.261417 0.904312 496.388489
2.840000 2.800000 6.800000 -18.188389 -6.609730 374.506012
2.840000 2.800000 6.840000 -14.249525 -9.448293 292.319214
2.840000 2.800000 6.880000 -10.711386 -11.960297 257.782471
2.840000 2.800000 6.920000 -5.788656 -14.895661 255.389267
2.840000 2.800000 6.960000 2.176829 -16.209663 267.491760
2.840000 2.800000 7.000000 11.826542 -12.487989 295.816956
2.840000 2.800000 7.040000 18.632412 -2.582663 353.836914
2.840000 2.800000 7.080000 18.229969 10.271500 437.835449
2.840000 2.800000 7.120000 10.168167 20.253700 513.604004
2.840000 2.800000 7.160000 -1.556023 23.149078 538.301025
2.840000 2.800000 7.200000 -11.599603 18.964029 494.185181
2.840000 2.840000 6.800000 -7.204185 -18.361374 389.040344
2.840000 2.840000 6.840000 0.090636 -15.049134 226.484650
2.840000 2.840000 6.880000 3.690737 -9.350550 101.054314
2.840000 2.840000 6.920000 3.438761 -4.102544 28.655941
2.840000 2.840000 6.960000 1.038157 -1.368610 2.950862
2.840000 2.840000 7.000000 -1.017030 -1.384483 2.951144
2.840000 2.840000 7.040000 -0.951509 -2.539978 7.356857
2.840000 2.840000 7.080000 1.134350 -2.456980 7.323499
2.840000 2.840000 7.120000 3.200556 0.351454 10.367077
2.840000 2.840000 7.160000 2.518353 5.112867 32.483517
2.840000 2.840000 7.200000 -2.192535 8.788395 82.043098
2.840000 2.880000 6.800000 11.408939 -19.156900 497.150757
2.840000 2.880000 6.840000 17.281977 -6.722743 343.862000
2.840000 2.880000 6.880000 12.998621 7.118076 219.631149
2.840000 2.880000 6.920000 -0.536503 13.913267 193.866852
2.840000 2.880000 6.960000 -15.250965 7.910900 295.174286
2.840000 2.880000 7.000000 -20.356649 -8.154903 480.895630
2.840000 2.880000 7.040000 -10.669213 -23.306004 657.001892
2.840000 2.880000 7.080000 8.186329 -25.891008 737.360291
2.840000 2.880000 7.120000 23.027954 -12.911070 696.982422
2.840000 2.880000 7.160000 23.052792 6.936642 579.548218
2.840000 2.880000 7.200000 8.415856 19.661821 457.413849
2.840000 2.920000 6.800000 26.462440 -4.705249 722.400085
2.840000 2.920000 6.840000 23.420527 14.956341 772.213196
2.840000 2.920000 6.880000 4.941959 28.664040 846.050171
2.840000 2.920000 6.920000 -20.758911 23.967937 1005.394409
2.840000 2.920000 6.960000 -36.020622 -0.928408 1298.347168
2.840000 2.920000 7.000000 -26.621511 -31.613775 1708.135742
2.840000 2.920000 7.040000 4.768782 -45.930817 2132.381104
2.840000 2.920000 7.080000 37.785870 -31.413292 2414.566895
2.840000 2.920000 7.120000 49.120529 3.291779 2423.662109
2.840000 2.920000 7.160000 31.102581 34.142193 2133.059814
2.840000 2.920000 7.200000 -2.143484 40.503063 1645.092651
2.840000 2.960000 6.800000 26.142130 17.917242 1004.438477
2.840000 2.960000 6.840000 9.692716 36.378433 1417.339111
2.840000 2.960000 6.880000 -19.963614 37.841454 1830.521484
2.840000 2.960000 6.920000 -44.770699 13.666012 2191.175293
2.840000 2.960000 6.960000 -43.274849 -25.644173 2530.336182
2.840000 2.960000 7.000000 -9.759056 -53.360283 2942.559082
2.840000 2.960000 7.040000 36.405979 -46.302658 3469.331299
2.840000 2.960000 7.080000 62.879963 -5.560155 3984.804932
2.840000 2.960000 7.120000 49.901920 41.588715 4219.822754
2.840000 2.960000 7.160000 7.075142 62.388725 3942.410645
2.840000 2.960000 7.200000 -34.190346 44.628586 3160.690430
2.840000 3.000000 6.800000 8.667589 33.851257 1221.034668
2.840000 3.000000 6.840000 -17.381615 40.865982 1972.148926
2.840000 3.000000 6.880000 -45.536461 24.153988 2656.984375
2.840000 3.000000 6.920000 -53.665047 -13.389449 3059.214600
2.840000 3.000000 6.960000 -28.191353 -48.879719 3183.979248
2.840000 3.000000 7.000000 19.757780 -53.933765 3299.220947
2.840000 3.000000 7.040000 57.827347 -19.029449 3706.121826
2.840000 3.000000 7.080000 56.687160 34.613117 4411.501953
2.840000 3.000000 7.120000 15.210705 69.265724 5029.106445
2.840000 3.000000 7.160000 -36.898811 60.707657 5046.941895
2.840000 3.000000 7.200000 -62.782555 17.785284 4257.965332
2.840000 3.040000 6.800000 -14.871801 32.311535 1265.205811
2.840000 3.040000 6.840000 -39.543549 23.727119 2126.668457
2.840000 3.040000 6.880000 -52.870197 -4.726284 2817.595459
2.840000 3.040000 6.920000 -39.218857 -38.619865 3029.612793
2.840000 3.040000 6.960000 -0.511261 -52.760910 2783.975098
2.840000 3.040000 7.000000 39.172039 -31.139748 2504.132568
2.840000 3.040000 7.040000 49.500031 16.013885 2706.697510
2.840000 3.040000 7.080000 19.276854 56.147739 3524.165771
2.840000 3.040000 7.120000 -31.563606 59.255234 4507.443848
2.840000 3.040000 7.160000 -66.372437 22.963867 4932.639648
2.840000 3.040000 7.200000 -61.280521 -25.088928 4384.756836
2.840000 3.080000 6.800000 -29.444948 15.717939 1114.058594
2.840000 3.080000 6.840000 -42.331253 -2.815647 1799.862793
2.840000 3.080000 6.880000 -37.419060 -28.600420 2218.169922
2.840000 3.080000 6.920000 -12.288949 -44.371544 2119.852051
2.840000 3.080000 6.960000 19.127058 -35.159832 1602.058105
2.840000 3.080000 7.000000 33.650497 -2.828356 1140.355591
2.840000 3.080000 7.040000 17.158880 31.157652 1265.226440
2.840000 3.080000 7.080000 -21.321583 40.638748 2106.117676
2.840000 3.080000 7.120000 -54.189537 16.463184 3207.542236
2.840000 3.080000 7.160000 -56.857578 -24.491661 3832.625732
2.840000 3.080000 7.200000 -27.982708 -52.366104 3525.240723
2.840000 3.120000 6.800000 -28.740196 -3.173447 836.069641
2.840000 3.120000 6.840000 -27.548931 -20.676443 1186.458862
2.840000 3.120000 6.880000 -13.048489 -32.773026 1244.334229
2.840000 3.120000 6.920000 6.664370 -29.831566 934.336121
2.840000 3.120000 6.960000 17.443506 -11.906546 446.041748
2.840000 3.120000 7.000000 9.486684 8.763271 166.792084
2.840000 3.120000 7.040000 -13.319826 15.540550 418.926453
2.840000 3.120000 7.080000 -34.348579 0.793286 1180.454224
2.840000 3.120000 7.120000 -36.576447 -26.489384 2039.523926
2.840000 3.120000 7.160000 -16.725920 -46.711140 2461.687012
2.840000 3.120000 7.200000 11.419058 -45.256401 2178.536621
2.840000 3.160000 6.800000 -19.133177 -13.455393 547.126038
2.840000 3.160000 6.840000 -10.066916 -22.240963 596.003235
2.840000 3.160000 6.880000 1.552874 -20.793177 434.767609
2.840000 3.160000 6.920000 6.336551 -11.136101 164.164612
2.840000 3.160000 6.960000 0.146624 -2.375904 5.666419
2.840000 3.160000 7.000000 -11.901932 -3.640817 154.911530
2.840000 3.160000 7.040000 -18.901039 -16.283619 622.405518
2.840000 3.160000 7.080000 -12.919010 -31.991779 1190.374756
2.840000 3.160000 7.120000 4.136011 -38.994595 1537.684937
2.840000 3.160000 7.160000 21.494984 -31.520037 1455.546997
2.840000 3.160000 7.200000 27.941261 -14.597490 993.800842
2.840000 3.200000 6.800000 -11.342279 -15.264221 361.643738
2.840000 3.200000 6.840000 -2.340949 -15.570318 247.914856
2.840000 3.200000 6.880000 0.516729 -9.113136 83.316261
2.840000 3.200000 6.920000 -5.780518 -5.353720 62.076698
2.840000 3.200000 6.960000 -14.054623 -12.118538 344.391388
2.840000 3.200000 7.000000 -13.011276 -27.090778 903.203613
2.840000 3.200000 7.040000 1.819777 -38.552849 1489.633789
2.840000 3.200000 7.080000 22.674942 -35.496933 1774.185303
2.840000 3.200000 7.120000 35.368618 -17.949783 1573.133789
2.840000 3.200000 7.160000 31.393135 2.250518 990.593750
2.840000 3.200000 7.200000 15.291399 11.183489 358.897308
2.880000 2.800000 6.800000 -18.733797 -14.850864 571.503296
2.880000 2.800000 6.840000 -10.252882 -15.747682 353.111053
2.880000 2.800000 6.880000 -4.822409 -13.517933 205.990143
2.880000 2.800000 6.920000 -1.855164 -12.143526 150.906860
2.880000 2.800000 6.960000 2.380775 -12.255582 155.867371
2.880000 2.800000 7.000000 9.709274 -10.064732 195.568817
2.880000 2.800000 7.040000 16.654324 -1.654045 280.102356
2.880000 2.800000 7.080000 16.879040 11.658541 420.823547
2.880000 2.800000 7.120000 7.480442 22.862741 578.661987
2.880000 2.800000 7.160000 -7.251447 24.766104 665.943420
2.880000 2.800000 7.200000 -18.638586 16.264708 611.937622
2.880000 2.840000 6.800000 1.878436 -21.923306 484.159851
2.880000 2.840000 6.840000 12.984116 -9.101479 251.424179
2.880000 2.840000 6.880000 10.487103 7.834269 171.355072
2.880000 2.840000 6.920000 -4.003372 15.937757 270.039093
2.880000 2.840000 6.960000 -18.301723 8.929613 414.691101
2.880000 2.840000 7.000000 -20.106373 -6.450809 445.879181
2.880000 2.840000 7.040000 -8.232536 -16.201633 330.267578
2.880000 2.840000 7.080000 6.432846 -11.785122 180.270599
2.880000 2.840000 7.120000 11.167667 2.449089 130.714828
2.880000 2.840000 7.160000 2.838409 13.998280 204.008392
2.880000 2.840000 7.200000 -10.236902 13.953891 299.505249
2.880000 2.880000 6.800000 23.041748 -9.355560 618.448669
2.880000 2.880000 6.840000 23.894131 19.236969 940.990479
2.880000 2.880000 6.880000 -1.056519 41.648529 1735.716187
2.880000 2.880000 6.920000 -38.323608 36.405910 2794.089355
2.880000 2.880000 6.960000 -59.929539 1.990639 3595.512207
2.880000 2.880000 7.000000 -47.150543 -38.290489 3689.335449
2.880000 2.880000 7.040000 -8.166813 -54.630844 3051.225830
2.880000 2.880000 7.080000 27.972942 -36.156567 2089.782715
2.880000 2.880000 7.120000 36.128365 0.310726 1305.355225
2.880000 2.880000 7.160000 15.503443 26.083591 920.710510
2.880000 2.880000 7.200000 -12.572504 25.395290 802.988647
2.880000 2.920000 6.800000 27.112112 17.429050 1038.838379
2.880000 2.920000 6.840000 5.341190 50.670158 2595.993164
2.880000 2.920000 6.880000 -43.513706 57.031837 5146.073242
2.880000 2.920000 6.920000 -86.798897 18.978533 7894.232910
2.880000 2.920000 6.960000 -87.198563 -45.000782 9628.660156
2.880000 2.920000 7.000000 -37.147446 -90.430168 9557.547852
2.880000 2.920000 7.040000 30.535469 -83.325302 7875.520996
2.880000 2.920000 7.080000 68.382126 -30.025127 5577.623535
2.880000 2.920000 7.120000 53.805309 28.187792 3689.562988
2.880000 2.920000 7.160000 6.034462 50.755104 2612.495361
2.880000 2.920000 7.200000 -33.955189 30.388897 2076.439941
2.880000 2.960000 6.800000 7.509480 39.036320 1580.226562
2.880000 2.960000 6.840000 -35.975712 57.386604 4587.474121
2.880000 2.960000 6.880000 -89.888840 31.061054 9044.792969
2.880000 2.960000 6.920000 -109.492554 -37.576874 13400.640625
2.880000 2.960000 6.960000 -67.494873 -105.745636 15737.697266
2.880000 2.960000 7.000000 16.016127 -121.807999 15093.705078
2.880000 2.960000 7.040000 84.697731 -70.366684 12125.175781
2.880000 2.960000 7.080000 91.648376 11.822678 8539.200195
2.880000 2.960000 7.120000 38.507484 65.876205 5822.500977
2.880000 2.960000 7.160000 -28.182121 59.725700 4361.391113
2.880000 2.960000 7.200000 -58.823952 11.209459 3585.909180
2.880000 3.000000 6.800000 -23.071449 37.643795 1949.347046
2.880000 3.000000 6.840000 -70.964569 28.239044 5833.414062
2.880000 3.000000 6.880000 -102.842918 -25.806437 11242.638672
2.880000 3.000000 6.920000 -80.978012 -97.757568 16113.980469
2.880000 3.000000 6.960000 -4.891986 -134.944687 18234.000000
2.880000 3.000000 7.000000 79.217957 -102.610886 16804.478516
2.880000 3.000000 7.040000 112.527557 -17.950830 12984.683594
2.880000 3.000000 7.080000 73.038055 60.152088 8952.831055
2.880000 3.000000 7.120000 -5.321751 79.201988 6301.275879
2.880000 3.000000 7.160000 -62.296677 35.609421 5148.906738
2.880000 3.000000 7.200000 -62.051552 -26.674484 4561.923340
2.880000 3.040000 6.800000 -42.038807 13.207743 1941.705688
2.880000 3.040000 6.840000 -72.594009 -18.409420 5608.796875
2.880000 3.040000 6.880000 -69.101410 -74.932365 10389.864258
2.880000 3.040000 6.920000 -16.835417 -118.357849 14292.011719
2.880000 3.040000 6.960000 59.162792 -109.312622 15449.485352
2.880000 3.040000 7.000000 107.558807 -43.874638 13493.880859
2.880000 3.040000 7.040000 92.066406 36.795456 9830.128906
2.880000 3.040000 7.080000 24.073286 77.227402 6543.594727
2.880000 3.040000 7.120000 -45.131439 53.288292 4876.488770
2.880000 3.040000 7.160000 -66.990036 -8.799988 4565.104980
2.880000 3.040000 7.200000 -34.623119 -57.167610 4466.895996
2.880000 3.080000 6.800000 -36.410133 -15.870594 1577.573486
2.880000 3.080000 6.840000 -40.521458 -49.517708 4093.991943
2.880000 3.080000 6.880000 -13.199734 -82.932877 7052.094727
2.880000 3.080000 6.920000 38.010674 -87.443207 9091.125977
2.880000 3.080000 6.960000 81.634804 -49.874268 9151.683594
2.880000 3.080000 7.000000 84.794167 11.004002 7311.138672
2.880000 3.080000 7.040000 41.937836 54.953403 4778.658691
2.880000 3.080000 7.080000 -17.198919 51.984241 2998.164062
2.880000 3.080000 7.120000 -50.325577 7.765688 2592.969482
2.880000 3.080000 7.160000 -37.055103 -40.975285 3052.054688
2.880000 3.080000 7.200000 5.676456 -57.611515 3351.308838
2.880000 3.120000 6.800000 -13.788582 -29.264009 1046.507202
2.880000 3.120000 6.840000 -1.204786 -46.662491 2178.839355
2.880000 3.120000 6.880000 24.387568 -51.217361 3217.971436
2.880000 3.120000 6.920000 49.209236 -34.607853 3619.252441
2.880000 3.120000 6.960000 55.845261 -2.713341 3126.055420
2.880000 3.120000 7.000000 36.978710 25.409883 2013.087158
2.880000 3.120000 7.040000 3.620583 30.662746 953.312683
2.880000 3.120000 7.080000 -21.318064 9.598192 546.585144
2.880000 3.120000 7.120000 -20.604523 -21.418501 883.298523
2.880000 3.120000 7.160000 3.193562 -38.700680 1507.941528
2.880000 3.120000 7.200000 29.918571 -30.346043 1816.003174
2.880000 3.160000 6.800000 6.031851 -22.624424 548.247803
2.880000 3.160000 6.840000 17.146336 -21.220860 744.321716
2.880000 3.160000 6.880000 23.701992 -12.428734 716.257812
2.880000 3.160000 6.920000 22.134720 -2.293438 495.205688
2.880000 3.160000 6.960000 14.499340 2.984764 219.139679
2.880000 3.160000 7.000000 6.384148 0.916025 41.596443
2.880000 3.160000 7.040000 3.158104 -6.262182 49.188549
2.880000 3.160000 7.080000 6.879996 -13.305511 224.370987
2.880000 3.160000 7.120000 15.225149 -15.100285 459.823761
2.880000 3.160000 7.160000 22.804825 -9.780064 615.709717
2.880000 3.160000 7.200000 24.428450 -0.111835 596.761658
2.880000 3.200000 6.800000 10.395321 -9.412171 196.651672
2.880000 3.200000 6.840000 9.882055 -0.734201 98.194069
2.880000 3.200000 6.880000 0.496788 1.988018 4.199014
2.880000 3.200000 6.920000 -7.633099 -7.077908 108.360970
2.880000 3.200000 6.960000 -3.761131 -21.735197 486.564911
2.880000 3.200000 7.000000 12.527378 -28.911634 992.817810
2.880000 3.200000 7.040000 30.144829 -20.809486 1341.745361
2.880000 3.200000 7.080000 36.258492 -2.236956 1319.682251
2.880000 3.200000 7.120000 27.482559 13.776027 945.070007
2.880000 3.200000 7.160000 12.050895 17.400913 448.015839
2.880000 3.200000 7.200000 1.773027 9.531775 93.998352
2.920000 2.800000 6.800000 -10.767290 -23.161678 652.397827
2.920000 2.800000 6.840000 -0.795624 -18.118876 328.926666
2.920000 2.800000 6.880000 1.684906 -11.057058 125.097443
2.920000 2.800000 6.920000 0.150539 -8.861605 78.550697
2.920000 2.800000 6.960000 2.142128 -11.182220 129.630768
2.920000 2.800000 7.000000 10.364874 -10.649654 220.845749
2.920000 2.800000 7.040000 18.686096 -1.157833 350.510773
2.920000 2.800000 7.080000 17.806740 14.452839 525.964539
2.920000 2.800000 7.120000 5.090607 25.784807 690.770508
2.920000 2.800000 7.160000 -11.730514 24.404919 733.204956
2.920000 2.800000 7.200000 -21.050615 11.972364 586.465942
2.920000 2.840000 6.800000 13.733690 -17.264786 486.687073
2.920000 2.840000 6.840000 17.780525 7.152533 367.305786
2.920000 2.840000 6.880000 -0.788879 26.287186 691.638428
2.920000 2.840000 6.920000 -28.436245 22.129227 1298.322754
2.920000 2.840000 6.960000 -41.386646 -3.665909 1726.293335
2.920000 2.840000 7.000000 -27.637918 -29.622131 1641.325195
2.920000 2.840000 7.040000 1.338123 -33.745659 1140.560059
2.920000 2.840000 7.080000 21.209019 -13.643223 635.960022
2.920000 2.840000 7.120000 17.274759 12.263475 448.810120
2.920000 2.840000 7.160000 -3.272824 22.934877 536.719971
2.920000 2.840000 7.200000 -20.423609 13.744080 606.023560
2.920000 2.880000 6.800000 24.986927 8.810749 701.975769
2.920000 2.880000 6.840000 4.583187 45.445683 2086.315674
2.920000 2.880000 6.880000 -45.685249 53.322319 4930.412109
2.920000 2.880000 6.920000 -89.291756 14.429008 8181.213867
2.920000 2.880000 6.960000 -87.624817 -49.222557 10100.968750
2.920000 2.880000 7.000000 -36.536446 -90.864082 9591.193359
2.920000 2.880000 7.040000 27.264412 -79.515816 7066.113281
2.920000 2.880000 7.080000 57.735901 -27.262814 4076.695312
2.920000 2.880000 7.120000 39.110825 22.977699 2057.631348
2.920000 2.880000 7.160000 -3.862673 36.516750 1348.393311
2.920000 2.880000 7.200000 -32.632492 14.743733 1282.257202
2.920000 2.920000 6.800000 9.209164 36.058105 1384.995728
2.920000 2.920000 6.840000 -42.618217 61.248089 5567.640625
2.920000 2.920000 6.880000 -108.868973 30.357058 12774.003906
2.920000 2.920000 6.920000 -132.510498 -52.743233 20340.878906
2.920000 2.920000 6.960000 -81.401390 -133.688873 24498.902344
2.920000 2.920000 7.000000 16.926392 -150.949615 23072.289062
2.920000 2.920000 7.040000 94.388283 -90.561943 17110.613281
2.920000 2.920000 7.080000 100.023270 0.559814 10004.967773
2.920000 2.920000 7.120000 42.078560 56.146748 4923.062500
2.920000 2.920000 7.160000 -24.333891 47.026623 2803.641357
2.920000 2.920000 7.200000 -49.341557 -0.291800 2434.674316
2.920000 2.960000 6.800000 -24.943943 40.188831 2237.342529
2.920000 2.960000 6.840000 -91.717293 30.640224 9350.884766
2.920000 2.960000 6.880000 -137.651276 -43.753952 20862.281250
2.920000 2.960000 6.920000 -107.847519 -144.163788 32414.285156
2.920000 2.960000 6.960000 -2.912823 -195.781433 38338.855469
2.920000 2.960000 7.000000 111.501144 -152.349792 35642.964844
2.920000 2.960000 7.040000 156.603745 -40.646095 26176.837891
2.920000 2.960000 7.080000 107.546188 59.841324 15147.166992
2.920000 2.960000 7.120000 12.545295 84.521957 7301.345703
2.920000 2.960000 7.160000 -52.888874 35.228306 4038.266602
2.920000 2.960000 7.200000 -51.247383 -30.532907 3558.552734
2.920000 3.000000 6.800000 -50.872246 14.045044 2785.248535
2.920000 3.000000 6.840000 -101.566498 -31.992413 11339.268555
2.920000 3.000000 6.880000 -98.881081 -121.841385 24622.791016
2.920000 3.000000 6.920000 -16.728153 -192.769714 37439.996094
2.920000 3.000000 6.960000 104.384491 -180.524078 43485.066406
2.920000 3.000000 7.000000 182.716003 -79.732269 39742.371094
2.920000 3.000000 7.040000 163.315552 44.464802 28649.087891
2.920000 3.000000 7.080000 66.025200 108.762833 16188.680664
2.920000 3.000000 7.120000 -32.445728 80.910858 7599.291992
2.920000 3.000000 7.160000 -65.335754 1.865606 4272.241211
2.920000 3.000000 7.200000 -28.506016 -56.933052 4053.965332
2.920000 3.040000 6.800000 -46.701805 -23.876717 2751.156250
2.920000 3.040000 6.840000 -60.039429 -82.425339 10398.669922
2.920000 3.040000 6.880000 -13.613987 -146.943268 21777.664062
2.920000 3.040000 6.920000 82.028221 -159.787201 32260.578125
2.920000 3.040000 6.960000 167.413788 -92.721802 36624.710938
2.920000 3.040000 7.000000 179.625412 20.653830 32691.869141
2.920000 3.040000 7.040000 107.352684 106.644180 22897.580078
2.920000 3.040000 7.080000 3.273027 111.494568 12441.751953
2.920000 3.040000 7.120000 -59.799213 45.220963 5620.881348
2.920000 3.040000 7.160000 -48.975857 -30.870758 3351.638184
2.920000 3.040000 7.200000 7.172919 -59.527016 3594.916260
2.920000 3.080000 6.800000 -15.261311 -44.746769 2235.180908
2.920000 3.080000 6.840000 2.965475 -84.897766 7216.424805
2.920000 3.080000 6.880000 58.536987 -103.572144 14153.767578
2.920000 3.080000 6.920000 122.367676 -71.563713 20095.212891
2.920000 3.080000 6.960000 148.310471 4.637939 22017.505859
2.920000 3.080000 7.000000 111.409279 80.775681 18936.738281
2.920000 3.080000 7.040000 32.507027 107.634048 12641.795898
2.920000 3.080000 7.080000 -35.836403 71.501312 6396.685547
2.920000 3.080000 7.120000 -51.580410 5.385853 2689.545898
2.920000 3.080000 7.160000 -16.025505 -39.714016 1834.019775
2.920000 3.080000 7.200000 31.760073 -36.982838 2376.432373
2.920000 3.120000 6.800000 18.445801 -34.930977 1560.420654
2.920000 3.120000 6.840000 41.849846 -43.711296 3662.086914
2.920000 3.120000 6.880000 72.016281 -31.067265 6151.519531
2.920000 3.120000 6.920000 88.927536 4.587318 7929.149902
2.920000 3.120000 6.960000 76.515373 47.040081 8067.372070
2.920000 3.120000 7.000000 37.028202 71.270401 6450.558105
2.920000 3.120000 7.040000 -7.561195 62.009758 3902.381836
2.920000 3.120000 7.080000 -30.686562 26.712685 1655.232544
2.920000 3.120000 7.120000 -21.425488 -9.271982 545.021179
2.920000 3.120000 7.160000 7.430775 -22.337667 554.187805
2.920000 3.120000 7.200000 30.712217 -8.527222 1015.953796
2.920000 3.160000 6.800000 30.330004 -7.205616 971.830017
2.920000 3.160000 6.840000 35.888451 2.809048 1295.871582
2.920000 3.160000 6.880000 33.666126 14.171795 1334.247803
2.920000 3.160000 6.920000 26.047215 21.611950 1145.533813
2.920000 3.160000 6.960000 17.127571 24.065643 872.508911
2.920000 3.160000 7.000000 9.086342 22.861834 605.225037
2.920000 3.160000 7.040000 2.563736 18.776745 359.138916
2.920000 3.160000 7.080000 -1.064526 12.072384 146.875656
2.920000 3.160000 7.120000 0.179371 4.806602 23.135592
2.920000 3.160000 7.160000 5.929016 1.120823 36.409477
2.920000 3.160000 7.200000 11.765970 3.779293 152.721100
2.920000 3.200000 6.800000 18.496304 12.999699 511.105408
2.920000 3.200000 6.840000 4.608356 19.420837 398.405853
2.920000 3.200000 6.880000 -9.703060 9.554314 185.434296
2.920000 3.200000 6.920000 -8.694901 -9.559756 166.990234
2.920000 3.200000 6.960000 9.339996 -19.759235 477.662903
2.920000 3.200000 7.000000 29.002922 -9.897118 939.122437
2.920000 3.200000 7.040000 32.404034 12.480080 1205.773804
2.920000 3.200000 7.080000 16.595840 28.170204 1068.982300
2.920000 3.200000 7.120000 -3.951586 24.864347 633.850830
2.920000 3.200000 7.160000 -11.948367 8.216084 210.267502
2.920000 3.200000 7.200000 -3.592203 -5.151270 39.439507
2.960000 2.800000 6.800000 2.633399 -22.388393 508.174957
2.960000 2.800000 6.840000 8.103951 -11.855858 206.235382
2.960000 2.800000 6.880000 4.455589 -4.560439 40.649879
2.960000 2.800000 6.920000 0.128189 -5.981052 35.789421
2.960000 2.800000 6.960000 3.778399 -10.908867 133.279678
2.960000 2.800000 7.000000 14.455290 -8.896286 288.099304
2.960000 2.800000 7.040000 21.798344 4.276947 493.460052
2.960000 2.800000 7.080000 16.433083 21.193851 719.225586
2.960000 2.800000 7.120000 -0.139378 29.396290 864.161255
2.960000 2.800000 7.160000 -16.410725 23.312210 812.771057
2.960000 2.800000 7.200000 -21.591835 9.410281 554.760742
2.960000 2.840000 6.800000 18.616085 -3.242495 357.072388
2.960000 2.840000 6.840000 6.480961 23.153534 578.088989
2.960000 2.840000 6.880000 -25.783531 28.921074 1501.218994
2.960000 2.840000 6.920000 -51.469120 3.845215 2663.855957
2.960000 2.840000 6.960000 -46.147392 -34.016182 3286.682373
2.960000 2.840000 7.000000 -11.631622 -53.211517 2966.760254
2.960000 2.840000 7.040000 24.541065 -37.718578 2024.955078
2.960000 2.840000 7.080000 34.221260 -1.412823 1173.090698
2.960000 2.840000 7.120000 13.663083 25.846355 854.713989
2.960000 2.840000 7.160000 -15.620878 25.981756 919.063477
2.960000 2.840000 7.200000 -29.303520 6.870264 905.896790
2.960000 2.880000 6.800000 10.678576 24.280912 703.594666
2.960000 2.880000 6.840000 -33.464355 47.425560 3369.046875
2.960000 2.880000 6.880000 -89.655922 21.130146 8484.667969
2.960000 2.880000 6.920000 -107.597916 -48.978420 13976.197266
2.960000 2.880000 6.960000 -62.075233 -113.990616 16847.195312
2.960000 2.880000 7.000000 19.493973 -122.838791 15469.382812
2.960000 2.880000 7.040000 78.412384 -68.635307 10859.306641
2.960000 2.880000 7.080000 75.927139 5.088493 5790.823242
2.960000 2.880000 7.120000 25.141098 44.269489 2591.862549
2.960000 2.880000 7.160000 -25.758923 30.977430 1623.123291
2.960000 2.880000 7.200000 -39.783169 -7.258060 1635.380005
2.960000 2.920000 6.800000 -20.191092 34.772247 1616.789307
2.960000 2.920000 6.840000 -88.125465 26.393150 8462.696289
2.960000 2.920000 6.880000 -134.283417 -48.991215 20432.173828
2.960000 2.920000 6.920000 -102.492439 -149.444946 32838.492188
2.960000 2.920000 6.960000 3.716415 -198.102600 39258.453125
2.960000 2.920000 7.000000 115.404404 -151.224945 36187.160156
2.960000 2.920000 7.040000 155.105011 -40.321320 25683.373047
2.960000 2.920000 7.080000 103.633133 54.162666 13673.420898
2.960000 2.920000 7.120000 13.189121 72.919342 5491.183594
2.960000 2.920000 7.160000 -43.754814 24.611242 2520.197021
2.960000 2.920000 7.200000 -37.922436 -32.345184 2484.322021
2.960000 2.960000 6.800000 -50.117371 13.712740 2699.790039
2.960000 2.960000 6.840000 -110.347679 -38.651867 13670.577148
2.960000 2.960000 6.880000 -107.250847 -143.627686 32131.656250
2.960000 2.960000 6.920000 -10.537560 -225.291687 50867.382812
2.960000 2.960000 6.960000 129.641937 -208.672867 60351.398438
2.960000 2.960000 7.000000 217.240448 -91.080765 55489.121094
2.960000 2.960000 7.040000 192.233459 49.129745 39367.433594
2.960000 2.960000 7.080000 82.629921 118.221741 20804.083984
2.960000 2.960000 7.120000 -23.046717 85.812531 7894.941406
2.960000 2.960000 7.160000 -54.922951 2.968540 3025.342773
2.960000 2.960000 7.200000 -16.215689 -52.827103 3053.651367
2.960000 3.000000 6.800000 -51.796047 -26.377117 3378.583008
2.960000 3.000000 6.840000 -72.561859 -104.208527 16124.640625
2.960000 3.000000 6.880000 -10.914265 -192.061737 37006.832031
2.960000 3.000000 6.920000 118.296844 -209.235123 57773.480469
2.960000 3.000000 6.960000 232.343506 -118.121002 67936.078125
2.960000 3.000000 7.000000 246.964417 33.058331 62084.273438
2.960000 3.000000 7.040000 150.948853 144.954987 43797.503906
2.960000 3.000000 7.080000 17.246443 150.233704 22867.605469
2.960000 3.000000 7.120000 -60.868073 67.613876 8276.558594
2.960000 3.000000 7.160000 -47.690166 -22.364132 2774.506348
2.960000 3.000000 7.200000 14.988146 -52.586224 2989.955322
2.960000 3.040000 6.800000 -19.859390 -54.444107 3358.556152
2.960000 3.040000 6.840000 3.991158 -120.225052 14469.993164
2.960000 3.040000 6.880000 92.040497 -153.881836 32151.072266
2.960000 3.040000 6.920000 196.064163 -104.162163 49290.914062
2.960000 3.040000 6.960000 238.584900 18.322815 57258.480469
2.960000 3.040000 7.000000 179.607941 139.948364 51844.554688
2.960000 3.040000 7.040000 55.339760 182.166687 36247.191406
2.960000 3.040000 7.080000 -50.029430 127.026337 18638.634766
2.960000 3.040000 7.120000 -74.601913 29.309055 6424.465820
2.960000 3.040000 7.160000 -26.038191 -34.663452 1879.542236
2.960000 3.040000 7.200000 35.353863 -31.444115 2238.627930
2.960000 3.080000 6.800000 22.697598 -47.917709 2811.287842
2.960000 3.080000 6.840000 65.075500 -75.226051 9893.779297
2.960000 3.080000 6.880000 131.571320 -57.625927 20631.759766
2.960000 3.080000 6.920000 174.294189 15.638863 30623.039062
2.960000 3.080000 6.960000 151.764755 108.811577 34872.500000
2.960000 3.080000 7.000000 67.490326 163.093903 31154.566406
2.960000 3.080000 7.040000 -28.103062 144.083191 21549.748047
2.960000 3.080000 7.080000 -77.022278 70.573654 10913.072266
2.960000 3.080000 7.120000 -59.696228 -2.051292 3567.847412
2.960000 3.080000 7.160000 -6.527288 -28.330215 845.206604
2.960000 3.080000 7.200000 33.193336 -6.518387 1144.286987
2.960000 3.120000 6.800000 44.411285 -12.889816 2138.509766
2.960000 3.120000 6.840000 70.878700 -6.599339 5067.341309
2.960000 3.120000 6.880000 91.425102 24.653030 8966.321289
2.960000 3.120000 6.920000 85.303123 70.545990 12253.359375
2.960000 3.120000 6.960000 46.410690 105.886887 13365.985352
2.960000 3.120000 7.000000 -8.812508 107.926422 11725.772461
2.960000 3.120000 7.040000 -51.103977 74.178413 8114.053711
2.960000 3.120000 7.080000 -59.320850 25.460457 4167.198242
2.960000 3.120000 7.120000 -35.642860 -9.344160 1357.726807
2.960000 3.120000 7.160000 -2.424362 -14.430225 214.108932
2.960000 3.120000 7.200000 16.212072 3.266575 273.501801
2.960000 3.160000 6.800000 33.065163 22.148132 1583.844727
2.960000 3.160000 6.840000 29.435425 34.242355 2038.983154
2.960000 3.160000 6.880000 19.068998 42.103222 2136.308105
2.960000 3.160000 6.920000 7.467056 43.924992 1985.161865
2.960000 3.160000 6.960000 -2.724304 42.403923 1805.514526
2.960000 3.160000 7.000000 -12.845718 38.867126 1675.666016
2.960000 3.160000 7.040000 -23.187243 30.793716 1485.901123
2.960000 3.160000 7.080000 -29.185688 16.296413 1117.377441
2.960000 3.160000 7.120000 -24.968683 -0.251139 623.498169
2.960000 3.160000 7.160000 -10.938912 -9.516447 210.222565
2.960000 3.160000 7.200000 3.745455 -5.697573 46.490765
2.960000 3.200000 6.800000 4.741774 32.819336 1099.593140
2.960000 3.200000 6.840000 -15.498756 27.382893 990.034302
2.960000 3.200000 6.880000 -23.065544 5.600394 563.383789
2.960000 3.200000 6.920000 -8.377769 -13.040982 240.254242
2.960000 3.200000 6.960000 15.289356 -9.677917 327.426514
2.960000 3.200000 7.000000 23.912722 13.250839 747.402954
2.960000 3.200000 7.040000 7.388519 32.961620 1141.058594
2.960000 3.200000 7.080000 -19.308754 28.952312 1211.064331
2.960000 3.200000 7.120000 -30.779167 3.921221 962.733093
2.960000 3.200000 7.160000 -16.687912 -18.971600 638.408020
2.960000 3.200000 7.200000 8.395039 -19.603657 454.780029
3.000000 2.800000 6.800000 10.657831 -10.573755 225.393661
3.000000 2.800000 6.840000 8.275383 -0.538610 68.772064
3.000000 2.800000 6.880000 0.853447 1.277298 2.359862
3.000000 2.800000 6.920000 -1.255133 -4.643951 23.141642
3.000000 2.800000 6.960000 6.325935 -8.662704 115.059906
3.000000 2.800000 7.000000 16.874657 -2.062782 289.009094
3.000000 2.800000 7.040000 19.005260 13.539618 544.521179
3.000000 2.800000 7.080000 8.037689 27.254162 807.393799
3.000000 2.800000 7.120000 -9.359152 29.212303 940.952393
3.000000 2.800000 7.160000 -21.635078 19.544024 850.045471
3.000000 2.800000 7.200000 -22.965574 7.308053 580.825256
3.000000 2.840000 6.800000 9.315750 10.457085 196.133820
3.000000 2.840000 6.840000 -15.764725 24.141481 831.337646
3.000000 2.840000 6.880000 -45.959332 8.886833 2191.236084
3.000000 2.840000 6.920000 -52.424423 -28.915115 3584.404053
3.000000 2.840000 6.960000 -24.301575 -59.622932 4145.460449
3.000000 2.840000 7.000000 18.899117 -56.762383 3579.144531
3.000000 2.840000 7.040000 43.870197 -21.695854 2395.304199
3.000000 2.840000 7.080000 33.281631 17.710136 1421.315918
3.000000 2.840000 7.120000 -0.125816 32.845886 1078.868164
3.000000 2.840000 7.160000 -27.783312 18.879370 1128.343018
3.000000 2.840000 7.200000 -32.208076 -4.940050 1061.764282
3.000000 2.880000 6.800000 -13.147379 22.518509 679.936829
3.000000 2.880000 6.840000 -62.678085 16.061436 4186.512207
3.000000 2.880000 6.880000 -94.562126 -39.442558 10497.711914
3.000000 2.880000 6.920000 -68.478165 -110.678711 16939.037109
3.000000 2.880000 6.960000 9.584244 -141.028900 19981.007812
3.000000 2.880000 7.000000 86.843758 -101.880699 17921.515625
3.000000 2.880000 7.040000 108.547081 -20.560165 12205.189453
3.000000 2.880000 7.080000 65.676750 43.354218 6193.023438
3.000000 2.880000 7.120000 -0.139809 50.449478 2545.169434
3.000000 2.880000 7.160000 -37.421677 12.099306 1546.775024
3.000000 2.880000 7.200000 -29.763042 -27.688059 1652.467285
3.000000 2.920000 6.800000 -40.191895 8.561916 1688.694824
3.000000 2.920000 6.840000 -91.844421 -37.102863 9812.019531
3.000000 2.920000 6.880000 -87.136826 -127.991768 23974.718750
3.000000 2.920000 6.920000 -1.217545 -196.108765 38460.128906
3.000000 2.920000 6.960000 119.257805 -177.228302 45632.296875
3.000000 2.920000 7.000000 190.191223 -72.918182 41489.765625
3.000000 2.920000 7.040000 163.053040 45.871414 28690.480469
3.000000 2.920000 7.080000 66.979988 99.595215 14405.525391
3.000000 2.920000 7.120000 -20.251665 67.352646 4946.508789
3.000000 2.920000 7.160000 -42.484497 -2.734365 1812.409302
3.000000 2.920000 7.200000 -8.320198 -45.491478 2138.700195
3.000000 2.960000 6.800000 -45.961514 -26.326096 2805.523926
3.000000 2.960000 6.840000 -66.651016 -104.161407 15291.957031
3.000000 2.960000 6.880000 -3.352684 -191.643478 36738.464844
3.000000 2.960000 6.920000 127.115883 -206.039398 58610.679688
3.000000 2.960000 6.960000 239.091324 -111.403931 69575.500000
3.000000 2.960000 7.000000 248.899933 40.018532 63552.660156
3.000000 2.960000 7.040000 149.895737 147.515274 44229.488281
3.000000 2.960000 7.080000 18.756708 147.700897 22167.369141
3.000000 2.960000 7.120000 -53.202843 65.024170 7058.685059
3.000000 2.960000 7.160000 -36.887600 -18.852360 1716.106567
3.000000 2.960000 7.200000 21.288277 -42.546204 2263.370117
3.000000 3.000000 6.800000 -19.388599 -55.764698 3485.619385
3.000000 3.000000 6.840000 7.025196 -132.699295 17658.457031
3.000000 3.000000 6.880000 110.083969 -171.958893 41688.343750
3.000000 3.000000 6.920000 231.121948 -112.238358 66014.804688
3.000000 3.000000 6.960000 277.781616 31.670931 78165.671875
3.000000 3.000000 7.000000 205.661880 170.807022 71471.843750
3.000000 3.000000 7.040000 61.537674 214.778625 49916.746094
3.000000 3.000000 7.080000 -55.466232 148.250427 25054.691406
3.000000 3.000000 7.120000 -78.536034 39.063595 7693.873047
3.000000 3.000000 7.160000 -23.558117 -27.042450 1286.279053
3.000000 3.000000 7.200000 38.442909 -19.733305 1867.260620
3.000000 3.040000 6.800000 23.211586 -54.227661 3479.416992
3.000000 3.040000 6.840000 80.107239 -96.110382 15654.375000
3.000000 3.040000 6.880000 174.447357 -74.103828 35923.257812
3.000000 3.040000 6.920000 235.265015 28.649311 56170.410156
3.000000 3.040000 6.960000 202.206757 158.896820 66135.773438
3.000000 3.040000 7.000000 83.100021 231.392487 60448.097656
3.000000 3.040000 7.040000 -47.268906 200.460052 42418.582031
3.000000 3.040000 7.080000 -108.806244 98.251808 21492.216797
3.000000 3.040000 7.120000 -81.080635 3.991184 6589.999023
3.000000 3.040000 7.160000 -12.137535 -25.076061 776.128601
3.000000 3.040000 7.200000 32.392761 4.428181 1068.899780
3.000000 3.080000 6.800000 50.692989 -20.338200 2983.421387
3.000000 3.080000 6.840000 101.477249 -19.630102 10682.972656
3.000000 3.080000 6.880000 147.968231 33.702988 23030.488281
3.000000 3.080000 6.920000 142.404327 121.554253 35054.429688
3.000000 3.080000 6.960000 69.652786 189.628906 40810.632812
3.000000 3.080000 7.000000 -34.082378 190.144409 37316.503906
3.000000 3.080000 7.040000 -107.461555 122.428955 26536.835938
3.000000 3.080000 7.080000 -112.928864 33.729969 13890.638672
3.000000 3.080000 7.120000 -64.260841 -20.567299 4552.469238
3.000000 3.080000 7.160000 -9.319939 -20.276354 497.991791
3.000000 3.080000 7.200000 13.057192 10.831652 287.814941
3.000000 3.120000 6.800000 43.969627 21.302254 2387.114258
3.000000 3.120000 6.840000 62.382889 41.284874 5596.065430
3.000000 3.120000 6.880000 61.620018 79.860962 10174.799805
3.000000 3.120000 6.920000 29.492538 116.058250 14339.327148
3.000000 3.120000 6.960000 -24.935837 124.921089 16227.074219
3.000000 3.120000 7.000000 -75.370880 96.426460 14978.832031
3.000000 3.120000 7.040000 -96.326637 43.975990 11212.708984
3.000000 3.120000 7.080000 -80.970375 -4.867069 6579.890137
3.000000 3.120000 7.120000 -44.570320 -27.852131 2762.254639
3.000000 3.120000 7.160000 -11.675371 -22.037071 621.946777
3.000000 3.120000 7.200000 1.591143 -2.190805 7.331363
3.000000 3.160000 6.800000 11.918062 41.926426 1899.865356
3.000000 3.160000 6.840000 1.338123 49.719482 2473.817383
3.000000 3.160000 6.880000 -12.712303 50.179558 2679.590576
3.000000 3.160000 6.920000 -24.424614 44.902363 2612.783936
3.000000 3.160000 6.960000 -33.530487 37.885994 2559.642090
3.000000 3.160000 7.000000 -42.749443 28.748322 2653.980957
3.000000 3.160000 7.040000 -50.514236 13.342178 2729.701660
3.000000 3.160000 7.080000 -49.340073 -8.370646 2504.510498
3.000000 3.160000 7.120000 -33.663548 -27.383997 1883.117676
3.000000 3.160000 7.160000 -8.849498 -31.566671 1074.768311
3.000000 3.160000 7.200000 10.125669 -17.887299 422.484619
3.000000 3.200000 6.800000 -18.529598 33.171356 1443.684814
3.000000 3.200000 6.840000 -33.779545 16.091360 1399.989502
3.000000 3.200000 6.880000 -28.356934 -8.125095 870.132812
3.000000 3.200000 6.920000 -5.328800 -16.545242 302.141174
3.000000 3.200000 6.960000 12.072221 -0.704689 146.235092
3.000000 3.200000 7.000000 4.375008 21.956367 501.222748
3.000000 3.200000 7.040000 -22.083237 24.768646 1101.155151
3.000000 3.200000 7.080000 -39.763550 0.105190 1581.151001
3.000000 3.200000 7.120000 -27.855873 -31.046549 1739.837891
3.000000 3.200000 7.160000 5.539984 -39.540543 1594.145874
3.000000 3.200000 7.200000 30.846870 -17.740767 1266.264160
3.040000 2.800000 6.800000 5.274959 3.171341 37.882591
3.040000 2.800000 6.840000 -1.530596 5.981506 38.121143
3.040000 2.800000 6.880000 -6.178213 1.141220 39.472702
3.040000 2.800000 6.920000 -2.590271 -5.161339 33.348923
3.040000 2.800000 6.960000 6.608643 -4.335903 62.474213
3.040000 2.800000 7.000000 12.406425 5.743476 186.906906
3.040000 2.800000 7.040000 8.125240 18.499386 408.246796
3.040000 2.800000 7.080000 -4.480362 24.889000 639.536011
3.040000 2.800000 7.120000 -17.472071 21.420099 764.093872
3.040000 2.800000 7.160000 -24.213257 12.087198 732.382141
3.040000 2.800000 7.200000 -24.252804 3.376720 599.600708
3.040000 2.840000 6.800000 -9.111237 10.738304 198.325806
3.040000 2.840000 6.840000 -32.067398 5.560921 1059.241821
3.040000 2.840000 6.880000 -43.909164 -21.643909 2396.473633
3.040000 2.840000 6.920000 -27.770676 -52.439690 3521.131592
3.040000 2.840000 6.960000 9.589447 -60.697777 3776.177734
3.040000 2.840000 7.000000 41.505672 -36.859722 3081.359863
3.040000 2.840000 7.040000 44.477024 2.438347 1984.151245
3.040000 2.840000 7.080000 18.475433 28.880817 1175.443237
3.040000 2.840000 7.120000 -14.568298 26.897329 935.701660
3.040000 2.840000 7.160000 -31.450058 4.817484 1012.314270
3.040000 2.840000 7.200000 -26.826561 -16.241297 983.444092
3.040000 2.880000 6.800000 -28.075922 0.252064 788.320923
3.040000 2.880000 6.840000 -57.587509 -29.716784 4199.408691
3.040000 2.880000 6.880000 -50.758904 -85.491463 9885.255859
3.040000 2.880000 6.920000 5.327766 -123.834366 15363.334961
3.040000 2.880000 6.960000 78.999969 -106.726669 17631.578125
3.040000 2.880000 7.000000 118.012573 -38.787373 15431.427734
3.040000 2.880000 7.040000 95.286331 33.672108 10213.295898
3.040000 2.880000 7.080000 32.464264 62.404755 4948.282227
3.040000 2.880000 7.120000 -21.127472 37.740009 1870.678467
3.040000 2.880000 7.160000 -32.562904 -8.082699 1125.672852
3.040000 2.880000 7.200000 -9.735809 -34.995953 1319.502686
3.040000 2.920000 6.800000 -31.978584 -26.753344 1738.371338
3.040000 2.920000 6.840000 -44.086990 -84.069412 9011.329102
3.040000 2.920000 6.880000 6.050507 -146.385391 21465.292969
3.040000 2.920000 6.920000 103.771019 -152.302567 33964.496094
3.040000 2.920000 6.960000 183.893646 -77.578918 39835.363281
3.040000 2.920000 7.000000 185.604065 35.769867 35728.351562
3.040000 2.920000 7.040000 107.703194 112.107071 24167.972656
3.040000 2.920000 7.080000 10.077698 107.039543 11559.023438
3.040000 2.920000 7.120000 -40.070644 42.662209 3425.720703
3.040000 2.920000 7.160000 -24.687910 -18.864956 965.379517
3.040000 2.920000 7.200000 18.781204 -34.199245 1522.322021
3.040000 2.960000 6.800000 -10.130196 -50.752724 2678.459717
3.040000 2.960000 6.840000 14.446465 -115.054550 13446.250000
3.040000 2.960000 6.880000 104.482018 -145.594543 32114.263672
3.040000 2.960000 6.920000 207.542786 -89.856842 51148.257812
3.040000 2.960000 6.960000 243.281052 36.711758 60533.425781
3.040000 2.960000 7.000000 175.895142 154.850708 54917.843750
3.040000 2.960000 7.040000 49.794834 187.491058 37632.421875
3.040000 2.960000 7.080000 -47.984493 125.732101 18111.072266
3.040000 2.960000 7.120000 -62.884521 31.872515 4970.320312
3.040000 2.960000 7.160000 -13.636488 -20.903086 622.892822
3.040000 2.960000 7.200000 36.606663 -11.365591 1469.224365
3.040000 3.000000 6.800000 26.453598 -49.915932 3191.393066
3.040000 3.000000 6.840000 83.173073 -90.794556 15161.412109
3.040000 3.000000 6.880000 177.557785 -66.811127 35990.492188
3.040000 3.000000 6.920000 236.313766 38.592403 57333.570312
3.040000 3.000000 6.960000 198.754196 169.095001 68096.351562
3.040000 3.000000 7.000000 76.144028 237.537994 62222.210938
3.040000 3.000000 7.040000 -52.801682 200.865417 43134.929688
3.040000 3.000000 7.080000 -108.482544 96.622818 21104.429688
3.040000 3.000000 7.120000 -75.937073 6.453903 5808.091797
3.040000 3.000000 7.160000 -8.410419 -16.306271 336.629639
3.040000 3.000000 7.200000 29.420685 14.778713 1083.987061
3.040000 3.040000 6.800000 52.061447 -20.306667 3122.755127
3.040000 3.040000 6.840000 113.156189 -21.909693 13284.357422
3.040000 3.040000 6.880000 170.563187 42.062828 30861.082031
3.040000 3.040000 6.920000 163.170242 148.961990 48814.203125
3.040000 3.040000 6.960000 72.891022 229.479248 57973.828125
3.040000 3.040000 7.000000 -52.201832 224.955887 53330.183594
3.040000 3.040000 7.040000 -135.012558 139.114258 37581.167969
3.040000 3.040000 7.080000 -133.531616 34.547367 19024.214844
3.040000 3.040000 7.120000 -71.850143 -22.280334 5658.855957
3.040000 3.040000 7.160000 -11.385525 -14.532667 340.828583
3.040000 3.040000 7.200000 6.146687 21.543491 501.903778
3.040000 3.080000 6.800000 47.882328 19.094501 2657.317383
3.040000 3.080000 6.840000 84.077774 44.764221 9072.908203
3.040000 3.080000 6.880000 90.851845 107.731377 19860.107422
3.040000 3.080000 6.920000 41.565876 170.237640 30708.576172
3.040000 3.080000 6.960000 -47.579422 184.445419 36283.914062
3.040000 3.080000 7.000000 -126.141045 133.504471 33735.007812
3.040000 3.080000 7.040000 -149.394119 47.288368 24554.792969
3.040000 3.080000 7.080000 -113.515442 -22.206861 13378.900391
3.040000 3.080000 7.120000 -54.549473 -42.688316 4797.937500
3.040000 3.080000 7.160000 -14.647640 -22.564419 723.706360
3.040000 3.080000 7.200000 -8.779058 4.838213 100.480179
3.040000 3.120000 6.800000 18.068645 42.207542 2107.952637
3.040000 3.120000 6.840000 21.590765 66.238091 4853.645996
3.040000 3.120000 6.880000 0.712036 94.740700 8976.306641
3.040000 3.120000 6.920000 -42.669769 105.210098 12889.874023
3.040000 3.120000 6.960000 -88.779007 83.916946 14923.765625
3.040000 3.120000 7.000000 -113.541000 36.953918 14257.150391
3.040000 3.120000 7.040000 -105.414474 -13.870510 11304.602539
3.040000 3.120000 7.080000 -72.158646 -46.293289 7349.938477
3.040000 3.120000 7.120000 -33.512455 -51.436584 3768.806641
3.040000 3.120000 7.160000 -7.179371 -36.450020 1380.147339
3.040000 3.120000 7.200000 0.772533 -16.358614 268.201050
3.040000 3.160000 6.800000 -15.004908 37.652382 1642.849121
3.040000 3.160000 6.840000 -27.256542 38.849548 2252.206543
3.040000 3.160000 6.880000 -39.379326 31.979641 2573.428711
3.040000 3.160000 6.920000 -46.640961 21.040695 2618.090088
3.040000 3.160000 6.960000 -50.666073 9.950340 2666.060303
3.040000 3.160000 7.000000 -53.994392 -3.030159 2924.576416
3.040000 3.160000 7.040000 -53.136074 -21.415791 3282.078369
3.040000 3.160000 7.080000 -40.451523 -41.832680 3386.298828
3.040000 3.160000 7.120000 -14.438285 -52.486073 2963.251953
3.040000 3.160000 7.160000 13.668182 -43.386646 2069.220215
3.040000 3.160000 7.200000 26.833200 -18.494606 1062.071045
3.040000 3.200000 6.800000 -31.093481 16.125298 1226.829834
3.040000 3.200000 6.840000 -35.643040 -4.071342 1287.002075
3.040000 3.200000 6.880000 -20.794199 -20.861216 867.588989
3.040000 3.200000 6.920000 0.440861 -17.386040 302.468750
3.040000 3.200000 6.960000 5.626753 1.750549 34.724770
3.040000 3.200000 7.000000 -11.572159 12.829113 298.500977
3.040000 3.200000 7.040000 -31.628563 -1.736702 1003.382080
3.040000 3.200000 7.080000 -28.162556 -32.258373 1833.732178
3.040000 3.200000 7.120000 3.244123 -49.162399 2427.465820
3.040000 3.200000 7.160000 37.815041 -33.093094 2525.130127
3.040000 3.200000 7.200000 45.375629 3.800453 2073.391113
3.080000 2.800000 6.800000 -9.920961 6.360085 138.876160
3.080000 2.800000 6.840000 -13.140177 0.991398 173.647110
3.080000 2.800000 6.880000 -10.288628 -5.354649 134.528122
3.080000 2.800000 6.920000 -2.937866 -6.729294 53.914452
3.080000 2.800000 6.960000 2.885620 -1.318677 10.065712
3.080000 2.800000 7.000000 2.481651 6.936073 54.267704
3.080000 2.800000 7.040000 -3.626085 12.436848 167.823685
3.080000 2.800000 7.080000 -11.316513 12.783405 291.478912
3.080000 2.800000 7.120000 -17.294184 9.392159 387.301453
3.080000 2.800000 7.160000 -21.025209 4.380713 461.250061
3.080000 2.800000 7.200000 -22.912237 -1.742806 528.007996
3.080000 2.840000 6.800000 -21.444391 -5.664660 491.950287
3.080000 2.840000 6.840000 -28.135752 -20.459085 1210.194702
3.080000 2.840000 6.880000 -19.744781 -40.709824 2047.146240
3.080000 2.840000 6.920000 4.692047 -50.394554 2561.626465
3.080000 2.840000 6.960000 31.189514 -38.589256 2461.916504
3.080000 2.840000 7.000000 41.580502 -10.456406 1838.274536
3.080000 2.840000 7.040000 28.851793 16.010162 1088.751221
3.080000 2.840000 7.080000 2.804707 24.531715 609.671448
3.080000 2.840000 7.120000 -18.726440 12.989736 519.412781
3.080000 2.840000 7.160000 -24.317013 -6.984844 640.105164
3.080000 2.840000 7.200000 -16.040649 -21.349579 713.106934
3.080000 2.880000 6.800000 -19.352867 -27.848560 1150.075806
3.080000 2.880000 6.840000 -19.025475 -56.495144 3553.669922
3.080000 2.880000 6.880000 11.260544 -83.785988 7146.891602
3.080000 2.880000 6.920000 61.750656 -80.650436 10317.636719
3.080000 2.880000 6.960000 99.369804 -37.950905 11314.629883
3.080000 2.880000 7.000000 95.468285 21.021126 9556.081055
3.080000 2.880000 7.040000 51.977203 58.181736 6086.744141
3.080000 2.880000 7.080000 0.419067 52.627254 2769.803467
3.080000 2.880000 7.120000 -25.381081 16.838665 927.739929
3.080000 2.880000 7.160000 -16.729546 -17.296696 579.053345
3.080000 2.880000 7.200000 7.411716 -27.597872 816.576050
3.080000 2.920000 6.800000 2.615092 -44.253571 1965.217285
3.080000 2.920000 6.840000 22.539455 -78.976746 6745.353027
3.080000 2.920000 6.880000 79.225021 -91.183472 14591.029297
3.080000 2.920000 6.920000 139.970322 -51.052834 22198.083984
3.080000 2.920000 6.960000 156.706635 29.601185 25433.199219
3.080000 2.920000 7.000000 110.020157 101.240295 22354.031250
3.080000 2.920000 7.040000 29.567621 117.673447 14721.284180
3.080000 2.920000 7.080000 -30.399385 75.764862 6664.437012
3.080000 2.920000 7.120000 -37.412621 15.707321 1646.424194
3.080000 2.920000 7.160000 -4.785845 -17.160244 317.378265
3.080000 2.920000 7.200000 27.550198 -10.775265 875.119690
3.080000 2.960000 6.800000 33.652397 -38.628059 2624.610840
3.080000 2.960000 6.840000 74.956116 -61.787529 9436.118164
3.080000 2.960000 6.880000 140.223969 -38.971725 21181.556641
3.080000 2.960000 6.920000 177.322922 40.064137 33048.554688
3.080000 2.960000 6.960000 144.401108 133.452240 38661.179688
3.080000 2.960000 7.000000 52.277100 178.711273 34670.613281
3.080000 2.960000 7.040000 -40.485241 147.259644 23324.457031
3.080000 2.960000 7.080000 -77.213158 69.337563 10769.569336
3.080000 2.960000 7.120000 -50.142910 5.212446 2541.481201
3.080000 2.960000 7.160000 -0.528787 -8.331007 69.685295
3.080000 2.960000 7.200000 24.880955 15.644366 863.808105
3.080000 3.000000 6.800000 52.455803 -10.064286 2852.901123
3.080000 3.000000 6.840000 100.926880 -7.786362 10246.862305
3.080000 3.000000 6.880000 145.119202 48.053272 23368.699219
3.080000 3.000000 6.920000 134.008316 137.656204 36907.460938
3.080000 3.000000 6.960000 54.057739 201.894638 43683.683594
3.080000 3.000000 7.000000 -51.684410 192.532700 39740.117188
3.080000 3.000000 7.040000 -117.476791 116.200348 27303.316406
3.080000 3.000000 7.080000 -110.687775 28.792210 13080.774414
3.080000 3.000000 7.120000 -56.236298 -14.259932 3365.866943
3.080000 3.000000 7.160000 -8.050951 -3.276621 75.554054
3.080000 3.000000 7.200000 1.579975 26.741451 717.601562
3.080000 3.040000 6.800000 44.965843 24.108004 2603.122803
3.080000 3.040000 6.840000 79.733719 49.354584 8793.340820
3.080000 3.040000 6.880000 85.167938 112.534607 19917.615234
3.080000 3.040000 6.920000 33.224567 174.333359 31495.990234
3.080000 3.040000 6.960000 -58.009476 184.827621 37526.347656
3.080000 3.040000 7.000000 -134.538208 128.606918 34640.269531
3.080000 3.040000 7.040000 -151.252396 40.403767 24509.751953
3.080000 3.040000 7.080000 -109.167816 -24.563459 12520.975586
3.080000 3.040000 7.120000 -50.263424 -36.907738 3888.593018
3.080000 3.040000 7.160000 -17.238829 -12.279351 447.959686
3.080000 3.040000 7.200000 -18.665123 11.546995 481.719910
3.080000 3.080000 6.800000 16.637367 42.234116 2060.522461
3.080000 3.080000 6.840000 26.449154 72.601265 5970.501465
3.080000 3.080000 6.880000 2.226067 113.465912 12879.467773
3.080000 3.080000 6.920000 -56.251213 129.828705 20019.691406
3.080000 3.080000 6.960000 -118.347504 99.357391 23878.023438
3.080000 3.080000 7.000000 -146.237122 33.513435 22508.445312
3.080000 3.080000 7.040000 -125.826149 -30.856831 16784.363281
3.080000 3.080000 7.080000 -76.472969 -61.542694 9635.618164
3.080000 3.080000 7.120000 -32.012691 -54.534023 3998.771973
3.080000 3.080000 7.160000 -12.654560 -31.034601 1123.284424
3.080000 3.080000 7.200000 -13.755827 -14.391894 396.349396
3.080000 3.120000 6.800000 -12.797762 36.207603 1474.773315
3.080000 3.120000 6.840000 -21.387760 52.599712 3224.166016
3.080000 3.120000 6.880000 -47.835583 60.677212 5969.966797
3.080000 3.120000 6.920000 -80.185165 47.080124 8646.199219
3.080000 3.120000 6.960000 -100.006897 12.644085 10161.252930
3.080000 3.120000 7.000000 -95.883743 -28.327927 9996.164062
3.080000 3.120000 7.040000 -70.328430 -58.647598 8385.628906
3.080000 3.120000 7.080000 -36.004105 -68.925148 6046.971680
3.080000 3.120000 7.120000 -6.498384 -60.718246 3728.934570
3.080000 3.120000 7.160000 10.429712 -42.432980 1909.336670
3.080000 3.120000 7.200000 14.002523 -23.421978 744.659729
3.080000 3.160000 6.800000 -26.930401 16.325287 991.761475
3.080000 3.160000 6.840000 -36.546303 12.586473 1494.051514
3.080000 3.160000 6.880000 -42.765198 1.904430 1832.489014
3.080000 3.160000 6.920000 -42.878410 -10.002857 1938.615234
3.080000 3.160000 6.960000 -40.220459 -20.045258 2019.497681
3.080000 3.160000 7.000000 -36.811359 -30.983429 2315.049072
3.080000 3.160000 7.040000 -28.191685 -45.015251 2821.143799
3.080000 3.160000 7.080000 -8.614689 -56.270645 3240.598389
3.080000 3.160000 7.120000 18.647940 -53.431664 3202.688232
3.080000 3.160000 7.160000 39.221031 -32.069504 2566.742432
3.080000 3.160000 7.200000 39.251049 -3.137890 1550.491211
3.080000 3.200000 6.800000 -25.288439 -0.718305 640.021118
3.080000 3.200000 6.840000 -22.422529 -16.004578 758.916321
3.080000 3.200000 6.880000 -6.863222 -22.766884 565.434814
3.080000 3.200000 6.920000 5.973806 -13.428997 216.024323
3.080000 3.200000 6.960000 1.987427 0.011856 3.950006
3.080000 3.200000 7.000000 -13.177704 -1.794097 176.870667
3.080000 3.200000 7.040000 -17.610321 -22.271235 806.131287
3.080000 3.200000 7.080000 2.883904 -41.458313 1727.108643
3.080000 3.200000 7.120000 36.283836 -35.314335 2563.619141
3.080000 3.200000 7.160000 53.575424 -2.469832 2876.426270
3.080000 3.200000 7.200000 38.123238 31.227745 2428.553223
3.120000 2.800000 6.800000 -22.095310 -5.008563 513.288452
3.120000 2.800000 6.840000 -16.282375 -12.193482 413.796753
3.120000 2.800000 6.880000 -7.834721 -13.145927 234.198257
3.120000 2.800000 6.920000 -2.470238 -8.630363 80.585251
3.120000 2.800000 6.960000 -2.330084 -3.557243 18.083271
3.120000 2.800000 7.000000 -4.534580 -1.536903 22.924490
3.120000 2.800000 7.040000 -5.492281 -1.465771 32.313641
3.120000 2.800000 7.080000 -5.541851 -0.177868 30.743750
3.120000 2.800000 7.120000 -8.053247 2.278375 70.045792
3.120000 2.800000 7.160000 -13.971636 1.690833 198.065521
3.120000 2.800000 7.200000 -18.752823 -5.193136 378.637024
3.120000 2.840000 6.800000 -15.840358 -27.225475 992.143433
3.120000 2.840000 6.840000 -5.962547 -34.734543 1242.040527
3.120000 2.840000 6.880000 8.351288 -36.100040 1372.956909
3.120000 2.840000 6.920000 22.120052 -28.524473 1302.942261
3.120000 2.840000 6.960000 29.078770 -13.792252 1035.801025
3.120000 2.840000 7.000000 25.753647 2.040661 667.414612
3.120000 2.840000 7.040000 13.799164 11.988708 334.146057
3.120000 2.840000 7.080000 -0.840260 12.021566 145.224091
3.120000 2.840000 7.120000 -11.170454 3.120704 134.517838
3.120000 2.840000 7.160000 -12.789952 -9.446215 252.813858
3.120000 2.840000 7.200000 -6.047360 -19.057167 399.746185
3.120000 2.880000 6.800000 9.203349 -39.893566 1676.198242
3.120000 2.880000 6.840000 24.683189 -45.476200 2677.344482
3.120000 2.880000 6.880000 47.213608 -40.536289 3872.315430
3.120000 2.880000 6.920000 65.953026 -18.968744 4709.615234
3.120000 2.880000 6.960000 67.126366 13.140457 4678.620117
3.120000 2.880000 7.000000 46.412712 39.288113 3697.695801
3.120000 2.880000 7.040000 14.579552 44.717815 2212.246338
3.120000 2.880000 7.080000 -9.800806 28.387220 901.890076
3.120000 2.880000 7.120000 -14.552956 3.673429 225.282593
3.120000 2.880000 7.160000 -2.401559 -12.805342 169.744263
3.120000 2.880000 7.200000 13.394345 -14.004372 375.530914
3.120000 2.920000 6.800000 39.333195 -28.807911 2376.996094
3.120000 2.920000 6.840000 59.715305 -28.061066 4353.341309
3.120000 2.920000 6.880000 84.600494 -8.755173 7233.896484
3.120000 2.920000 6.920000 93.945297 30.903711 9780.757812
3.120000 2.920000 6.960000 72.573433 72.521057 10526.207031
3.120000 2.920000 7.000000 27.021389 90.209854 8867.973633
3.120000 2.920000 7.040000 -16.627590 72.919235 5593.691406
3.120000 2.920000 7.080000 -33.552475 34.855911 2340.703125
3.120000 2.920000 7.120000 -20.381613 3.347137 426.613464
3.120000 2.920000 7.160000 4.278189 -4.359015 37.303917
3.120000 2.920000 7.200000 18.564556 6.662760 389.035095
3.120000 2.960000 6.800000 52.928619 3.089329 2810.982666
3.120000 2.960000 6.840000 73.292587 13.629434 5557.564453
3.120000 2.960000 6.880000 88.068108 47.691631 10030.483398
3.120000 2.960000 6.920000 73.755875 94.466934 14363.931641
3.120000 2.960000 6.960000 25.706406 124.277969 16105.833008
3.120000 2.960000 7.000000 -32.387978 113.954254 14034.553711
3.120000 2.960000 7.040000 -66.226761 69.120743 9163.661133
3.120000 2.960000 7.080000 -60.014587 20.678753 4029.361572
3.120000 2.960000 7.120000 -28.804161 -1.954977 833.501648
3.120000 2.960000 7.160000 -2.444971 5.131140 32.306480
3.120000 2.960000 7.200000 2.136328 21.716358 476.164124
3.120000 3.000000 6.800000 38.893677 35.535469 2775.487793
3.120000 3.000000 6.840000 52.147896 54.454185 5684.661133
3.120000 3.000000 6.880000 47.387077 92.439789 10790.649414
3.120000 3.000000 6.920000 9.257361 126.114456 15990.555664
3.120000 3.000000 6.960000 -49.668438 126.213318 18396.755859
3.120000 3.000000 7.000000 -95.531952 85.552231 16445.537109
3.120000 3.000000 7.040000 -101.708115 28.078484 11132.942383
3.120000 3.000000 7.080000 -71.799667 -11.143419 5279.368164
3.120000 3.000000 7.120000 -34.550411 -15.793659 1443.170654
3.120000 3.000000 7.160000 -16.458704 0.953166 271.797485
3.120000 3.000000 7.200000 -19.764713 13.738454 579.389038
3.120000 3.040000 6.800000 7.159894 47.284138 2287.053955
3.120000 3.040000 6.840000 9.021317 67.815430 4680.316895
3.120000 3.040000 6.880000 -12.842422 94.477188 9090.867188
3.120000 3.040000 6.920000 -58.248558 101.573624 13710.095703
3.120000 3.040000 6.960000 -103.318535 73.342857 16053.894531
3.120000 3.040000 7.000000 -119.607452 20.739128 14736.053711
3.120000 3.040000 7.040000 -98.949478 -26.406157 10488.284180
3.120000 3.040000 7.080000 -59.793747 -44.695694 5572.997070
3.120000 3.040000 7.120000 -29.351101 -35.304775 2107.914307
3.120000 3.040000 7.160000 -19.994511 -18.335327 735.964722
3.120000 3.040000 7.200000 -22.810249 -11.098144 643.476318
3.120000 3.080000 6.800000 -19.839533 34.185169 1562.232910
3.120000 3.080000 6.840000 -27.420853 48.264729 3081.387207
3.120000 3.080000 6.880000 -52.998795 55.513416 5890.611816
3.120000 3.080000 6.920000 -84.861771 40.447147 8837.492188
3.120000 3.080000 6.960000 -102.171928 3.808601 10453.608398
3.120000 3.080000 7.000000 -92.699844 -36.781700 9946.154297
3.120000 3.080000 7.040000 -62.697876 -61.321644 7691.367676
3.120000 3.080000 7.080000 -30.207508 -62.910637 4870.241699
3.120000 3.080000 7.120000 -9.506617 -50.127781 2603.170166
3.120000 3.080000 7.160000 -1.947395 -36.187279 1313.311523
3.120000 3.080000 7.200000 -0.167564 -27.211533 740.495605
3.120000 3.120000 6.800000 -27.169651 11.354674 867.118591
3.120000 3.120000 6.840000 -37.250240 14.763474 1605.540527
3.120000 3.120000 6.880000 -52.332359 7.370068 2792.993652
3.120000 3.120000 6.920000 -61.656807 -11.853310 3942.062744
3.120000 3.120000 6.960000 -58.050446 -35.363335 4620.419922
3.120000 3.120000 7.000000 -42.365223 -53.769489 4685.970215
3.120000 3.120000 7.040000 -20.664955 -61.978172 4268.334473
3.120000 3.120000 7.080000 0.967542 -59.822838 3579.708008
3.120000 3.120000 7.120000 18.422329 -49.198128 2759.837891
3.120000 3.120000 7.160000 28.435993 -32.738750 1880.431519
3.120000 3.120000 7.200000 28.505178 -15.023421 1038.248413
3.120000 3.160000 6.800000 -19.258354 -2.680079 378.067047
3.120000 3.160000 6.840000 -24.452850 -8.323265 667.218628
3.120000 3.160000 6.880000 -24.006945 -17.738174 890.976196
3.120000 3.160000 6.920000 -18.610916 -24.820942 962.445374
3.120000 3.160000 6.960000 -13.055874 -28.854397 1003.032104
3.120000 3.160000 7.000000 -7.986595 -34.029507 1221.792969
3.120000 3.160000 7.040000 2.039391 -41.157764 1698.120605
3.120000 3.160000 7.080000 20.495054 -42.843773 2255.636230
3.120000 3.160000 7.120000 40.469135 -30.205078 2550.097656
3.120000 3.160000 7.160000 47.890564 -4.880991 2317.330078
3.120000 3.160000 7.200000 35.430984 18.289911 1589.875488
3.120000 3.200000 6.800000 -12.201487 -3.627464 162.034775
3.120000 3.200000 6.840000 -8.527149 -12.917078 239.563171
3.120000 3.200000 6.880000 2.012890 -14.095199 202.726349
3.120000 3.200000 6.920000 7.007633 -6.088985 86.182663
3.120000 3.200000 6.960000 1.050407 -0.920071 1.949887
3.120000 3.200000 7.000000 -5.428535 -8.748434 106.004089
3.120000 3.200000 7.040000 2.782810 -22.945963 534.261230
3.120000 3.200000 7.080000 26.119495 -24.408417 1277.998779
3.120000 3.200000 7.120000 45.477242 -2.744242 2075.710205
3.120000 3.200000 7.160000 40.449699 29.048246 2479.978760
3.120000 3.200000 7.200000 12.229998 44.823547 2158.723145
3.160000 2.800000 6.800000 -20.797300 -22.519773 939.667908
3.160000 2.800000 6.840000 -8.263774 -23.406530 616.155640
3.160000 2.800000 6.880000 -1.081266 -16.993828 289.959320
3.160000 2.800000 6.920000 -1.365171 -11.256390 128.569992
3.160000 2.800000 6.960000 -3.366874 -11.213930 137.088074
3.160000 2.800000 7.000000 -0.670170 -13.637878 186.440857
3.160000 2.800000 7.040000 5.836235 -11.335515 162.555542
3.160000 2.800000 7.080000 8.505575 -2.474873 78.469803
3.160000 2.800000 7.120000 2.024529 5.895916 38.860538
3.160000 2.800000 7.160000 -9.212729 4.936146 109.239906
3.160000 2.800000 7.200000 -14.368826 -5.746658 239.487244
3.160000 2.840000 6.800000 4.653432 -37.350376 1416.704956
3.160000 2.840000 6.840000 17.578077 -28.309925 1110.440674
3.160000 2.840000 6.880000 20.945528 -16.031033 695.709167
3.160000 2.840000 6.920000 17.621635 -8.048086 375.293732
3.160000 2.840000 6.960000 14.289501 -5.420618 233.572952
3.160000 2.840000 7.000000 13.840881 -3.498834 203.811829
3.160000 2.840000 7.040000 12.952807 1.135602 169.064819
3.160000 2.840000 7.080000 7.387836 5.724506 87.350098
3.160000 2.840000 7.120000 -1.291346 4.393400 20.969540
3.160000 2.840000 7.160000 -5.877146 -4.163519 51.875732
3.160000 2.840000 7.200000 -1.025056 -13.422481 181.213715
3.160000 2.880000 6.800000 36.811287 -26.310980 2047.338379
3.160000 2.880000 6.840000 42.492706 -9.163896 1889.607056
3.160000 2.880000 6.880000 38.326138 5.644995 1500.758789
3.160000 2.880000 6.920000 29.732901 13.980625 1079.503174
3.160000 2.880000 6.960000 21.564095 17.202593 760.939331
3.160000 2.880000 7.000000 14.599984 18.276844 547.202576
3.160000 2.880000 7.040000 7.453481 17.575006 364.435242
3.160000 2.880000 7.080000 0.737072 13.223270 175.398148
3.160000 2.880000 7.120000 -2.022637 5.156120 30.676638
3.160000 2.880000 7.160000 1.849655 -2.535137 9.848145
3.160000 2.880000 7.200000 10.137377 -4.433026 122.418137
3.160000 2.920000 6.800000 51.081367 8.276257 2677.802490
3.160000 2.920000 6.840000 45.481735 26.280983 2759.278320
3.160000 2.920000 6.880000 33.193127 38.046825 2549.344727
3.160000 2.920000 6.920000 18.965988 42.615395 2175.780518
3.160000 2.920000 6.960000 5.799618 41.270035 1736.851440
3.160000 2.920000 7.000000 -4.718832 35.302864 1268.559570
3.160000 2.920000 7.040000 -10.954279 25.952436 793.525146
3.160000 2.920000 7.080000 -11.366660 15.734669 376.780762
3.160000 2.920000 7.120000 -6.412862 8.414600 111.930298
3.160000 2.920000 7.160000 0.532806 6.636084 44.321495
3.160000 2.920000 7.200000 5.188290 9.563642 118.381592
3.160000 2.960000 6.800000 33.966846 43.468941 3043.295410
3.160000 2.960000 6.840000 19.815285 54.385498 3350.427979
3.160000 2.960000 6.880000 3.077802 58.338158 3412.813477
3.160000 2.960000 6.920000 -13.367520 55.280144 3234.584961
3.160000 2.960000 6.960000 -26.598772 45.700001 2795.984619
3.160000 2.960000 7.000000 -33.398811 31.695539 2120.087891
3.160000 2.960000 7.040000 -32.099686 17.752602 1345.544678
3.160000 2.960000 7.080000 -24.800566 8.830582 693.047241
3.160000 2.960000 7.120000 -16.707218 6.770270 324.967682
3.160000 2.960000 7.160000 -12.227579 8.779624 226.595490
3.160000 2.960000 7.200000 -11.399552 10.256393 235.143402
3.160000 3.000000 6.800000 -3.297956 53.931911 2919.527588
3.160000 3.000000 6.840000 -18.534786 54.722149 3338.052002
3.160000 3.000000 6.880000 -33.661686 50.038208 3636.931396
3.160000 3.000000 6.920000 -46.471130 39.223526 3698.050781
3.160000 3.000000 6.960000 -53.225410 23.345974 3377.978760
3.160000 3.000000 7.000000 -51.218658 6.881532 2670.706543
3.160000 3.000000 7.040000 -42.112663 -4.330534 1792.229980
3.160000 3.000000 7.080000 -31.672058 -7.714370 1062.630737
3.160000 3.000000 7.120000 -25.134132 -6.207603 670.258911
3.160000 3.000000 7.160000 -22.706940 -5.157567 542.205627
3.160000 3.000000 7.200000 -20.159414 -6.648852 450.609222
3.160000 3.040000 6.800000 -33.358208 34.289356 2288.530029
3.160000 3.040000 6.840000 -43.300434 28.380459 2680.377930
3.160000 3.040000 6.880000 -52.210655 18.592064 3071.617432
3.160000 3.040000 6.920000 -57.103432 4.446648 3280.574707
3.160000 3.040000 6.960000 -54.780010 -11.079395 3123.602539
3.160000 3.040000 7.000000 -45.601318 -22.757805 2597.397949
3.160000 3.040000 7.040000 -34.124851 -27.483547 1919.850830
3.160000 3.040000 7.080000 -25.260530 -27.024185 1368.401001
3.160000 3.040000 7.120000 -19.876644 -25.797882 1060.611694
3.160000 3.040000 7.160000 -14.819677 -25.843433 887.505859
3.160000 3.040000 7.200000 -7.540144 -24.617428 662.871521
3.160000 3.080000 6.800000 -36.961391 3.723042 1380.005493
3.160000 3.080000 6.840000 -40.718842 -2.998704 1667.016235
3.160000 3.080000 6.880000 -42.811317 -12.878948 1998.676270
3.160000 3.080000 6.920000 -40.096531 -24.331684 2199.762695
3.160000 3.080000 6.960000 -32.257687 -33.412674 2156.965088
3.160000 3.080000 7.000000 -22.406031 -37.698860 1923.234375
3.160000 3.080000 7.040000 -13.748643 -38.392574 1663.014893
3.160000 3.080000 7.080000 -6.395614 -38.098694 1492.414429
3.160000 3.080000 7.120000 1.742539 -37.014397 1373.102051
3.160000 3.080000 7.160000 10.955022 -32.405739 1170.144409
3.160000 3.080000 7.200000 17.614502 -22.401104 812.080139
3.160000 3.120000 6.800000 -19.702461 -12.608207 547.153870
3.160000 3.120000 6.840000 -20.689766 -17.396862 730.717224
3.160000 3.120000 6.880000 -18.362154 -24.350069 930.094543
3.160000 3.120000 6.920000 -12.219410 -29.540581 1021.959900
3.160000 3.120000 6.960000 -5.425749 -31.254906 1006.307861
3.160000 3.120000 7.000000 -0.155237 -31.767982 1009.228821
3.160000 3.120000 7.040000 5.625980 -33.399410 1147.172241
3.160000 3.120000 7.080000 15.207694 -33.925598 1382.220093
3.160000 3.120000 7.120000 27.240404 -27.945768 1523.005615
3.160000 3.120000 7.160000 34.606499 -13.643779 1383.762451
3.160000 3.120000 7.200000 30.856102 2.840365 960.166748
3.160000 3.160000 6.800000 -4.496124 -7.408353 75.098831
3.160000 3.160000 6.840000 -5.111769 -12.149271 173.734955
3.160000 3.160000 6.880000 -0.670515 -15.859703 251.979767
3.160000 3.160000 6.920000 4.304178 -15.195657 249.433945
3.160000 3.160000 6.960000 5.795698 -13.637548 219.572845
3.160000 3.160000 7.000000 6.745214 -16.079170 304.037598
3.160000 3.160000 7.040000 13.845570 -20.444803 609.689819
3.160000 3.160000 7.080000 27.654858 -17.774857 1080.736694
3.160000 3.160000 7.120000 38.447903 -2.503807 1484.510254
3.160000 3.160000 7.160000 34.793468 18.552282 1554.772705
3.160000 3.160000 7.200000 16.664297 30.346489 1198.608154
3.160000 3.200000 6.800000 -7.379840 3.502789 66.731567
3.160000 3.200000 6.840000 -5.443962 -3.557205 42.290428
3.160000 3.200000 6.880000 0.519629 -4.203431 17.938848
3.160000 3.200000 6.920000 1.995223 -0.305054 4.073973
3.160000 3.200000 6.960000 -1.264875 -0.469500 1.820340
3.160000 3.200000 7.000000 -0.123728 -7.237502 52.396744
3.160000 3.200000 7.040000 11.659618 -11.173978 260.804474
3.160000 3.200000 7.080000 26.478535 -0.874475 701.877502
3.160000 3.200000 7.120000 28.238865 21.609154 1264.389038
3.160000 3.200000 7.160000 10.194807 38.994030 1624.468506
3.160000 3.200000 7.200000 -14.729040 35.409874 1470.803711
3.200000 2.800000 6.800000 -7.135613 -33.351295 1163.225952
3.200000 2.800000 6.840000 4.242075 -25.520824 669.307678
3.200000 2.800000 6.880000 5.146447 -16.559731 300.710602
3.200000 2.800000 6.920000 1.743676 -15.074602 230.284027
3.200000 2.800000 6.960000 3.928022 -19.045504 378.160553
3.200000 2.800000 7.000000 13.586496 -18.475681 525.943665
3.200000 2.800000 7.040000 21.717308 -7.321846 525.250916
3.200000 2.800000 7.080000 18.094238 8.400116 397.963409
3.200000 2.800000 7.120000 3.264038 15.821711 260.980469
3.200000 2.800000 7.160000 -10.598372 8.703045 188.068466
3.200000 2.800000 7.200000 -11.577005 -5.314507 162.271027
3.200000 2.840000 6.800000 24.768259 -29.579197 1488.395508
3.200000 2.840000 6.840000 26.567459 -10.101761 807.875488
3.200000 2.840000 6.880000 15.046551 -0.042284 226.400482
3.200000 2.840000 6.920000 5.041263 -4.421224 44.961548
3.200000 2.840000 6.960000 7.390737 -13.095960 226.127151
3.200000 2.840000 7.000000 18.041080 -12.438068 480.186157
3.200000 2.840000 7.040000 23.275194 -0.268235 541.806641
3.200000 2.840000 7.080000 15.214960 12.025503 376.107727
3.200000 2.840000 7.120000 0.633345 12.233993 150.071701
3.200000 2.840000 7.160000 -6.382919 0.853654 41.470383
3.200000 2.840000 7.200000 0.251726 -9.343094 87.356773
3.200000 2.880000 6.800000 44.010742 1.055583 1938.059692
3.200000 2.880000 6.840000 27.955429 21.123562 1227.710938
3.200000 2.880000 6.880000 5.412036 20.497238 449.426910
3.200000 2.880000 6.920000 -4.258017 4.328278 36.864693
3.200000 2.880000 6.960000 4.298851 -9.071058 100.764214
3.200000 2.880000 7.000000 18.705723 -6.723174 395.105103
3.200000 2.880000 7.040000 22.768415 7.102795 568.850464
3.200000 2.880000 7.080000 12.948726 17.186100 463.031525
3.200000 2.880000 7.120000 0.438879 14.096233 198.896408
3.200000 2.880000 7.160000 -2.118785 3.322996 15.531555
3.200000 2.880000 7.200000 5.860145 -2.074359 38.644268
3.200000 2.920000 6.800000 31.727240 38.370476 2478.911133
3.200000 2.920000 6.840000 1.643346 44.129341 1950.099365
3.200000 2.920000 6.880000 -20.418522 25.691765 1076.982788
3.200000 2.920000 6.920000 -19.095030 -0.017727 364.620483
3.200000 2.920000 6.960000 0.188646 -11.645343 135.649597
3.200000 2.920000 7.000000 17.779205 -2.578907 322.750885
3.200000 2.920000 7.040000 18.890047 15.062489 583.712463
3.200000 2.920000 7.080000 6.029290 24.113716 617.823669
3.200000 2.920000 7.120000 -6.359988 18.840664 395.420074
3.200000 2.920000 7.160000 -7.634683 8.041821 122.959259
3.200000 2.920000 7.200000 -0.306394 3.669488 13.559022
3.200000 2.960000 6.800000 -6.147121 53.560429 2906.506592
3.200000 2.960000 6.840000 -35.327812 38.195648 2706.961914
3.200000 2.960000 6.880000 -42.959011 6.803159 1891.759644
3.200000 2.960000 6.920000 -25.104725 -17.399300 932.982788
3.200000 2.960000 6.960000 1.905340 -18.113894 331.743439
3.200000 2.960000 7.000000 16.393784 0.824646 269.436188
3.200000 2.960000 7.040000 9.880179 20.768482 528.947815
3.200000 2.960000 7.080000 -7.826164 25.836399 728.768372
3.200000 2.960000 7.120000 -20.038765 15.620070 645.538696
3.200000 2.960000 7.160000 -18.582235 2.339331 350.771942
3.200000 2.960000 7.200000 -8.748582 -2.386984 82.235374
3.200000 3.000000 6.800000 -41.653000 34.577282 2930.560791
3.200000 3.000000 6.840000 -54.988102 5.604467 3055.101562
3.200000 3.000000 6.880000 -42.969093 -24.302034 2436.931885
3.200000 3.000000 6.920000 -14.047876 -34.908974 1415.979248
3.200000 3.000000 6.960000 10.453079 -20.926060 547.166809
3.200000 3.000000 7.000000 14.046329 3.998221 213.285141
3.200000 3.000000 7.040000 -2.004385 19.530186 385.445709
3.200000 3.000000 7.080000 -21.579056 15.620813 709.665466
3.200000 3.000000 7.120000 -28.650099 -0.911223 821.658508
3.200000 3.000000 7.160000 -20.067238 -14.606893 616.055359
3.200000 3.000000 7.200000 -5.672470 -15.338160 267.436035
3.200000 3.040000 6.800000 -48.862343 -2.144067 2392.125488
3.200000 3.040000 6.840000 -43.174229 -28.836832 2695.576904
3.200000 3.040000 6.880000 -19.403690 -44.328491 2341.518311
3.200000 3.040000 6.920000 7.561078 -37.913986 1494.640259
3.200000 3.040000 6.960000 19.612705 -15.138575 613.834656
3.200000 3.040000 7.000000 10.262890 6.131067 142.916901
3.200000 3.040000 7.040000 -10.179287 10.351652 210.774582
3.200000 3.040000 7.080000 -23.775145 -3.197984 575.484619
3.200000 3.040000 7.120000 -20.129387 -21.019634 847.017212
3.200000 3.040000 7.160000 -4.062768 -27.860161 792.694641
3.200000 3.040000 7.200000 10.200910 -19.342604 478.194885
3.200000 3.080000 6.800000 -27.275635 -26.398014 1440.815430
3.200000 3.080000 6.840000 -12.576389 -39.780041 1740.617188
3.200000 3.080000 6.880000 8.893325 -39.334404 1626.286499
3.200000 3.080000 6.920000 23.584972 -23.596310 1113.036743
3.200000 3.080000 6.960000 21.522190 -3.389284 474.691925
3.200000 3.080000 7.000000 5.717463 6.200768 71.138901
3.200000 3.080000 7.040000 -9.510720 -1.227483 91.960510
3.200000 3.080000 7.080000 -10.767274 -17.531796 423.298035
3.200000 3.080000 7.120000 2.688638 -27.290726 752.012451
3.200000 3.080000 7.160000 18.739626 -21.590757 817.334351
3.200000 3.080000 7.200000 23.817329 -5.455666 597.029480
3.200000 3.120000 6.800000 -1.406013 -22.325657 500.411835
3.200000 3.120000 6.840000 9.426172 -24.353773 681.958984
3.200000 3.120000 6.880000 20.315603 -17.257158 710.533203
3.200000 3.120000 6.920000 22.635040 -3.764493 526.516418
3.200000 3.120000 6.960000 13.777411 6.086119 226.857910
3.200000 3.120000 7.000000 1.590734 3.980651 18.376017
3.200000 3.120000 7.040000 -1.911163 -7.629815 61.866623
3.200000 3.120000 7.080000 7.656216 -16.629635 335.162415
3.200000 3.120000 7.120000 21.930264 -12.642269 640.763428
3.200000 3.120000 7.160000 27.441368 2.510838 759.333008
3.200000 3.120000 7.200000 18.766911 16.316803 618.434998
3.200000 3.160000 6.800000 3.749125 -2.537876 20.496750
3.200000 3.160000 6.840000 6.896128 -3.566700 60.277924
3.200000 3.160000 6.880000 10.165315 0.204996 103.375648
3.200000 3.160000 6.920000 8.078135 5.825505 99.192780
3.200000 3.160000 6.960000 1.663797 6.299610 42.453304
3.200000 3.160000 7.000000 -1.166225 -0.344303 1.478625
3.200000 3.160000 7.040000 5.447667 -6.771203 75.526268
3.200000 3.160000 7.080000 17.009224 -3.287483 300.121246
3.200000 3.160000 7.120000 21.605249 10.744205 582.224731
3.200000 3.160000 7.160000 12.342828 24.291981 742.445740
3.200000 3.160000 7.200000 -4.142164 25.233574 653.890808
3.200000 3.200000 6.800000 -12.737674 5.966984 197.853241
3.200000 3.200000 6.840000 -10.253237 -0.606903 105.497192
3.200000 3.200000 6.880000 -6.195051 -1.536894 40.740700
3.200000 3.200000 6.920000 -5.606466 -0.583850 31.773346
3.200000 3.200000 6.960000 -5.947434 -2.897013 43.764660
3.200000 3.200000 7.000000 -1.228641 -6.527918 44.123272
3.200000 3.200000 7.040000 8.099955 -3.627404 78.767326
3.200000 3.200000 7.080000 12.671251 8.953019 240.717163
3.200000 3.200000 7.120000 4.070624 22.739954 533.675537
3.200000 3.200000 7.160000 -13.662012 24.514656 787.618958
3.200000 3.200000 7.200000 -25.479124 11.103477 772.473022
