#kx 	ky 	kz 	real 	imag 	intensity
8.800000 0.800000 0.800000 -31.028154 25.182972 1596.928467
8.800000 0.800000 0.840000 -35.509052 10.476441 1370.648682
8.800000 0.800000 0.880000 -34.460114 -1.585612 1190.013550
8.800000 0.800000 0.920000 -31.122303 -12.456154 1123.753418
8.800000 0.800000 0.960000 -23.074810 -23.434612 1081.627930
8.800000 0.800000 1.000000 -7.605389 -29.552517 931.193176
8.800000 0.800000 1.040000 10.294621 -23.447731 655.775330
8.800000 0.800000 1.080000 19.001923 -5.420723 390.457306
8.800000 0.800000 1.120000 11.208868 13.046681 295.854614
8.800000 0.800000 1.160000 -7.189316 18.478170 393.129028
8.800000 0.800000 1.200000 -21.458981 8.403666 531.109436
8.800000 0.840000 0.800000 -36.772671 -4.776775 1375.046997
8.800000 0.840000 0.840000 -30.177896 -17.293427 1209.768066
8.800000 0.840000 0.880000 -21.048269 -24.486502 1042.618408
8.800000 0.840000 0.920000 -11.208660 -27.922379 905.293335
8.800000 0.840000 0.960000 -0.631905 -27.261284 743.576904
8.800000 0.840000 1.000000 8.300014 -20.823807 502.521179
8.800000 0.840000 1.040000 10.754179 -10.297955 221.700226
8.800000 0.840000 1.080000 4.918505 -2.255144 29.277363
8.800000 0.840000 1.120000 -3.930763 -2.673393 22.597931
8.800000 0.840000 1.160000 -7.282173 -10.024881 153.528290
8.800000 0.840000 1.200000 -2.241879 -15.753710 253.205383
8.800000 0.880000 0.800000 -19.009758 -28.795044 1190.525391
8.800000 0.880000 0.840000 -5.545409 -31.935844 1050.649658
8.800000 0.880000 0.880000 6.060193 -28.672539 858.840454
8.800000 0.880000 0.920000 13.538523 -20.820477 616.783813
8.800000 0.880000 0.960000 14.597637 -10.913477 332.195007
8.800000 0.880000 1.000000 8.415467 -3.975601 86.625496
8.800000 0.880000 1.040000 -0.821286 -5.579536 31.805738
8.800000 0.880000 1.080000 -4.307236 -15.905526 271.538055
8.800000 0.880000 1.120000 4.219791 -26.458387 717.852905
8.800000 0.880000 1.160000 20.637413 -25.708694 1086.839722
8.800000 0.880000 1.200000 31.456465 -10.396860 1097.603882
8.800000 0.920000 0.800000 8.702629 -31.041628 1039.318359
8.800000 0.920000 0.840000 20.299831 -22.642040 924.745117
8.800000 0.920000 0.880000 25.167820 -10.016287 733.745178
8.800000 0.920000 0.920000 21.114950 2.902515 454.265717
8.800000 0.920000 0.960000 8.323677 9.281843 155.436218
8.800000 0.920000 1.000000 -6.220813 2.354534 44.242344
8.800000 0.920000 1.040000 -9.845462 -16.596245 372.368469
8.800000 0.920000 1.080000 5.756878 -34.229538 1204.802856
8.800000 0.920000 1.120000 33.779430 -33.268623 2247.851074
8.800000 0.920000 1.160000 53.728493 -8.387356 2957.098633
8.800000 0.920000 1.200000 47.555031 25.497877 2911.622559
8.800000 0.960000 0.800000 25.913227 -12.842943 836.436523
8.800000 0.960000 0.840000 27.617121 1.781375 765.878662
8.800000 0.960000 0.880000 20.429684 14.787615 636.045532
8.800000 0.960000 0.920000 5.146367 20.465424 445.318665
8.800000 0.960000 0.960000 -11.988062 12.203448 292.637756
8.800000 0.960000 1.000000 -17.967800 -10.065685 424.159851
8.800000 0.960000 1.040000 -1.843176 -33.269688 1110.269409
8.800000 0.960000 1.080000 32.021252 -36.826099 2381.522217
8.800000 0.960000 1.120000 61.245777 -10.123268 3853.525635
8.800000 0.960000 1.160000 61.006416 33.862808 4868.472656
8.800000 0.960000 1.200000 26.362457 64.967865 4915.802246
8.800000 1.000000 0.800000 21.837872 9.328665 563.916626
8.800000 1.000000 0.840000 12.267734 20.094339 554.279785
8.800000 1.000000 0.880000 -2.552245 22.945984 533.032166
8.800000 1.000000 0.920000 -17.696484 14.352120 519.148865
8.800000 1.000000 0.960000 -23.706905 -6.088733 599.090027
8.800000 1.000000 1.000000 -10.474464 -29.118719 957.614197
8.800000 1.000000 1.040000 21.464279 -36.534988 1795.520752
8.800000 1.000000 1.080000 54.081032 -14.549189 3136.437012
8.800000 1.000000 1.120000 61.350060 30.233425 4677.889648
8.800000 1.000000 1.160000 31.007977 69.994476 5860.721191
8.800000 1.000000 1.200000 -21.234114 75.648499 6173.583008
8.800000 1.040000 0.800000 2.754589 18.092335 334.920349
8.800000 1.040000 0.840000 -10.989257 17.057104 411.708557
8.800000 1.040000 0.880000 -21.586040 6.867804 513.123901
8.800000 1.040000 0.920000 -23.650240 -10.083943 661.019775
8.800000 1.040000 0.960000 -11.976027 -27.536882 901.705139
8.800000 1.040000 1.000000 13.532352 -33.725773 1320.552246
8.800000 1.040000 1.040000 41.515678 -17.426323 2027.228271
8.800000 1.040000 1.080000 51.733791 19.982416 3075.682129
8.800000 1.040000 1.120000 29.776030 58.853798 4350.381348
8.800000 1.040000 1.160000 -17.528214 72.206146 5520.965820
8.800000 1.040000 1.200000 -62.600151 47.214493 6147.987305
8.800000 1.080000 0.800000 -15.142821 8.414814 300.114136
8.800000 1.080000 0.840000 -22.103859 -4.089931 505.308105
8.800000 1.080000 0.880000 -18.658054 -19.198610 716.709595
8.800000 1.080000 0.920000 -5.097034 -29.915092 920.892517
8.800000 1.080000 0.960000 14.929714 -30.097910 1128.780518
8.800000 1.080000 1.000000 33.743702 -15.443157 1377.128540
8.800000 1.080000 1.040000 39.854942 12.435076 1743.047485
8.800000 1.080000 1.080000 23.798252 41.982368 2328.875977
8.800000 1.080000 1.120000 -12.366078 55.023109 3180.462402
8.800000 1.080000 1.160000 -51.445034 39.038689 4170.610840
8.800000 1.080000 1.200000 -70.481384 -0.879073 4968.398438
8.800000 1.120000 0.800000 -19.481649 -10.935432 499.118347
8.800000 1.120000 0.840000 -12.823541 -26.264542 854.269348
8.800000 1.120000 0.880000 4.112088 -33.390232 1131.816895
8.800000 1.120000 0.920000 22.748131 -27.273769 1261.335938
8.800000 1.120000 0.960000 34.041565 -9.830742 1255.471558
8.800000 1.120000 1.000000 32.273819 12.338686 1193.842529
8.800000 1.120000 1.040000 16.263573 30.517216 1195.804199
8.800000 1.120000 1.080000 -9.860591 35.959557 1390.320923
8.800000 1.120000 1.120000 -36.276852 23.320374 1859.849854
8.800000 1.120000 1.160000 -50.344505 -4.827959 2557.878418
8.800000 1.120000 1.200000 -43.715118 -36.760960 3262.379883
8.800000 1.160000 0.800000 -9.693365 -26.821604 813.359741
8.800000 1.160000 0.840000 8.434162 -34.496193 1261.122437
8.800000 1.160000 0.880000 28.576252 -26.410673 1514.125854
8.800000 1.160000 0.920000 37.969383 -5.737373 1474.591553
8.800000 1.160000 0.960000 30.826910 16.031633 1207.311646
8.800000 1.160000 1.000000 11.388538 27.558472 889.168152
8.800000 1.160000 1.040000 -10.394265 24.279436 697.531799
8.800000 1.160000 1.080000 -25.380898 9.016944 725.495239
8.800000 1.160000 1.120000 -28.912876 -11.480897 967.765381
8.800000 1.160000 1.160000 -20.936119 -30.111309 1345.011963
8.800000 1.160000 1.200000 -4.836210 -41.351311 1733.319824
8.800000 1.200000 0.800000 5.928052 -32.100338 1065.573486
8.800000 1.200000 0.840000 26.802996 -27.445192 1471.639160
8.800000 1.200000 0.880000 39.066040 -7.610330 1584.072632
8.800000 1.200000 0.920000 33.181854 15.708334 1347.787109
8.800000 1.200000 0.960000 12.508084 27.522421 913.935791
8.800000 1.200000 1.000000 -9.456282 21.172796 537.708557
8.800000 1.200000 1.040000 -19.780090 2.482016 397.412384
8.800000 1.200000 1.080000 -15.016640 -16.196556 487.827881
8.800000 1.200000 1.120000 -1.425630 -25.725620 663.839966
8.800000 1.200000 1.160000 11.941123 -25.237152 779.504272
8.800000 1.200000 1.200000 20.115671 -19.746895 794.580078
8.840000 0.800000 0.800000 -40.560196 20.800522 2077.791260
8.840000 0.800000 0.840000 -47.151901 2.508091 2229.592285
8.840000 0.800000 0.880000 -43.406532 -17.457748 2188.900146
8.840000 0.800000 0.920000 -29.255089 -33.229164 1960.037598
8.840000 0.800000 0.960000 -8.035362 -38.611462 1555.411987
8.840000 0.800000 1.000000 12.255602 -29.945621 1046.940063
8.840000 0.800000 1.040000 21.576704 -10.581612 577.524658
8.840000 0.800000 1.080000 14.913176 8.542189 295.371796
8.840000 0.800000 1.120000 -2.299240 15.684082 251.276932
8.840000 0.800000 1.160000 -17.192352 7.755623 355.726654
8.840000 0.800000 1.200000 -19.926172 -6.878473 444.365723
8.840000 0.840000 0.800000 -37.503803 -11.414724 1536.831177
8.840000 0.840000 0.840000 -28.415649 -26.208652 1494.342651
8.840000 0.840000 0.880000 -12.170256 -33.154568 1247.340454
8.840000 0.840000 0.920000 4.433491 -29.094240 866.130615
8.840000 0.840000 0.960000 13.851656 -16.429323 461.791046
8.840000 0.840000 1.000000 12.132021 -2.516191 153.517151
8.840000 0.840000 1.040000 1.984946 4.316662 22.573578
8.840000 0.840000 1.080000 -8.290285 0.524549 69.003983
8.840000 0.840000 1.120000 -10.631731 -9.580137 204.812744
8.840000 0.840000 1.160000 -3.779100 -16.957991 301.855042
8.840000 0.840000 1.200000 5.490025 -15.624115 274.253357
8.840000 0.880000 0.800000 -12.157292 -28.923000 984.339722
8.840000 0.880000 0.840000 5.343895 -28.199797 823.785706
8.840000 0.880000 0.880000 18.528252 -14.862186 564.180664
8.840000 0.880000 0.920000 17.859329 4.496587 339.174927
8.840000 0.880000 0.960000 2.198147 16.708813 284.016266
8.840000 0.880000 1.000000 -17.896778 11.589565 454.612701
8.840000 0.880000 1.040000 -26.639809 -8.724442 785.795288
8.840000 0.880000 1.080000 -15.571617 -29.538776 1115.014526
8.840000 0.880000 1.120000 8.371561 -34.552643 1263.968140
8.840000 0.880000 1.160000 27.458141 -19.560448 1136.560669
8.840000 0.880000 1.200000 27.722870 3.337315 779.695190
8.840000 0.920000 0.800000 14.478203 -20.497011 629.745850
8.840000 0.920000 0.840000 25.071796 -2.444246 634.569336
8.840000 0.920000 0.880000 18.603983 21.668730 815.642029
8.840000 0.920000 0.920000 -7.205175 35.163025 1288.352905
8.840000 0.920000 0.960000 -38.441574 23.350315 2022.991943
8.840000 0.920000 1.000000 -51.782810 -11.721540 2818.854004
8.840000 0.920000 1.040000 -32.902199 -48.129993 3399.051025
8.840000 0.920000 1.080000 8.985941 -58.987961 3560.326660
8.840000 0.920000 1.120000 45.457817 -34.678352 3269.001221
8.840000 0.920000 1.160000 50.956482 7.498373 2652.788574
8.840000 0.920000 1.200000 24.045782 36.592667 1917.222900
8.840000 0.960000 0.800000 21.663296 3.237882 479.782257
8.840000 0.960000 0.840000 13.881625 26.834164 912.771851
8.840000 0.960000 0.880000 -14.244782 41.199661 1900.325928
8.840000 0.960000 0.920000 -51.016811 28.865097 3435.908936
8.840000 0.960000 0.960000 -70.718704 -12.561249 5158.920410
8.840000 0.960000 1.000000 -52.191513 -61.279678 6479.153320
8.840000 0.960000 1.040000 0.238890 -83.190361 6920.693359
8.840000 0.960000 1.080000 54.414383 -58.829880 6421.879883
8.840000 0.960000 1.120000 73.112602 -2.266191 5350.588379
8.840000 0.960000 1.160000 44.325172 47.432701 4214.582031
8.840000 0.960000 1.200000 -8.205235 57.085754 3326.109375
8.840000 1.000000 0.800000 6.460867 20.065468 444.365784
8.840000 1.000000 0.840000 -17.094164 32.333939 1337.694092
8.840000 1.000000 0.880000 -50.637604 22.714399 3080.110840
8.840000 1.000000 0.920000 -72.572174 -15.227699 5498.603027
8.840000 1.000000 0.960000 -59.557930 -66.028214 7906.872070
8.840000 1.000000 1.000000 -8.164680 -96.605591 9399.302734
8.840000 1.000000 1.040000 54.838203 -80.071762 9418.715820
8.840000 1.000000 1.080000 87.937599 -20.738785 8163.118652
8.840000 1.000000 1.120000 67.148819 44.096226 6453.440918
8.840000 1.000000 1.160000 7.249792 71.280693 5133.496582
8.840000 1.000000 1.200000 -48.756157 46.013687 4494.422363
8.840000 1.040000 0.800000 -15.386108 15.717454 483.770691
8.840000 1.040000 0.840000 -39.428238 8.528953 1627.328979
8.840000 1.040000 0.880000 -56.946976 -20.133326 3648.308838
8.840000 1.040000 0.920000 -48.964096 -62.064781 6249.519531
8.840000 1.040000 0.960000 -7.572613 -92.547050 8622.301758
8.840000 1.040000 1.000000 50.785683 -85.112152 9823.263672
8.840000 1.040000 1.040000 90.557076 -34.651707 9401.324219
8.840000 1.040000 1.080000 82.190262 32.100967 7785.711426
8.840000 1.040000 1.120000 27.727835 72.544266 6031.503418
8.840000 1.040000 1.160000 -37.286793 60.569656 5058.988281
8.840000 1.040000 1.200000 -70.291229 7.654482 4999.448242
8.840000 1.080000 0.800000 -24.522276 -5.381351 630.300964
8.840000 1.080000 0.840000 -33.561337 -24.665901 1734.770020
8.840000 1.080000 0.880000 -26.592545 -52.321064 3444.657227
8.840000 1.080000 0.920000 2.643552 -73.683907 5436.306152
8.840000 1.080000 0.960000 46.128586 -70.173782 7052.206055
8.840000 1.080000 1.000000 80.515121 -33.785950 7624.174805
8.840000 1.080000 1.040000 80.656326 21.204826 6955.087402
8.840000 1.080000 1.080000 40.140789 62.866291 5563.453613
8.840000 1.080000 1.120000 -19.215916 63.432579 4392.943359
8.840000 1.080000 1.160000 -60.523529 21.662312 4132.353516
8.840000 1.080000 1.200000 -59.108826 -34.611855 4691.833984
8.840000 1.120000 0.800000 -13.947536 -26.391445 891.042114
8.840000 1.120000 0.840000 -4.837859 -41.525723 1747.790527
8.840000 1.120000 0.880000 15.789101 -50.378143 2787.252930
8.840000 1.120000 0.920000 42.475494 -44.251289 3762.344238
8.840000 1.120000 0.960000 62.955734 -19.370831 4338.653809
8.840000 1.120000 1.000000 62.993046 17.290712 4267.092285
8.840000 1.120000 1.040000 36.452579 47.750496 3608.900391
8.840000 1.120000 1.080000 -6.521008 52.565960 2805.703613
8.840000 1.120000 1.120000 -42.440186 25.387705 2445.704834
8.840000 1.120000 1.160000 -49.513863 -19.671995 2838.609863
8.840000 1.120000 1.200000 -23.891689 -56.277275 3737.944336
8.840000 1.160000 0.800000 7.841123 -33.340729 1173.087402
8.840000 1.160000 0.840000 24.539986 -33.000385 1691.236328
8.840000 1.160000 0.880000 39.653709 -21.675518 2042.244751
8.840000 1.160000 0.920000 46.088680 -2.176450 2128.903320
8.840000 1.160000 0.960000 39.735199 18.872063 1935.040771
8.840000 1.160000 1.000000 21.000788 33.054375 1533.624756
8.840000 1.160000 1.040000 -4.167244 32.866646 1097.582397
8.840000 1.160000 1.080000 -24.975574 15.762656 872.240601
8.840000 1.160000 1.120000 -30.237694 -12.330471 1066.358643
8.840000 1.160000 1.160000 -15.486967 -38.156334 1695.751953
8.840000 1.160000 1.200000 12.653639 -48.464188 2508.892090
8.840000 1.200000 0.800000 26.695705 -24.844114 1329.890747
8.840000 1.200000 0.840000 37.150448 -10.898314 1498.928955
8.840000 1.200000 0.880000 36.131008 7.314909 1358.957642
8.840000 1.200000 0.920000 23.836571 20.474964 987.406250
8.840000 1.200000 0.960000 6.839617 22.696733 561.922058
8.840000 1.200000 1.000000 -6.917425 14.355898 253.942581
8.840000 1.200000 1.040000 -12.509596 0.193027 156.527252
8.840000 1.200000 1.080000 -8.996700 -14.152657 281.238281
8.840000 1.200000 1.120000 1.829602 -24.153559 586.741882
8.840000 1.200000 1.160000 16.540760 -26.854197 994.744629
8.840000 1.200000 1.200000 30.612431 -21.389246 1394.620728
8.880000 0.800000 0.800000 -47.423019 9.731050 2343.636230
8.880000 0.800000 0.840000 -51.145538 -14.913683 2838.284180
8.880000 0.800000 0.880000 -37.319168 -38.352676 2863.647949
8.880000 0.800000 0.920000 -10.992165 -47.962421 2421.221436
8.880000 0.800000 0.960000 14.635151 -38.419445 1690.241333
8.880000 0.800000 1.000000 26.263407 -15.881138 941.977051
8.880000 0.800000 1.040000 19.454407 5.555382 409.336212
8.880000 0.800000 1.080000 1.800606 13.436649 183.785736
8.880000 0.800000 1.120000 -12.789722 5.731309 196.424896
8.880000 0.800000 1.160000 -14.761450 -8.431580 288.991943
8.880000 0.800000 1.200000 -5.756122 -17.016455 322.692657
8.880000 0.840000 0.800000 -34.217056 -18.408590 1509.683105
8.880000 0.840000 0.840000 -19.932690 -32.170887 1432.278076
8.880000 0.840000 0.880000 0.731651 -31.752789 1008.774902
8.880000 0.840000 0.920000 14.222542 -16.931194 488.946045
8.880000 0.840000 0.960000 11.951981 1.409962 144.837830
8.880000 0.840000 1.000000 -2.615967 9.761372 102.127663
8.880000 0.840000 1.040000 -16.747469 2.796429 288.297729
8.880000 0.840000 1.080000 -18.853344 -12.597544 514.146667
8.880000 0.840000 1.120000 -7.756105 -23.491692 612.016724
8.880000 0.840000 1.160000 7.097138 -21.864319 528.417786
8.880000 0.840000 1.200000 14.419335 -10.893077 326.576355
8.880000 0.880000 0.800000 -6.874068 -24.520798 648.522339
8.880000 0.880000 0.840000 9.702387 -15.432148 332.287506
8.880000 0.880000 0.880000 12.607132 6.664078 203.349701
8.880000 0.880000 0.920000 -5.863388 24.500118 634.635132
8.880000 0.880000 0.960000 -34.750225 20.211121 1616.067505
8.880000 0.880000 1.000000 -51.392502 -7.752682 2701.293213
8.880000 0.880000 1.040000 -40.366669 -40.989670 3309.621094
8.880000 0.880000 1.080000 -7.497250 -55.463364 3132.393555
8.880000 0.880000 1.120000 24.329823 -41.543755 2317.823730
8.880000 0.880000 1.160000 34.282452 -11.744047 1313.209106
8.880000 0.880000 1.200000 20.483614 10.758701 535.328064
8.880000 0.920000 0.800000 10.571404 -7.960985 175.131851
8.880000 0.920000 0.840000 9.164534 17.676964 396.463715
8.880000 0.920000 0.880000 -18.843983 37.834656 1786.556885
8.880000 0.920000 0.920000 -61.160896 27.852291 4516.405273
8.880000 0.920000 0.960000 -86.336502 -17.200504 7749.849121
8.880000 0.920000 1.000000 -69.077171 -72.384529 10011.175781
8.880000 0.920000 1.040000 -14.379662 -99.728348 10152.517578
8.880000 0.920000 1.080000 43.132431 -79.353096 8157.320801
8.880000 0.920000 1.120000 66.327530 -26.898764 5122.884766
8.880000 0.920000 1.160000 45.607132 19.404222 2456.534424
8.880000 0.920000 1.200000 4.845234 30.684521 965.016113
8.880000 0.960000 0.800000 5.066441 12.036953 170.557053
8.880000 0.960000 0.840000 -21.286041 33.129059 1550.630127
8.880000 0.960000 0.880000 -67.593918 25.473097 5217.816406
8.880000 0.960000 0.920000 -101.389679 -24.056442 10858.580078
8.880000 0.960000 0.960000 -87.714478 -93.948441 16520.138672
8.880000 0.960000 1.000000 -21.996857 -138.178650 19577.201172
8.880000 0.960000 1.040000 59.324707 -122.245468 18463.375000
8.880000 0.960000 1.080000 104.338432 -54.033203 13806.095703
8.880000 0.960000 1.120000 87.188675 20.116871 8006.553711
8.880000 0.960000 1.160000 28.513630 52.592422 3578.989990
8.880000 0.960000 1.200000 -23.819485 32.065075 1595.536865
8.880000 1.000000 0.800000 -14.464106 15.023848 434.926361
8.880000 1.000000 0.840000 -52.422813 13.294653 2924.899170
8.880000 1.000000 0.880000 -87.678070 -27.070890 8420.277344
8.880000 1.000000 0.920000 -83.270859 -95.771973 16106.306641
8.880000 1.000000 0.960000 -22.591120 -150.634720 23201.177734
8.880000 1.000000 1.000000 68.131721 -147.425415 26376.185547
8.880000 1.000000 1.040000 133.302246 -78.762939 23973.089844
8.880000 1.000000 1.080000 130.591782 14.357824 17260.359375
8.880000 1.000000 1.120000 66.112656 72.486565 9625.185547
8.880000 1.000000 1.160000 -10.431424 64.637527 4286.824219
8.880000 1.000000 1.200000 -47.123695 10.597099 2332.941162
8.880000 1.040000 0.800000 -26.939404 -2.217888 730.650452
8.880000 1.040000 0.840000 -54.076942 -26.548420 3629.134277
8.880000 1.040000 0.880000 -57.103355 -78.676895 9450.846680
8.880000 1.040000 0.920000 -13.378202 -130.275772 17150.753906
8.880000 1.040000 0.960000 66.844894 -139.309570 23875.396484
8.880000 1.040000 1.000000 138.548508 -85.164474 26448.677734
8.880000 1.040000 1.040000 153.113098 7.684846 23502.677734
8.880000 1.040000 1.080000 98.509583 82.886147 16574.250000
8.880000 1.040000 1.120000 12.010599 94.927513 9155.487305
8.880000 1.040000 1.160000 -48.400192 44.852627 4354.336914
8.880000 1.040000 1.200000 -49.695068 -23.032097 3000.077393
8.880000 1.080000 0.800000 -18.940189 -24.471745 957.597046
8.880000 1.080000 0.840000 -22.912647 -53.664360 3404.853027
8.880000 1.080000 0.880000 1.898462 -89.120132 7946.001953
8.880000 1.080000 0.920000 57.339478 -101.866882 13664.676758
8.880000 1.080000 0.960000 117.190186 -68.341095 18404.044922
8.880000 1.080000 1.000000 141.013519 4.915150 19908.970703
8.880000 1.080000 1.040000 105.965118 78.332947 17364.656250
8.880000 1.080000 1.080000 29.398947 106.077530 12116.740234
8.880000 1.080000 1.120000 -40.627396 72.139809 6854.737305
8.880000 1.080000 1.160000 -61.627487 3.813878 3812.492920
8.880000 1.080000 1.200000 -28.789383 -50.562393 3385.384277
8.880000 1.120000 0.800000 4.592953 -33.305023 1130.319824
8.880000 1.120000 0.840000 16.806244 -48.394402 2624.467773
8.880000 1.120000 0.880000 45.586227 -55.111504 5115.381836
8.880000 1.120000 0.920000 81.358780 -37.730423 8042.835938
8.880000 1.120000 0.960000 101.093903 6.976181 10268.644531
8.880000 1.120000 1.000000 84.133049 60.189377 10701.130859
8.880000 1.120000 1.040000 31.831223 89.854202 9087.004883
8.880000 1.120000 1.080000 -27.806412 74.456650 6316.989258
8.880000 1.120000 1.120000 -58.341614 22.150372 3894.382812
8.880000 1.120000 1.160000 -42.523117 -33.200409 2910.482666
8.880000 1.120000 1.200000 4.653090 -57.528217 3331.146973
8.880000 1.160000 0.800000 27.117298 -22.812775 1255.770508
8.880000 1.160000 0.840000 37.735363 -19.391861 1800.001953
8.880000 1.160000 0.880000 49.495014 -8.723618 2525.857910
8.880000 1.160000 0.920000 55.818871 11.694658 3252.511475
8.880000 1.160000 0.960000 47.538383 37.279633 3649.668945
8.880000 1.160000 1.000000 21.095722 54.847393 3453.266113
8.880000 1.160000 1.040000 -14.123970 50.282349 2727.801270
8.880000 1.160000 1.080000 -38.439964 21.011505 1919.114258
8.880000 1.160000 1.120000 -35.376453 -18.269285 1585.260254
8.880000 1.160000 1.160000 -5.390900 -44.122635 1975.868652
8.880000 1.160000 1.200000 33.052536 -41.524761 2816.775879
8.880000 1.200000 0.800000 35.749702 -1.907116 1281.678345
8.880000 1.200000 0.840000 33.054279 8.997552 1173.541260
8.880000 1.200000 0.880000 26.085480 16.682026 958.742249
8.880000 1.200000 0.920000 17.372318 20.617817 726.891846
8.880000 1.200000 0.960000 7.648643 21.136744 505.263672
8.880000 1.200000 1.000000 -2.668896 16.858366 291.327515
8.880000 1.200000 1.040000 -10.349751 5.822060 141.013702
8.880000 1.200000 1.080000 -9.508423 -10.238647 195.240005
8.880000 1.200000 1.120000 3.360019 -23.853512 580.279785
8.880000 1.200000 1.160000 24.266127 -25.895878 1259.441406
8.880000 1.200000 1.200000 42.654438 -13.043324 1989.529419
8.920000 0.800000 0.800000 -46.088017 -4.546609 2144.776855
8.920000 0.800000 0.840000 -41.340256 -31.953863 2730.066162
8.920000 0.800000 0.880000 -17.246571 -49.610947 2758.690186
8.920000 0.800000 0.920000 12.565960 -45.690701 2245.543457
8.920000 0.800000 0.960000 30.068781 -23.300665 1447.052490
8.920000 0.800000 1.000000 26.417280 1.714897 700.813538
8.920000 0.800000 1.040000 8.342587 13.095596 241.093384
8.920000 0.800000 1.080000 -7.985645 6.516075 106.229767
8.920000 0.800000 1.120000 -10.377716 -8.247532 175.718781
8.920000 0.800000 1.160000 0.233673 -16.826242 283.177032
8.920000 0.800000 1.200000 12.440677 -12.697451 315.995667
8.920000 0.840000 0.800000 -27.597656 -22.022457 1246.619263
8.920000 0.840000 0.840000 -10.237240 -30.188818 1016.165833
8.920000 0.840000 0.880000 6.639008 -21.388388 501.539551
8.920000 0.840000 0.920000 9.047672 -3.386013 93.325455
8.920000 0.840000 0.960000 -4.315706 7.720001 78.223740
8.920000 0.840000 1.000000 -20.789829 1.823639 435.542664
8.920000 0.840000 1.040000 -24.928696 -16.320034 887.783386
8.920000 0.840000 1.080000 -11.951698 -31.465057 1132.892944
8.920000 0.840000 1.120000 8.578678 -31.301296 1053.364868
8.920000 0.840000 1.160000 21.723263 -16.622532 748.208740
8.920000 0.840000 1.200000 20.118526 0.520141 405.025635
8.920000 0.880000 0.800000 -7.250374 -17.997194 376.466949
8.920000 0.880000 0.840000 0.521530 -3.230833 10.710276
8.920000 0.880000 0.880000 -12.322224 14.813313 371.271423
8.920000 0.880000 0.920000 -41.215008 14.074097 1896.757080
8.920000 0.880000 0.960000 -62.831997 -14.281418 4151.818848
8.920000 0.880000 1.000000 -55.031731 -54.697853 6020.346680
8.920000 0.880000 1.040000 -17.636284 -78.597290 6488.572754
8.920000 0.880000 1.080000 25.855343 -68.546196 5367.080078
8.920000 0.880000 1.120000 47.711346 -32.992371 3364.869141
8.920000 0.880000 1.160000 38.708908 1.859177 1501.836060
8.920000 0.880000 1.200000 13.619628 14.858677 406.274536
8.920000 0.920000 0.800000 -2.904591 -2.722002 15.845942
8.920000 0.920000 0.840000 -21.174055 17.659201 760.187988
8.920000 0.920000 0.880000 -61.622360 14.100647 3996.143555
8.920000 0.920000 0.920000 -93.650864 -29.132603 9619.193359
8.920000 0.920000 0.960000 -82.751312 -93.236389 15540.804688
8.920000 0.920000 1.000000 -23.493790 -135.174805 18824.187500
8.920000 0.920000 1.040000 50.885902 -122.964600 17709.667969
8.920000 0.920000 1.080000 93.729019 -63.938648 12873.279297
8.920000 0.920000 1.120000 83.001099 0.828339 6889.868652
8.920000 0.920000 1.160000 37.495041 31.149874 2376.192627
8.920000 0.920000 1.200000 -2.660450 19.405165 383.638428
8.920000 0.960000 0.800000 -14.549358 4.099590 228.490463
8.920000 0.960000 0.840000 -53.722889 5.876011 2920.676270
8.920000 0.960000 0.880000 -93.459351 -36.039848 10033.521484
8.920000 0.960000 0.920000 -90.059235 -111.430923 20527.515625
8.920000 0.960000 0.960000 -24.079033 -172.391022 30298.464844
8.920000 0.960000 1.000000 74.665382 -170.002441 34475.750000
8.920000 0.960000 1.040000 145.507797 -97.955193 30767.738281
8.920000 0.960000 1.080000 145.437988 -1.547997 21154.605469
8.920000 0.960000 1.120000 84.129257 58.391685 10487.320312
8.920000 0.960000 1.160000 13.333271 54.485218 3146.415039
8.920000 0.960000 1.200000 -18.664772 10.403316 456.602692
8.920000 1.000000 0.800000 -25.556236 -6.785162 699.159668
8.920000 1.000000 0.840000 -62.612316 -33.334728 5031.506348
8.920000 1.000000 0.880000 -70.613846 -99.823517 14951.049805
8.920000 1.000000 0.920000 -16.776339 -168.371689 28630.470703
8.920000 1.000000 0.960000 85.546082 -182.520615 40631.906250
8.920000 1.000000 1.000000 177.266830 -116.366196 44964.621094
8.920000 1.000000 1.040000 197.943970 -2.997326 39190.800781
8.920000 1.000000 1.080000 136.318893 87.723045 26278.171875
8.920000 1.000000 1.120000 40.250912 104.768677 12596.611328
8.920000 1.000000 1.160000 -23.964645 55.099602 3610.270264
8.920000 1.000000 1.200000 -25.377911 -8.324818 713.340942
8.920000 1.040000 0.800000 -20.044197 -25.649414 1059.662354
8.920000 1.040000 0.840000 -34.242996 -67.542694 5734.598633
8.920000 1.040000 0.880000 -3.463329 -125.563980 15778.308594
8.920000 1.040000 0.920000 78.461723 -151.711639 29172.664062
8.920000 1.040000 0.960000 170.560059 -107.171509 40576.468750
8.920000 1.040000 1.000000 210.504730 -2.168470 44316.945312
8.920000 1.040000 1.040000 165.846115 103.672226 38252.863281
8.920000 1.040000 1.080000 64.408752 145.961838 25453.343750
8.920000 1.040000 1.120000 -26.285700 107.136154 12169.093750
8.920000 1.040000 1.160000 -53.478859 28.306049 3661.220703
8.920000 1.040000 1.200000 -18.474361 -28.661758 1162.798462
8.920000 1.080000 0.800000 1.666995 -34.164387 1169.984253
8.920000 1.080000 0.840000 11.484074 -68.262581 4791.663574
8.920000 1.080000 0.880000 59.535507 -93.761353 12335.667969
8.920000 1.080000 0.920000 129.368958 -74.036018 22217.660156
8.920000 1.080000 0.960000 174.644836 0.787327 30501.437500
8.920000 1.080000 1.000000 154.638275 95.785263 33087.812500
8.920000 1.080000 1.040000 71.980408 152.701080 28498.798828
8.920000 1.080000 1.080000 -23.842068 135.976562 19058.068359
8.920000 1.080000 1.120000 -73.952652 62.562820 9383.101562
8.920000 1.080000 1.160000 -56.266788 -12.439690 3320.697266
8.920000 1.080000 1.200000 0.746939 -41.429947 1716.998413
8.920000 1.120000 0.800000 24.280880 -23.104286 1123.369141
8.920000 1.120000 0.840000 41.257664 -36.626244 3043.676514
8.920000 1.120000 0.880000 77.257889 -32.701878 7038.194336
8.920000 1.120000 0.920000 110.446335 5.392887 12227.475586
8.920000 1.120000 0.960000 108.995911 68.095253 16517.072266
8.920000 1.120000 1.000000 59.467056 119.342964 17779.074219
8.920000 1.120000 1.040000 -15.778698 122.735718 15313.024414
8.920000 1.120000 1.080000 -71.524910 72.836487 10420.966797
8.920000 1.120000 1.120000 -74.549042 2.446289 5563.543945
8.920000 1.120000 1.160000 -29.901026 -42.653687 2713.408203
8.920000 1.120000 1.200000 25.173748 -39.490585 2193.223877
8.920000 1.160000 0.800000 32.458141 0.266792 1053.602051
8.920000 1.160000 0.840000 39.054443 1.019138 1526.288208
8.920000 1.160000 0.880000 50.683735 11.807381 2708.255371
8.920000 1.160000 0.920000 54.091194 37.045250 4298.208008
8.920000 1.160000 0.960000 35.364361 65.692284 5566.114258
8.920000 1.160000 1.000000 -4.417053 76.186630 5823.913086
8.920000 1.160000 1.040000 -44.520378 54.439728 4945.748047
8.920000 1.160000 1.080000 -58.469238 8.976978 3499.238037
8.920000 1.160000 1.120000 -35.854553 -32.520424 2343.126953
8.920000 1.160000 1.160000 7.885304 -44.126606 2009.335327
8.920000 1.160000 1.200000 43.473358 -21.830648 2366.510010
8.920000 1.200000 0.800000 23.686321 20.658569 987.818298
8.920000 1.200000 0.840000 16.768120 20.084923 684.573975
8.920000 1.200000 0.880000 14.305140 18.971756 564.564575
8.920000 1.200000 0.920000 12.362831 21.730902 625.071655
8.920000 1.200000 0.960000 4.805340 25.746504 685.973755
8.920000 1.200000 1.000000 -8.350719 22.808167 589.946960
8.920000 1.200000 1.040000 -18.125477 8.039619 393.168396
8.920000 1.200000 1.080000 -13.724720 -12.667088 348.823059
8.920000 1.200000 1.120000 6.541832 -25.309546 683.368713
8.920000 1.200000 1.160000 31.611208 -19.173620 1366.896240
8.920000 1.200000 1.200000 45.634109 3.585772 2095.329590
8.960000 0.800000 0.800000 -36.034843 -14.359695 1504.710693
8.960000 0.800000 0.840000 -22.950756 -37.183670 1909.362549
8.960000 0.800000 0.880000 3.597897 -43.809303 1932.199829
8.960000 0.800000 0.920000 26.332958 -29.547110 1566.456299
8.960000 0.800000 0.960000 30.971132 -5.250946 986.783508
8.960000 0.800000 1.000000 17.591417 11.447990 440.514465
8.960000 0.800000 1.040000 0.011536 10.591011 112.169647
8.960000 0.800000 1.080000 -6.434467 -2.458038 47.444321
8.960000 0.800000 1.120000 2.120838 -12.807785 168.537308
8.960000 0.800000 1.160000 15.820644 -9.749778 345.350952
8.960000 0.800000 1.200000 21.119041 4.183152 463.512665
8.960000 0.840000 0.800000 -21.650164 -20.701828 897.295288
8.960000 0.840000 0.840000 -6.859673 -22.824049 567.992310
8.960000 0.840000 0.880000 1.035286 -12.765938 164.040985
8.960000 0.840000 0.920000 -4.646893 -2.743980 29.123039
8.960000 0.840000 0.960000 -16.939388 -4.792511 309.911041
8.960000 0.840000 1.000000 -21.734039 -19.334858 846.205200
8.960000 0.840000 1.040000 -10.854477 -34.458992 1305.241821
8.960000 0.840000 1.080000 10.293644 -36.444424 1434.155151
8.960000 0.840000 1.120000 27.278114 -21.784641 1218.666138
8.960000 0.840000 1.160000 28.970741 0.021145 839.304260
8.960000 0.840000 1.200000 16.443924 15.008124 495.646423
8.960000 0.880000 0.800000 -13.586103 -15.371912 420.877869
8.960000 0.880000 0.840000 -16.911760 -4.352764 304.954193
8.960000 0.880000 0.880000 -36.580269 -3.234337 1348.577026
8.960000 0.880000 0.920000 -55.450623 -25.779957 3739.377686
8.960000 0.880000 0.960000 -50.379993 -63.667046 6591.636719
8.960000 0.880000 1.000000 -14.770325 -90.740990 8452.088867
8.960000 0.880000 1.040000 32.883003 -85.090439 8321.674805
8.960000 0.880000 1.080000 63.260212 -48.497765 6353.887695
8.960000 0.880000 1.120000 60.315159 -5.032494 3663.244385
8.960000 0.880000 1.160000 33.092106 19.454670 1473.571777
8.960000 0.880000 1.200000 5.439908 17.671665 341.880341
8.960000 0.920000 0.800000 -16.778648 -11.491353 413.574219
8.960000 0.920000 0.840000 -42.875420 -9.271820 1924.268311
8.960000 0.920000 0.880000 -71.715485 -40.554333 6787.764648
8.960000 0.920000 0.920000 -67.612923 -98.701523 14313.498047
8.960000 0.920000 0.960000 -14.305939 -145.617462 21409.105469
8.960000 0.920000 1.000000 64.496887 -142.364746 24427.570312
8.960000 0.920000 1.040000 120.801933 -84.452713 21725.367188
8.960000 0.920000 1.080000 121.539764 -7.923870 14834.702148
8.960000 0.920000 1.120000 75.221497 40.355503 7286.839844
8.960000 0.920000 1.160000 21.788717 40.612625 2124.133545
8.960000 0.920000 1.200000 -3.360932 11.792745 150.364700
8.960000 0.960000 0.800000 -21.612444 -18.726265 817.770752
8.960000 0.960000 0.840000 -54.211388 -41.909458 4695.277344
8.960000 0.960000 0.880000 -60.298515 -103.416977 14330.982422
8.960000 0.960000 0.920000 -7.806465 -166.568481 27806.000000
8.960000 0.960000 0.960000 89.513840 -177.306915 39450.468750
8.960000 0.960000 1.000000 174.701126 -112.778511 43239.476562
8.960000 0.960000 1.040000 192.319397 -6.494324 37028.925781
8.960000 0.960000 1.080000 135.345734 76.339996 24146.261719
8.960000 0.960000 1.120000 50.203281 92.030891 10990.053711
8.960000 0.960000 1.160000 -4.482018 51.224430 2644.030518
8.960000 0.960000 1.200000 -6.066372 2.613589 43.631714
8.960000 1.000000 0.800000 -14.999760 -32.249748 1265.039062
8.960000 1.000000 0.840000 -31.004042 -76.726990 6848.281250
8.960000 1.000000 0.880000 3.048983 -140.127472 19645.005859
8.960000 1.000000 0.920000 93.831772 -167.552780 36878.335938
8.960000 1.000000 0.960000 194.086349 -116.623199 51270.484375
8.960000 1.000000 1.000000 235.311859 -1.590631 55374.203125
8.960000 1.000000 1.040000 185.824615 110.721344 46790.003906
8.960000 1.000000 1.080000 79.991425 153.634033 30002.042969
8.960000 1.000000 1.120000 -10.171164 114.623444 13241.986328
8.960000 1.000000 1.160000 -35.121990 41.009239 2915.312012
8.960000 1.000000 1.200000 -3.908348 -5.928217 50.418941
8.960000 1.040000 0.800000 4.751217 -37.387192 1420.376221
8.960000 1.040000 0.840000 14.902683 -82.374039 7007.572266
8.960000 1.040000 0.880000 76.557449 -116.959671 19540.607422
8.960000 1.040000 0.920000 166.772034 -91.863693 36251.851562
8.960000 1.040000 0.960000 223.850998 3.888095 50124.386719
8.960000 1.040000 1.000000 197.490753 122.563446 54024.394531
8.960000 1.040000 1.040000 95.804604 190.973816 45649.523438
8.960000 1.040000 1.080000 -16.932882 170.359665 29309.138672
8.960000 1.040000 1.120000 -72.411156 87.892059 12968.389648
8.960000 1.040000 1.160000 -52.780312 10.517096 2896.370605
8.960000 1.040000 1.200000 1.871662 -13.174004 177.057480
8.960000 1.080000 0.800000 25.039000 -24.881279 1246.029541
8.960000 1.080000 0.840000 50.465660 -51.901070 5240.503906
8.960000 1.080000 0.880000 109.104233 -49.854359 14389.190430
8.960000 1.080000 0.920000 163.172089 8.086170 26690.517578
8.960000 1.080000 0.960000 162.080017 103.743484 37032.640625
8.960000 1.080000 1.000000 88.787865 179.654022 40158.851562
8.960000 1.080000 1.040000 -18.666912 184.161926 34264.066406
8.960000 1.080000 1.080000 -94.363182 116.029175 22367.179688
8.960000 1.080000 1.120000 -97.804413 26.272619 10255.954102
8.960000 1.080000 1.160000 -44.669563 -25.200581 2630.439209
8.960000 1.080000 1.200000 12.187107 -17.720970 462.558350
8.960000 1.120000 0.800000 30.870319 -0.636831 953.382202
8.960000 1.120000 0.840000 52.383987 -8.481226 2816.013184
8.960000 1.120000 0.880000 85.922852 11.999279 7526.719238
8.960000 1.120000 0.920000 98.367630 66.191299 14057.478516
8.960000 1.120000 0.960000 62.757969 125.536385 19697.947266
8.960000 1.120000 1.000000 -12.546654 146.510391 21622.712891
8.960000 1.120000 1.040000 -84.325813 108.083954 18792.984375
8.960000 1.120000 1.080000 -107.825203 32.760750 12699.541016
8.960000 1.120000 1.120000 -73.649597 -30.166285 6334.268066
8.960000 1.120000 1.160000 -14.130352 -44.725262 2200.015869
8.960000 1.120000 1.200000 26.036652 -15.023056 903.599426
8.960000 1.160000 0.800000 18.881912 19.798555 748.509399
8.960000 1.160000 0.840000 26.760069 17.811516 1033.351318
8.960000 1.160000 0.880000 37.114033 32.246429 2417.283691
8.960000 1.160000 0.920000 30.407997 60.203388 4549.094238
8.960000 1.160000 0.960000 -2.580002 80.353668 6463.368164
8.960000 1.160000 1.000000 -47.524712 70.237930 7191.964844
8.960000 1.160000 1.040000 -74.949379 28.213280 6413.398438
8.960000 1.160000 1.080000 -64.623009 -21.575314 4641.627441
8.960000 1.160000 1.120000 -23.635685 -47.581738 2822.667480
8.960000 1.160000 1.160000 19.064257 -36.348259 1684.641846
8.960000 1.160000 1.200000 36.621185 -1.879341 1344.643188
8.960000 1.200000 0.800000 -0.661054 25.585453 655.052429
8.960000 1.200000 0.840000 -0.880413 17.037750 291.060059
8.960000 1.200000 0.880000 3.838844 15.986671 270.310394
8.960000 1.200000 0.920000 3.248489 22.343597 509.789032
8.960000 1.200000 0.960000 -7.622139 26.256927 747.523254
8.960000 1.200000 1.000000 -21.855846 17.660950 789.587158
8.960000 1.200000 1.040000 -25.845589 -2.652924 675.032471
8.960000 1.200000 1.080000 -12.044285 -21.726654 617.112305
8.960000 1.200000 1.120000 12.956272 -24.908634 788.305054
8.960000 1.200000 1.160000 32.952538 -8.527668 1158.590820
8.960000 1.200000 1.200000 35.118729 16.982567 1521.732666
9.000000 0.800000 0.800000 -23.804867 -14.248379 769.687988
9.000000 0.800000 0.840000 -8.888395 -28.556496 894.477051
9.000000 0.800000 0.880000 11.835009 -27.903786 918.688721
9.000000 0.800000 0.920000 25.031179 -13.184139 800.381470
9.000000 0.800000 0.960000 23.182657 4.448639 557.226013
9.000000 0.800000 1.000000 10.749870 12.480234 271.315948
9.000000 0.800000 1.040000 0.258232 7.543363 56.969006
9.000000 0.800000 1.080000 1.094864 -1.924917 4.904033
9.000000 0.800000 1.120000 11.030910 -3.742691 135.688721
9.000000 0.800000 1.160000 18.552719 6.423687 385.467163
9.000000 0.800000 1.200000 13.959936 20.902332 631.787354
9.000000 0.840000 0.800000 -20.032452 -17.185619 696.644653
9.000000 0.840000 0.840000 -11.345440 -18.228401 460.993591
9.000000 0.840000 0.880000 -8.600151 -15.366798 310.101074
9.000000 0.840000 0.920000 -10.624842 -16.239445 376.606842
9.000000 0.840000 0.960000 -10.217545 -23.287975 646.727966
9.000000 0.840000 1.000000 -1.435249 -31.125286 970.843384
9.000000 0.840000 1.040000 14.235977 -31.095524 1169.594604
9.000000 0.840000 1.080000 28.167969 -18.981205 1153.720581
9.000000 0.840000 1.120000 31.106249 0.755669 968.169739
9.000000 0.840000 1.160000 20.502510 17.792158 736.913818
9.000000 0.840000 1.200000 2.582812 23.529690 560.317200
9.000000 0.880000 0.800000 -20.133810 -20.860607 840.535217
9.000000 0.880000 0.840000 -27.417599 -21.442677 1211.513184
9.000000 0.880000 0.880000 -37.005821 -36.956814 2735.236816
9.000000 0.880000 0.920000 -30.729645 -65.008881 5170.465820
9.000000 0.880000 0.960000 -0.075706 -86.434418 7470.914551
9.000000 0.880000 1.000000 42.786278 -81.322922 8444.083008
9.000000 0.880000 1.040000 73.029579 -47.382668 7578.436523
9.000000 0.880000 1.080000 73.196457 -3.195534 5367.932617
9.000000 0.880000 1.120000 46.917641 26.588085 2908.191162
9.000000 0.880000 1.160000 14.330175 30.365332 1127.407227
9.000000 0.880000 1.200000 -5.433306 16.040518 286.819031
9.000000 0.920000 0.800000 -18.489170 -30.307310 1260.382446
9.000000 0.920000 0.840000 -35.431007 -46.352257 3403.888184
9.000000 0.920000 0.880000 -34.323021 -86.963211 8740.669922
9.000000 0.920000 0.920000 6.196667 -126.411072 16018.157227
9.000000 0.920000 0.960000 75.019470 -127.977615 22006.191406
9.000000 0.920000 1.000000 132.094650 -78.058487 23542.123047
9.000000 0.920000 1.040000 140.581146 -1.883636 19766.607422
9.000000 0.920000 1.080000 98.148682 55.527531 12716.470703
9.000000 0.920000 1.120000 38.024006 66.039268 5807.010254
9.000000 0.920000 1.160000 -0.574113 38.776360 1503.935669
9.000000 0.920000 1.200000 -4.147778 6.844968 64.057648
9.000000 0.960000 0.800000 -7.017455 -41.155952 1743.057007
9.000000 0.960000 0.840000 -15.956680 -76.045967 6037.604980
9.000000 0.960000 0.880000 16.043684 -124.839775 15842.369141
9.000000 0.960000 0.920000 92.937851 -141.693146 28714.390625
9.000000 0.960000 0.960000 173.702271 -93.421707 38900.093750
9.000000 0.960000 1.000000 202.328491 4.709320 40958.992188
9.000000 0.960000 1.040000 156.432220 95.817368 33652.007812
9.000000 0.960000 1.080000 68.190430 127.354706 20869.156250
9.000000 0.960000 1.120000 -3.130960 93.832687 8814.375977
9.000000 0.960000 1.160000 -21.175104 36.761826 1799.816772
9.000000 0.960000 1.200000 1.848677 3.904671 18.664059
9.000000 1.000000 0.800000 13.962767 -42.020126 1960.649902
9.000000 1.000000 0.840000 25.936588 -82.680634 7508.793945
9.000000 1.000000 0.880000 86.686539 -111.854019 20025.876953
9.000000 1.000000 0.920000 172.050156 -82.456161 36400.273438
9.000000 1.000000 0.960000 221.750244 12.911633 49339.882812
9.000000 1.000000 1.000000 190.399490 125.169212 51919.296875
9.000000 1.000000 1.040000 91.014969 185.049133 42526.906250
9.000000 1.000000 1.080000 -12.536449 161.154739 26128.011719
9.000000 1.000000 1.120000 -59.012169 85.119659 10727.792969
9.000000 1.000000 1.160000 -39.126122 20.432281 1948.331543
9.000000 1.000000 1.200000 4.591506 6.067196 57.892799
9.000000 1.040000 0.800000 32.718292 -26.126301 1753.070312
9.000000 1.040000 0.840000 62.269455 -54.814442 6882.108398
9.000000 1.040000 0.880000 127.933594 -49.321312 18799.597656
9.000000 1.040000 0.920000 185.171631 18.631962 34635.679688
9.000000 1.040000 0.960000 178.422485 124.817795 47414.066406
9.000000 1.040000 1.000000 93.740372 203.829239 50333.617188
9.000000 1.040000 1.040000 -22.000040 202.753479 41592.972656
9.000000 1.040000 1.080000 -97.414841 127.658371 25786.312500
9.000000 1.040000 1.120000 -96.085129 37.935844 10671.479492
9.000000 1.040000 1.160000 -43.375099 -6.371941 1922.000854
9.000000 1.040000 1.200000 2.961164 6.265917 48.030209
9.000000 1.080000 0.800000 35.535194 -0.100529 1262.760132
9.000000 1.080000 0.840000 67.271729 -9.858749 4622.680176
9.000000 1.080000 0.880000 112.536232 20.794025 13096.794922
9.000000 1.080000 0.920000 125.500320 94.869751 24750.599609
9.000000 1.080000 0.960000 74.112457 170.396194 34527.519531
9.000000 1.080000 1.000000 -24.189201 191.605408 37297.750000
9.000000 1.080000 1.040000 -110.685394 138.486664 31429.812500
9.000000 1.080000 1.080000 -133.410629 46.966621 20004.259766
9.000000 1.080000 1.120000 -90.538994 -21.210445 8647.192383
9.000000 1.080000 1.160000 -28.247602 -30.778698 1745.255371
9.000000 1.080000 1.200000 3.349678 1.833185 14.580911
9.000000 1.120000 0.800000 19.716032 20.098938 792.689209
9.000000 1.120000 0.840000 40.867935 21.494667 2132.208740
9.000000 1.120000 0.880000 58.840145 53.809471 6357.622070
9.000000 1.120000 0.920000 41.695534 104.030243 12560.808594
9.000000 1.120000 0.960000 -17.852295 133.278214 18081.787109
9.000000 1.120000 1.000000 -88.902679 110.414673 20095.085938
9.000000 1.120000 1.040000 -125.214478 42.775276 17508.388672
9.000000 1.120000 1.080000 -104.766792 -26.981430 11704.078125
9.000000 1.120000 1.120000 -48.521030 -56.489044 5545.302734
9.000000 1.120000 1.160000 -0.601543 -38.244705 1463.019287
9.000000 1.120000 1.200000 10.271254 -1.258230 107.081795
9.000000 1.160000 0.800000 -3.248819 22.911695 535.500610
9.000000 1.160000 0.840000 7.054544 23.011175 579.280762
9.000000 1.160000 0.880000 10.494843 40.512081 1751.370483
9.000000 1.160000 0.920000 -8.873512 60.854843 3782.051270
9.000000 1.160000 0.960000 -46.316986 60.177074 5766.543457
9.000000 1.160000 1.000000 -76.925819 28.403427 6724.336426
9.000000 1.160000 1.040000 -76.573013 -18.733101 6214.355469
9.000000 1.160000 1.080000 -43.813618 -51.472450 4569.045898
9.000000 1.160000 1.120000 -1.611828 -51.072300 2610.977783
9.000000 1.160000 1.160000 22.563568 -24.494535 1109.096802
9.000000 1.160000 1.200000 18.951458 4.164343 376.499512
9.000000 1.200000 0.800000 -18.001251 11.009753 445.259705
9.000000 1.200000 0.840000 -10.101879 4.885542 125.916481
9.000000 1.200000 0.880000 -4.659760 8.736429 98.038551
9.000000 1.200000 0.920000 -9.172020 14.562199 296.183594
9.000000 1.200000 0.960000 -20.293354 11.599220 546.362122
9.000000 1.200000 1.000000 -26.533325 -2.879257 712.307434
9.000000 1.200000 1.040000 -18.982529 -20.215267 768.993408
9.000000 1.200000 1.080000 0.198288 -27.677866 766.103577
9.000000 1.200000 1.120000 19.322861 -19.376629 748.826660
9.000000 1.200000 1.160000 26.783092 -0.769332 717.925903
9.000000 1.200000 1.200000 19.608675 16.396008 653.329224
9.040000 0.800000 0.800000 -18.091051 -6.497633 369.505371
9.040000 0.800000 0.840000 -7.996286 -15.788561 313.219238
9.040000 0.800000 0.880000 6.230705 -16.361244 306.511993
9.040000 0.800000 0.920000 16.882467 -7.231647 337.314423
9.040000 0.800000 0.960000 17.846329 5.660646 350.534363
9.040000 0.800000 1.000000 10.385178 13.553723 291.555328
9.040000 0.800000 1.040000 2.531376 12.727953 168.408661
9.040000 0.800000 1.080000 1.377392 8.219408 69.455879
9.040000 0.800000 1.120000 5.656593 8.602123 105.993561
9.040000 0.800000 1.160000 6.785758 16.541914 319.681427
9.040000 0.800000 1.200000 -1.925362 25.068768 632.150146
9.040000 0.840000 0.800000 -22.342461 -16.087433 757.991028
9.040000 0.840000 0.840000 -17.237730 -21.898481 776.682861
9.040000 0.840000 0.880000 -9.998308 -27.190567 839.293091
9.040000 0.840000 0.920000 0.412804 -29.771130 886.490540
9.040000 0.840000 0.960000 12.169895 -26.922874 872.947510
9.040000 0.840000 1.000000 21.571548 -18.165833 795.329163
9.040000 0.840000 1.040000 25.561295 -5.633389 685.114807
9.040000 0.840000 1.080000 22.953724 7.435650 582.162292
9.040000 0.840000 1.120000 14.108208 17.829933 516.948059
9.040000 0.840000 1.160000 0.760235 22.480457 505.948914
9.040000 0.840000 1.200000 -13.427011 19.163038 547.506653
9.040000 0.880000 0.800000 -19.396954 -31.644417 1377.610962
9.040000 0.880000 0.840000 -19.713274 -42.348797 2182.033691
9.040000 0.880000 0.880000 -9.561020 -59.902817 3679.760498
9.040000 0.880000 0.920000 16.947491 -70.999695 5328.173828
9.040000 0.880000 0.960000 50.580688 -61.402794 6328.708984
9.040000 0.880000 1.000000 72.500740 -29.939716 6152.744141
9.040000 0.880000 1.040000 69.368790 8.598816 4885.968262
9.040000 0.880000 1.080000 44.094250 34.502918 3134.754395
9.040000 0.880000 1.120000 12.765121 37.829445 1594.015259
9.040000 0.880000 1.160000 -8.457095 23.906548 643.045471
9.040000 0.880000 1.200000 -14.349213 6.246285 244.915985
9.040000 0.920000 0.800000 -3.413085 -45.277485 2061.699707
9.040000 0.920000 0.840000 -1.077080 -65.517914 4293.757324
9.040000 0.920000 0.880000 25.732565 -89.447868 8663.085938
9.040000 0.920000 0.920000 75.445938 -89.813835 13758.614258
9.040000 0.920000 0.960000 120.721924 -50.652012 17139.410156
9.040000 0.920000 1.000000 129.461456 13.837723 16951.751953
9.040000 0.920000 1.040000 93.153473 67.554260 13241.147461
9.040000 0.920000 1.080000 35.381584 81.510315 7895.788086
9.040000 0.920000 1.120000 -7.943106 56.750011 3283.656738
9.040000 0.920000 1.160000 -17.896051 20.317095 733.052979
9.040000 0.920000 1.200000 -4.386108 -0.471765 19.460508
9.040000 0.960000 0.800000 21.952721 -45.073868 2513.575439
9.040000 0.960000 0.840000 35.913723 -69.728088 6151.801758
9.040000 0.960000 0.880000 82.480453 -82.897308 13674.989258
9.040000 0.960000 0.920000 141.603210 -52.645866 22823.056641
9.040000 0.960000 0.960000 169.572052 22.063282 29241.470703
9.040000 0.960000 1.000000 137.337402 102.396660 29346.638672
9.040000 0.960000 1.040000 59.703991 139.179825 22935.589844
9.040000 0.960000 1.080000 -14.500929 114.665901 13358.545898
9.040000 0.960000 1.120000 -43.411362 56.722084 5101.940918
9.040000 0.960000 1.160000 -25.605206 12.056147 800.977173
9.040000 0.960000 1.200000 4.749752 4.966003 47.221336
9.040000 1.000000 0.800000 42.795307 -25.781521 2496.125244
9.040000 1.000000 0.840000 69.069778 -43.798267 6688.922363
9.040000 1.000000 0.880000 122.091850 -32.260559 15947.164062
9.040000 1.000000 0.920000 163.651062 29.824139 27671.148438
9.040000 1.000000 0.960000 149.131653 118.704849 36331.089844
9.040000 1.000000 1.000000 71.687027 178.686401 37067.859375
9.040000 1.000000 1.040000 -25.116016 169.191498 29256.578125
9.040000 1.000000 1.080000 -81.945557 101.588760 17035.351562
9.040000 1.000000 1.120000 -74.049530 29.178272 6334.704590
9.040000 1.000000 1.160000 -29.220757 -0.598869 854.211243
9.040000 1.000000 1.200000 2.741501 14.580997 220.121307
9.040000 1.040000 0.800000 44.718864 3.937655 2015.281982
9.040000 1.040000 0.840000 74.547668 -0.422439 5557.533203
9.040000 1.040000 0.880000 114.020485 33.729801 14138.370117
9.040000 1.040000 0.920000 119.272476 106.298889 25525.378906
9.040000 1.040000 0.960000 62.932129 174.520615 34417.898438
9.040000 1.040000 1.000000 -33.164696 186.414658 35850.324219
9.040000 1.040000 1.040000 -110.582428 128.770050 28810.199219
9.040000 1.040000 1.080000 -123.690086 41.961136 17059.974609
9.040000 1.040000 1.120000 -78.845825 -14.900187 6438.679688
9.040000 1.040000 1.160000 -25.295597 -15.400676 877.048096
9.040000 1.040000 1.200000 -7.575804 15.690014 303.569336
9.040000 1.080000 0.800000 25.456932 26.130569 1330.862061
9.040000 1.080000 0.840000 48.566753 32.597588 3421.332031
9.040000 1.080000 0.880000 63.920715 72.711288 9372.789062
9.040000 1.080000 0.920000 37.455055 127.972595 17779.867188
9.040000 1.080000 0.960000 -33.648693 153.830063 24795.921875
9.040000 1.080000 1.000000 -110.209244 120.057365 26559.847656
9.040000 1.080000 1.040000 -142.016113 42.269135 21955.255859
9.040000 1.080000 1.080000 -112.417862 -28.645210 13458.323242
9.040000 1.080000 1.120000 -52.767929 -50.773937 5362.447266
9.040000 1.080000 1.160000 -12.303770 -26.406118 848.665833
9.040000 1.080000 1.200000 -13.503314 5.453927 212.084808
9.040000 1.120000 0.800000 -1.799286 27.580450 763.918640
9.040000 1.120000 0.840000 11.372446 36.088341 1431.700806
9.040000 1.120000 0.880000 8.554600 65.062843 4306.354492
9.040000 1.120000 0.920000 -26.870750 89.855606 8796.067383
9.040000 1.120000 0.960000 -80.764503 79.783012 12888.234375
9.040000 1.120000 1.000000 -116.316147 29.309196 14388.475586
9.040000 1.120000 1.040000 -106.595695 -32.737411 12434.380859
9.040000 1.120000 1.080000 -59.892242 -67.101540 8089.697266
9.040000 1.120000 1.120000 -12.276922 -58.498856 3572.839111
9.040000 1.120000 1.160000 5.339043 -26.933311 753.908630
9.040000 1.120000 1.200000 -6.947944 -5.867840 82.705467
9.040000 1.160000 0.800000 -18.702251 10.864614 467.814026
9.040000 1.160000 0.840000 -11.038025 15.348192 357.404999
9.040000 1.160000 0.880000 -17.356812 28.253613 1099.525513
9.040000 1.160000 0.920000 -40.253658 30.837742 2571.323242
9.040000 1.160000 0.960000 -63.327309 10.318863 4116.826660
9.040000 1.160000 1.000000 -65.457359 -25.636879 4941.915527
9.040000 1.160000 1.040000 -41.069580 -54.162987 4620.339844
9.040000 1.160000 1.080000 -5.955750 -57.544548 3346.845947
9.040000 1.160000 1.120000 17.074772 -38.525780 1775.783569
9.040000 1.160000 1.160000 18.155649 -15.980467 585.002930
9.040000 1.160000 1.200000 6.447617 -6.486968 83.652512
9.040000 1.200000 0.800000 -17.002562 -8.312216 358.180023
9.040000 1.200000 0.840000 -9.508831 -7.197347 142.219666
9.040000 1.200000 0.880000 -9.383957 -3.340984 99.220825
9.040000 1.200000 0.920000 -14.296890 -4.959637 228.999069
9.040000 1.200000 0.960000 -16.075457 -13.830624 449.706482
9.040000 1.200000 1.000000 -9.218517 -23.742737 648.698608
9.040000 1.200000 1.040000 3.874191 -26.873550 737.197021
9.040000 1.200000 1.080000 15.710403 -20.986706 687.258606
9.040000 1.200000 1.120000 20.676575 -10.435947 536.429749
9.040000 1.200000 1.160000 18.838911 -1.222447 356.398956
9.040000 1.200000 1.200000 13.752493 3.818754 203.713943
9.080000 0.800000 0.800000 -22.045752 0.306293 486.108978
9.080000 0.800000 0.840000 -16.927561 -11.274321 413.652649
9.080000 0.800000 0.880000 -2.182568 -17.171516 299.624573
9.080000 0.800000 0.920000 13.801855 -9.758797 285.725342
9.080000 0.800000 0.960000 18.979872 7.366418 414.499664
9.080000 0.800000 1.000000 9.910696 21.509052 560.861206
9.080000 0.800000 1.040000 -4.413491 23.196449 557.554138
9.080000 0.800000 1.080000 -11.940972 15.380892 379.158661
9.080000 0.800000 1.120000 -10.029585 9.254370 186.235931
9.080000 0.800000 1.160000 -7.248647 11.290556 180.019531
9.080000 0.800000 1.200000 -12.575639 16.007339 414.381622
9.080000 0.840000 0.800000 -24.526678 -19.409431 978.283936
9.080000 0.840000 0.840000 -16.558521 -30.930464 1230.878174
9.080000 0.840000 0.880000 1.191004 -36.328102 1321.149414
9.080000 0.840000 0.920000 20.556364 -27.807995 1195.848755
9.080000 0.840000 0.960000 29.573322 -8.159306 941.155701
9.080000 0.840000 1.000000 23.641207 11.042587 680.845398
9.080000 0.840000 1.040000 9.188499 19.991333 484.081909
9.080000 0.840000 1.080000 -3.619473 18.539211 356.802948
9.080000 0.840000 1.120000 -10.544094 13.485158 293.027405
9.080000 0.840000 1.160000 -14.856163 9.540469 311.726135
9.080000 0.840000 1.200000 -20.281303 4.725770 433.664154
9.080000 0.880000 0.800000 -9.532860 -39.260796 1632.285400
9.080000 0.880000 0.840000 2.017282 -50.343338 2538.520996
9.080000 0.880000 0.880000 25.478954 -53.802895 3543.928711
9.080000 0.880000 0.920000 51.168018 -39.082527 4145.609863
9.080000 0.880000 0.960000 62.931271 -8.279713 4028.898438
9.080000 0.880000 1.000000 52.044830 23.492805 3260.576172
9.080000 0.880000 1.040000 24.911142 39.826424 2206.708984
9.080000 0.880000 1.080000 -2.530697 35.536949 1269.279175
9.080000 0.880000 1.120000 -17.631828 18.692377 660.286377
9.080000 0.880000 1.160000 -18.989347 1.766150 363.714600
9.080000 0.880000 1.200000 -13.577516 -8.501649 256.626953
9.080000 0.920000 0.800000 19.204382 -43.688324 2277.478027
9.080000 0.920000 0.840000 35.168720 -52.242714 3966.140137
9.080000 0.920000 0.880000 64.795387 -48.209824 6522.629395
9.080000 0.920000 0.920000 92.292183 -19.085274 8882.094727
9.080000 0.920000 0.960000 94.991776 27.997551 9807.300781
9.080000 0.920000 1.000000 64.273849 67.892807 8740.560547
9.080000 0.920000 1.040000 15.740307 77.090393 6190.686035
9.080000 0.920000 1.080000 -22.208057 53.461056 3351.282227
9.080000 0.920000 1.120000 -31.288628 17.410019 1282.086914
9.080000 0.920000 1.160000 -16.526512 -6.374238 313.756531
9.080000 0.920000 1.200000 1.674141 -9.057022 84.832397
9.080000 0.960000 0.800000 45.258430 -25.011608 2673.906006
9.080000 0.960000 0.840000 64.216507 -27.834728 4898.531738
9.080000 0.960000 0.880000 94.259430 -10.794025 9001.350586
9.080000 0.960000 0.920000 110.936714 34.685547 13510.041016
9.080000 0.960000 0.960000 89.805817 89.573318 16088.463867
9.080000 0.960000 1.000000 32.624062 118.729675 15161.064453
9.080000 0.960000 1.040000 -28.845894 101.289719 11091.693359
9.080000 0.960000 1.080000 -57.933884 50.816902 5938.692383
9.080000 0.960000 1.120000 -44.222878 4.364706 1974.713501
9.080000 0.960000 1.160000 -10.813570 -9.927055 215.479721
9.080000 0.960000 1.200000 9.107232 4.336406 101.746086
9.080000 1.000000 0.800000 50.789963 8.061071 2644.601318
9.080000 1.000000 0.840000 68.576019 12.428564 4857.139648
9.080000 1.000000 0.880000 89.184326 41.613003 9685.486328
9.080000 1.000000 0.920000 83.270248 93.164307 15613.521484
9.080000 1.000000 0.960000 34.935463 135.616028 19612.193359
9.080000 1.000000 1.000000 -36.170380 133.865952 19228.390625
9.080000 1.000000 1.040000 -86.575356 83.432968 14456.351562
9.080000 1.000000 1.080000 -86.408951 18.371872 7804.032715
9.080000 1.000000 1.120000 -46.418945 -17.625969 2465.393311
9.080000 1.000000 1.160000 -7.105598 -9.817347 146.869827
9.080000 1.000000 1.200000 -0.209924 17.108885 292.757996
9.080000 1.040000 0.800000 31.101006 35.027618 2194.206543
9.080000 1.040000 0.840000 43.453842 44.298782 3850.618652
9.080000 1.040000 0.880000 47.956635 76.753319 8190.910645
9.080000 1.040000 0.920000 19.437992 116.830582 14027.220703
9.080000 1.040000 0.960000 -41.390427 129.275726 18425.380859
9.080000 1.040000 1.000000 -100.395294 92.842010 18698.853516
9.080000 1.040000 1.040000 -117.584427 25.182055 14460.233398
9.080000 1.040000 1.080000 -84.471535 -29.096548 7982.048828
9.080000 1.040000 1.120000 -33.116608 -38.034843 2543.358887
9.080000 1.040000 1.160000 -6.174582 -10.741017 153.494904
9.080000 1.040000 1.200000 -17.226057 14.018159 493.245789
9.080000 1.080000 0.800000 -0.348775 38.956726 1517.748169
9.080000 1.080000 0.840000 5.475430 48.561592 2388.208496
9.080000 1.080000 0.880000 -3.969263 73.042480 5350.958984
9.080000 1.080000 0.920000 -41.408558 89.462898 9718.279297
9.080000 1.080000 0.960000 -90.792259 71.386368 13339.248047
9.080000 1.080000 1.000000 -117.040710 18.220238 14030.505859
9.080000 1.080000 1.040000 -98.597786 -38.717495 11220.568359
9.080000 1.080000 1.080000 -49.935570 -62.727051 6428.244141
9.080000 1.080000 1.120000 -9.513508 -45.661617 2175.490234
9.080000 1.080000 1.160000 -3.841458 -14.629053 228.766006
9.080000 1.080000 1.200000 -23.719868 -4.277652 580.930420
9.080000 1.120000 0.800000 -21.945868 20.045609 883.447510
9.080000 1.120000 0.840000 -20.285255 26.737337 1126.376709
9.080000 1.120000 0.880000 -34.358131 37.568783 2591.894531
9.080000 1.120000 0.920000 -62.949810 32.386936 5011.592285
9.080000 1.120000 0.960000 -84.974747 1.148350 7222.026367
9.080000 1.120000 1.000000 -78.504578 -41.869308 7916.007812
9.080000 1.120000 1.040000 -43.638229 -68.524185 6599.858887
9.080000 1.120000 1.080000 -4.668495 -62.987587 3989.230957
9.080000 1.120000 1.120000 12.161678 -36.957233 1513.743530
9.080000 1.120000 1.160000 3.143633 -17.765423 325.492676
9.080000 1.120000 1.200000 -11.209749 -21.364571 582.103394
9.080000 1.160000 0.800000 -21.150038 -4.784774 470.218170
9.080000 1.160000 0.840000 -20.798443 -1.095806 433.776031
9.080000 1.160000 0.880000 -30.319084 -1.186049 920.653625
9.080000 1.160000 0.920000 -40.677345 -14.550980 1866.377319
9.080000 1.160000 0.960000 -37.783607 -37.247063 2814.944580
9.080000 1.160000 1.000000 -17.585068 -53.814457 3205.230469
9.080000 1.160000 1.040000 8.325348 -52.024071 2775.815430
9.080000 1.160000 1.080000 23.215740 -35.190659 1777.353027
9.080000 1.160000 1.120000 21.232735 -18.854485 806.320557
9.080000 1.160000 1.160000 12.192670 -15.234128 380.739868
9.080000 1.160000 1.200000 10.435727 -21.804703 584.349487
9.080000 1.200000 0.800000 -4.041927 -16.402636 285.383636
9.080000 1.200000 0.840000 -4.307207 -14.502933 228.887085
9.080000 1.200000 0.880000 -5.993236 -18.634266 383.154755
9.080000 1.200000 0.920000 -1.456578 -26.581915 708.719849
9.080000 1.200000 0.960000 10.546665 -29.964067 1009.077515
9.080000 1.200000 1.000000 22.643654 -23.582935 1068.889893
9.080000 1.200000 1.040000 26.464077 -11.618828 835.344482
9.080000 1.200000 1.080000 21.659803 -3.446352 481.024445
9.080000 1.200000 1.120000 16.139744 -3.636871 273.718170
9.080000 1.200000 1.160000 17.190434 -7.357162 349.638855
9.080000 1.200000 1.200000 23.529076 -6.315918 593.508179
9.120000 0.800000 0.800000 -30.422222 -1.171889 926.884949
9.120000 0.800000 0.840000 -23.945507 -18.529955 916.746582
9.120000 0.800000 0.880000 -1.965946 -25.070757 632.407776
9.120000 0.800000 0.920000 18.807098 -10.288316 459.556396
9.120000 0.800000 0.960000 19.818287 15.990510 648.460938
9.120000 0.800000 1.000000 -0.040908 32.162895 1034.453491
9.120000 0.800000 1.040000 -22.931532 26.199423 1212.264893
9.120000 0.800000 1.080000 -30.155201 7.034450 958.819580
9.120000 0.800000 1.120000 -20.493893 -5.952603 455.433105
9.120000 0.800000 1.160000 -9.342948 -3.575325 100.073631
9.120000 0.800000 1.200000 -10.495364 4.819454 133.379807
9.120000 0.840000 0.800000 -23.049183 -24.824038 1147.497681
9.120000 0.840000 0.840000 -7.953962 -37.123146 1441.393433
9.120000 0.840000 0.880000 16.691183 -33.077568 1372.721069
9.120000 0.840000 0.920000 32.036217 -9.372055 1114.154663
9.120000 0.840000 0.960000 24.475368 18.749748 950.596680
9.120000 0.840000 1.000000 -0.442628 31.146460 970.297852
9.120000 0.840000 1.040000 -23.279133 21.618500 1009.277588
9.120000 0.840000 1.080000 -29.423946 2.365750 871.365417
9.120000 0.840000 1.120000 -21.561008 -9.856026 562.018311
9.120000 0.840000 1.160000 -13.520439 -10.346429 289.850861
9.120000 0.840000 1.200000 -13.739816 -8.353845 258.569244
9.120000 0.880000 0.800000 3.003277 -37.348030 1403.895020
9.120000 0.880000 0.840000 21.330311 -39.854694 2043.378784
9.120000 0.880000 0.880000 42.013859 -25.574562 2419.222656
9.120000 0.880000 0.920000 48.438072 3.419540 2357.940186
9.120000 0.880000 0.960000 32.133991 30.695145 1974.785278
9.120000 0.880000 1.000000 1.854160 38.952534 1520.737793
9.120000 0.880000 1.040000 -23.358849 24.941883 1167.733398
9.120000 0.880000 1.080000 -30.331896 1.278969 921.659668
9.120000 0.880000 1.120000 -21.285076 -15.874663 705.059448
9.120000 0.880000 1.160000 -8.545035 -20.361147 487.593933
9.120000 0.880000 1.200000 -1.426021 -18.020838 326.784119
9.120000 0.920000 0.800000 32.987316 -25.779854 1752.763916
9.120000 0.920000 0.840000 47.293404 -18.923590 2594.768311
9.120000 0.920000 0.880000 59.114738 1.529591 3496.891846
9.120000 0.920000 0.920000 54.807175 31.414202 3990.678467
9.120000 0.920000 0.960000 28.927710 54.456818 3802.357422
9.120000 0.920000 1.000000 -7.578222 54.595200 3038.065186
9.120000 0.920000 1.040000 -33.928440 30.475431 2079.890869
9.120000 0.920000 1.080000 -35.937378 -2.096364 1295.889893
9.120000 0.920000 1.120000 -17.320557 -22.774416 818.675659
9.120000 0.920000 1.160000 4.633679 -22.952660 548.295593
9.120000 0.920000 1.200000 14.630926 -10.883737 332.519714
9.120000 0.960000 0.800000 45.892414 5.890419 2140.810791
9.120000 0.960000 0.840000 51.508209 16.842422 2936.762939
9.120000 0.960000 0.880000 52.854515 37.661430 4211.983398
9.120000 0.960000 0.920000 37.640224 63.119995 5400.920410
9.120000 0.960000 0.960000 3.166050 75.949982 5778.423828
9.120000 0.960000 1.000000 -35.269432 61.461815 5021.487305
9.120000 0.960000 1.040000 -53.897018 23.836027 3473.044922
9.120000 0.960000 1.080000 -41.138466 -13.651899 1878.747803
9.120000 0.960000 1.120000 -9.333534 -27.322029 833.608154
9.120000 0.960000 1.160000 15.341197 -13.710984 423.343414
9.120000 0.960000 1.200000 16.224186 8.084795 328.588135
9.120000 1.000000 0.800000 31.272995 37.549500 2387.965332
9.120000 1.000000 0.840000 28.678310 46.138050 2951.165283
9.120000 1.000000 0.880000 21.286104 61.909996 4285.945801
9.120000 1.000000 0.920000 -1.999213 77.037735 5938.809570
9.120000 1.000000 0.960000 -38.616108 73.578262 6904.964355
9.120000 1.000000 1.000000 -67.869812 42.466911 6409.750000
9.120000 1.000000 1.040000 -67.574188 -2.151875 4570.901367
9.120000 1.000000 1.080000 -36.743629 -31.336880 2332.094482
9.120000 1.000000 1.120000 0.078130 -27.140923 736.635803
9.120000 1.000000 1.160000 14.058927 -0.344651 197.772202
9.120000 1.000000 1.200000 -0.871908 19.267979 372.015228
9.120000 1.040000 0.800000 -1.196865 47.921555 2297.907715
9.120000 1.040000 0.840000 -7.640182 50.616959 2620.448730
9.120000 1.040000 0.880000 -19.609362 57.908943 3737.972900
9.120000 1.040000 0.920000 -44.112591 58.758152 5398.441406
9.120000 1.040000 0.960000 -71.521141 38.739319 6616.008301
9.120000 1.040000 1.000000 -80.173172 -0.579516 6428.073242
9.120000 1.040000 1.040000 -58.058712 -36.692383 4717.145020
9.120000 1.040000 1.080000 -18.837248 -44.803688 2362.212402
9.120000 1.040000 1.120000 7.567997 -22.769184 575.710327
9.120000 1.040000 1.160000 2.983683 4.594058 30.007734
9.120000 1.040000 1.200000 -20.592512 8.802363 501.533142
9.120000 1.080000 0.800000 -28.641956 31.549273 1815.718262
9.120000 1.080000 0.840000 -34.498062 29.156256 2040.203613
9.120000 1.080000 0.880000 -45.988930 27.384836 2864.910889
9.120000 1.080000 0.920000 -62.781467 15.278862 4174.956543
9.120000 1.080000 0.960000 -71.246674 -12.388462 5229.562500
9.120000 1.080000 1.000000 -57.333115 -43.769547 5202.859375
9.120000 1.080000 1.040000 -24.272318 -57.426727 3886.974609
9.120000 1.080000 1.080000 5.842250 -43.607002 1935.702515
9.120000 1.080000 1.120000 11.661448 -16.676733 414.102783
9.120000 1.080000 1.160000 -5.621378 -3.240851 42.103008
9.120000 1.080000 1.200000 -22.017345 -15.940687 738.869019
9.120000 1.120000 0.800000 -33.141968 3.100113 1108.000732
9.120000 1.120000 0.840000 -37.034721 -1.432910 1373.623779
9.120000 1.120000 0.880000 -43.824799 -10.177094 2024.186157
9.120000 1.120000 0.920000 -46.590866 -27.906921 2949.504883
9.120000 1.120000 0.960000 -35.428440 -48.987770 3654.975830
9.120000 1.120000 1.000000 -10.107563 -59.116684 3596.945068
9.120000 1.120000 1.040000 15.355400 -49.093773 2645.986816
9.120000 1.120000 1.080000 23.991896 -26.476580 1276.620361
9.120000 1.120000 1.120000 12.963251 -10.849691 285.761688
9.120000 1.120000 1.160000 -1.880016 -15.311147 237.965668
9.120000 1.120000 1.200000 -0.652734 -32.643536 1066.026489
9.120000 1.160000 0.800000 -15.777443 -15.076908 476.240845
9.120000 1.160000 0.840000 -19.201250 -20.228422 777.877075
9.120000 1.160000 0.880000 -19.110447 -32.318275 1409.680176
9.120000 1.160000 0.920000 -8.067560 -45.939915 2175.561279
9.120000 1.160000 0.960000 12.926437 -49.812946 2648.422363
9.120000 1.160000 1.000000 32.184227 -37.812592 2465.616699
9.120000 1.160000 1.040000 36.877907 -17.056963 1650.919922
9.120000 1.160000 1.080000 25.901920 -3.193090 681.105286
9.120000 1.160000 1.120000 12.367054 -5.912675 187.903748
9.120000 1.160000 1.160000 11.752291 -19.014755 499.677246
9.120000 1.160000 1.200000 26.816051 -25.789541 1384.201172
9.120000 1.200000 0.800000 5.546770 -11.444159 161.735428
9.120000 1.200000 0.840000 1.300135 -18.642248 349.223755
9.120000 1.200000 0.880000 8.304220 -30.423189 994.530518
9.120000 1.200000 0.920000 26.759342 -33.278282 1823.506470
9.120000 1.200000 0.960000 43.751324 -19.597729 2298.249268
9.120000 1.200000 1.000000 45.043526 2.812752 2036.830811
9.120000 1.200000 1.040000 29.855679 16.834808 1174.772339
9.120000 1.200000 1.080000 12.839498 12.596560 323.526001
9.120000 1.200000 1.120000 10.162138 -2.367451 108.873871
9.120000 1.200000 1.160000 23.603756 -10.388852 665.065491
9.120000 1.200000 1.200000 39.031841 -1.144456 1524.794434
9.160000 0.800000 0.800000 -34.597580 -10.695683 1311.390137
9.160000 0.800000 0.840000 -20.599075 -29.859367 1315.903809
9.160000 0.800000 0.880000 7.455972 -28.494762 867.542969
9.160000 0.800000 0.920000 23.912743 -2.406978 577.612793
9.160000 0.800000 0.960000 11.574743 27.127975 869.901733
9.160000 0.800000 1.000000 -19.631710 33.738026 1523.658447
9.160000 0.800000 1.040000 -41.828484 12.465399 1905.008301
9.160000 0.800000 1.080000 -36.948730 -15.635676 1609.683105
9.160000 0.800000 1.120000 -13.866871 -25.492046 842.134521
9.160000 0.800000 1.160000 2.684028 -13.054069 177.612717
9.160000 0.800000 1.200000 -1.350150 2.878276 10.107379
9.160000 0.840000 0.800000 -18.226080 -28.579817 1148.995850
9.160000 0.840000 0.840000 2.318190 -35.618546 1274.054810
9.160000 0.840000 0.880000 24.123970 -19.871555 976.844666
9.160000 0.840000 0.920000 24.923290 10.637032 734.316833
9.160000 0.840000 0.960000 -0.087757 31.169962 971.574219
9.160000 0.840000 1.000000 -31.785095 24.012066 1586.871582
9.160000 0.840000 1.040000 -44.933575 -4.082321 2035.691528
9.160000 0.840000 1.080000 -32.134804 -28.936886 1869.989014
9.160000 0.840000 1.120000 -9.151865 -32.888065 1165.381470
9.160000 0.840000 1.160000 2.918604 -20.429604 425.886963
9.160000 0.840000 1.200000 -1.076820 -10.207459 105.351776
9.160000 0.880000 0.800000 9.238211 -28.163218 878.511353
9.160000 0.880000 0.840000 25.102379 -21.673367 1099.864258
9.160000 0.880000 0.880000 32.178513 0.039435 1035.458252
9.160000 0.880000 0.920000 18.502048 23.509480 895.021423
9.160000 0.880000 0.960000 -10.657337 29.622334 991.061523
9.160000 0.880000 1.000000 -35.411354 11.580952 1388.082397
9.160000 0.880000 1.040000 -38.520527 -17.974274 1806.905518
9.160000 0.880000 1.080000 -20.426575 -38.218262 1877.880493
9.160000 0.880000 1.120000 2.609598 -38.461777 1486.118286
9.160000 0.880000 1.160000 14.598644 -25.596371 868.294617
9.160000 0.880000 1.200000 13.463137 -14.472250 390.702057
9.160000 0.920000 0.800000 28.702087 -5.352454 852.458557
9.160000 0.920000 0.840000 31.320498 6.810893 1027.361816
9.160000 0.920000 0.880000 24.035185 22.697886 1092.884155
9.160000 0.920000 0.920000 4.226648 32.167465 1052.610352
9.160000 0.920000 0.960000 -20.168884 25.162319 1039.926270
9.160000 0.920000 1.000000 -34.381966 1.679365 1184.939819
9.160000 0.920000 1.040000 -28.292381 -25.689447 1460.406494
9.160000 0.920000 1.080000 -5.518662 -40.462475 1667.667603
9.160000 0.920000 1.120000 18.787807 -35.219376 1593.386108
9.160000 0.920000 1.160000 30.065746 -17.100529 1196.377197
9.160000 0.920000 1.200000 25.577013 -0.874625 654.948547
9.160000 0.960000 0.800000 24.163939 25.989841 1259.367798
9.160000 0.960000 0.840000 14.002651 32.436218 1248.182495
9.160000 0.960000 0.880000 0.639299 35.165924 1237.050903
9.160000 0.960000 0.920000 -15.646991 31.128036 1213.782959
9.160000 0.960000 0.960000 -29.967939 16.358364 1165.673462
9.160000 0.960000 1.000000 -32.926037 -7.476072 1140.015503
9.160000 0.960000 1.040000 -18.337830 -29.448196 1203.472290
9.160000 0.960000 1.080000 8.244465 -35.547596 1331.602783
9.160000 0.960000 1.120000 30.550018 -20.984964 1373.672363
9.160000 0.960000 1.160000 34.007889 3.417521 1168.215942
9.160000 0.960000 1.200000 18.878168 18.973125 716.364746
9.160000 1.000000 0.800000 -2.936813 43.603203 1909.864136
9.160000 1.000000 0.840000 -17.416267 37.844032 1735.497070
9.160000 1.000000 0.880000 -27.113510 28.215986 1531.284424
9.160000 1.000000 0.920000 -33.997238 16.200562 1418.270508
9.160000 1.000000 0.960000 -36.700302 -0.460320 1347.124146
9.160000 1.000000 1.000000 -28.893127 -19.947510 1232.715942
9.160000 1.000000 1.040000 -7.693838 -32.015575 1084.192261
9.160000 1.000000 1.080000 17.734205 -25.680132 973.971191
9.160000 1.000000 1.120000 30.076626 -2.468677 910.697754
9.160000 1.000000 1.160000 19.673063 20.398766 803.139038
9.160000 1.000000 1.200000 -3.697995 23.837187 581.886658
9.160000 1.040000 0.800000 -33.481956 34.856369 2336.007812
9.160000 1.040000 0.840000 -43.102623 19.099346 2222.621094
9.160000 1.040000 0.880000 -43.995941 3.296783 1946.511597
9.160000 1.040000 0.920000 -40.292328 -10.532843 1734.412476
9.160000 1.040000 0.960000 -31.936489 -23.901901 1591.240234
9.160000 1.040000 1.000000 -15.573723 -33.761013 1382.346924
9.160000 1.040000 1.040000 6.441336 -31.655682 1043.572998
9.160000 1.040000 1.080000 21.912949 -13.838915 671.692871
9.160000 1.040000 1.120000 18.315716 9.392787 423.689911
9.160000 1.040000 1.160000 -2.326369 19.055809 368.535858
9.160000 1.040000 1.200000 -20.839790 5.554653 465.151062
9.160000 1.080000 0.800000 -45.818020 7.499955 2155.540283
9.160000 1.080000 0.840000 -47.429840 -11.090654 2372.592529
9.160000 1.080000 0.880000 -40.042717 -27.120945 2338.964844
9.160000 1.080000 0.920000 -27.080738 -38.281197 2198.816406
9.160000 1.080000 0.960000 -9.897992 -43.376957 1979.530640
9.160000 1.080000 1.000000 9.182650 -38.956238 1601.909546
9.160000 1.080000 1.040000 22.629330 -23.071243 1044.368896
9.160000 1.080000 1.080000 21.277464 -2.272367 457.894135
9.160000 1.080000 1.120000 4.801546 9.040999 104.794518
9.160000 1.080000 1.160000 -13.029667 0.695979 170.256607
9.160000 1.080000 1.200000 -13.853242 -20.809065 624.929504
9.160000 1.120000 0.800000 -33.445759 -16.788452 1400.470947
9.160000 1.120000 0.840000 -30.332420 -33.163177 2019.852051
9.160000 1.120000 0.880000 -17.425486 -46.936573 2506.689453
9.160000 1.120000 0.920000 2.729516 -52.183731 2730.592041
9.160000 1.120000 0.960000 23.756260 -44.772289 2568.917725
9.160000 1.120000 1.000000 36.351856 -25.730616 1983.521973
9.160000 1.120000 1.040000 33.284122 -3.828215 1122.488037
9.160000 1.120000 1.080000 16.505386 7.712115 331.904480
9.160000 1.120000 1.120000 -0.947886 1.038118 1.976177
9.160000 1.120000 1.160000 -3.351939 -17.684065 323.961639
9.160000 1.120000 1.200000 14.003518 -30.671453 1136.836548
9.160000 1.160000 0.800000 -9.711069 -20.655907 520.971313
9.160000 1.160000 0.840000 -6.221248 -35.469814 1296.811646
9.160000 1.160000 0.880000 10.720720 -46.831604 2308.133057
9.160000 1.160000 0.920000 35.047035 -43.368336 3109.107178
9.160000 1.160000 0.960000 52.194839 -22.540440 3232.372559
9.160000 1.160000 1.000000 50.001251 4.601735 2521.301270
9.160000 1.160000 1.040000 29.951931 20.331173 1310.474731
9.160000 1.160000 1.080000 7.983994 14.689881 279.536774
9.160000 1.160000 1.120000 2.187304 -5.075011 30.540039
9.160000 1.160000 1.160000 17.290489 -19.598688 683.069580
9.160000 1.160000 1.200000 40.023857 -13.664027 1788.614868
9.160000 1.200000 0.800000 4.505547 -5.016754 45.467766
9.160000 1.200000 0.840000 8.176589 -21.908180 546.824951
9.160000 1.200000 0.880000 29.243938 -30.115759 1762.166870
9.160000 1.200000 0.920000 53.003456 -16.503572 3081.734375
9.160000 1.200000 0.960000 58.856483 13.170681 3637.552490
9.160000 1.200000 1.000000 40.000687 37.237522 2986.687988
9.160000 1.200000 1.040000 11.405435 37.453201 1532.826294
9.160000 1.200000 1.080000 -3.039052 16.432224 279.253845
9.160000 1.200000 1.120000 7.461405 -4.314820 74.290237
9.160000 1.200000 1.160000 30.771393 -4.362020 965.905823
9.160000 1.200000 1.200000 43.732338 16.998730 2201.474121
9.200000 0.800000 0.800000 -30.351490 -21.550541 1385.638794
9.200000 0.800000 0.840000 -9.098998 -35.093048 1314.313721
9.200000 0.800000 0.880000 16.735445 -22.289383 776.891724
9.200000 0.800000 0.920000 20.209656 8.929066 488.158386
9.200000 0.800000 0.960000 -5.270847 29.777832 914.501160
9.200000 0.800000 1.000000 -37.276093 19.442909 1767.533813
9.200000 0.800000 1.040000 -46.007412 -13.071203 2287.538330
9.200000 0.800000 1.080000 -24.171719 -37.573601 1996.047485
9.200000 0.800000 1.120000 6.241208 -33.041828 1130.715088
9.200000 0.800000 1.160000 17.162167 -7.919807 357.263306
9.200000 0.800000 1.200000 2.778401 10.476287 117.472099
9.200000 0.840000 0.800000 -13.025715 -29.646713 1048.596924
9.200000 0.840000 0.840000 7.630308 -29.605255 934.692749
9.200000 0.840000 0.880000 19.792543 -8.419823 462.638184
9.200000 0.840000 0.920000 6.914292 16.272715 312.608673
9.200000 0.840000 0.960000 -23.482159 19.795803 943.285645
9.200000 0.840000 1.000000 -45.163528 -4.343484 2058.610107
9.200000 0.840000 1.040000 -38.459038 -36.691975 2825.398438
9.200000 0.840000 1.080000 -9.583340 -50.418213 2633.836426
9.200000 0.840000 1.120000 16.130848 -37.106461 1637.093628
9.200000 0.840000 1.160000 19.667032 -13.291414 563.453857
9.200000 0.840000 1.200000 5.749602 -1.789719 36.261017
9.200000 0.880000 0.800000 6.638115 -20.640287 470.086029
9.200000 0.880000 0.840000 15.867352 -11.884418 393.012268
9.200000 0.880000 0.880000 12.010785 4.633670 165.729858
9.200000 0.880000 0.920000 -7.765137 12.619267 219.543259
9.200000 0.880000 0.960000 -29.601292 -0.036481 876.237793
9.200000 0.880000 1.000000 -34.328140 -27.812832 1951.974854
9.200000 0.880000 1.040000 -15.572701 -50.759323 2819.017822
9.200000 0.880000 1.080000 13.604228 -52.172729 2907.068604
9.200000 0.880000 1.120000 32.589394 -33.399681 2177.607422
9.200000 0.880000 1.160000 31.705830 -11.222124 1131.195679
9.200000 0.880000 1.200000 19.062397 -1.147242 364.691132
9.200000 0.920000 0.800000 12.586232 2.351559 163.943069
9.200000 0.920000 0.840000 7.237350 7.697054 111.623871
9.200000 0.920000 0.880000 -4.041212 8.968965 96.773712
9.200000 0.920000 0.920000 -16.807966 0.417518 282.682037
9.200000 0.920000 0.960000 -21.787609 -18.129894 803.392944
9.200000 0.920000 1.000000 -11.745410 -38.198288 1597.063965
9.200000 0.920000 1.040000 11.187662 -47.241249 2356.899414
9.200000 0.920000 1.080000 35.052734 -38.285690 2694.488281
9.200000 0.920000 1.120000 46.323250 -16.261963 2410.294922
9.200000 0.920000 1.160000 40.269814 5.279762 1649.533691
9.200000 0.920000 1.200000 24.246918 14.741284 805.218506
9.200000 0.960000 0.800000 -2.669027 22.861897 529.790039
9.200000 0.960000 0.840000 -15.035538 14.652061 440.750305
9.200000 0.960000 0.880000 -20.387468 0.299259 415.738434
9.200000 0.960000 0.920000 -17.327225 -14.946477 523.629883
9.200000 0.960000 0.960000 -6.845823 -27.293859 791.820068
9.200000 0.960000 1.000000 9.675705 -33.494217 1215.481812
9.200000 0.960000 1.040000 28.977438 -29.645638 1718.555664
9.200000 0.960000 1.080000 43.801048 -13.882179 2111.246826
9.200000 0.960000 1.120000 45.554337 8.877348 2154.004883
9.200000 0.960000 1.160000 31.701929 26.950876 1731.362061
9.200000 0.960000 1.200000 10.548038 29.725307 994.855042
9.200000 1.000000 0.800000 -29.497219 24.081509 1450.005005
9.200000 1.000000 0.840000 -36.704762 1.903069 1350.861206
9.200000 1.000000 0.880000 -27.730652 -18.919609 1126.940674
9.200000 1.000000 0.920000 -9.900578 -29.083853 943.891907
9.200000 1.000000 0.960000 7.939896 -28.616020 881.918518
9.200000 1.000000 1.000000 22.384575 -21.449247 961.139404
9.200000 1.000000 1.040000 33.007885 -8.849447 1167.833252
9.200000 1.000000 1.080000 36.484421 9.222962 1416.175903
9.200000 1.000000 1.120000 27.569763 27.651726 1524.709717
9.200000 1.000000 1.160000 7.368061 35.561741 1318.925781
9.200000 1.000000 1.200000 -12.127779 25.805050 812.983582
9.200000 1.040000 0.800000 -47.837837 3.915200 2303.787598
9.200000 1.040000 0.840000 -42.693031 -23.730787 2385.845215
9.200000 1.040000 0.880000 -20.650536 -40.240974 2045.780640
9.200000 1.040000 0.920000 4.306004 -39.199982 1555.180176
9.200000 1.040000 0.960000 21.295971 -26.308178 1145.638672
9.200000 1.040000 1.000000 28.518818 -9.815770 909.672363
9.200000 1.040000 1.040000 28.055201 6.621714 830.941406
9.200000 1.040000 1.080000 19.663414 21.263996 838.807373
9.200000 1.040000 1.120000 3.062691 28.675488 831.663635
9.200000 1.040000 1.160000 -15.146198 22.065407 716.289490
9.200000 1.040000 1.200000 -21.971695 2.940025 491.399109
9.200000 1.080000 0.800000 -44.101860 -22.299446 2442.239258
9.200000 1.080000 0.840000 -28.690681 -46.094746 2947.880859
9.200000 1.080000 0.880000 -0.837511 -53.445202 2857.091064
9.200000 1.080000 0.920000 24.005878 -41.997963 2340.111084
9.200000 1.080000 0.960000 35.763805 -20.312597 1691.651367
9.200000 1.080000 1.000000 33.557812 1.309256 1127.840820
9.200000 1.080000 1.040000 21.320713 16.404465 723.679321
9.200000 1.080000 1.080000 3.863848 21.336304 470.167175
9.200000 1.080000 1.120000 -12.222108 13.955965 344.148895
9.200000 1.080000 1.160000 -17.920391 -3.100994 330.756561
9.200000 1.080000 1.200000 -7.343483 -19.112324 419.207642
9.200000 1.120000 0.800000 -22.956959 -34.719780 1732.485107
9.200000 1.120000 0.840000 -4.331857 -51.865753 2708.821289
9.200000 1.120000 0.880000 23.405573 -51.933956 3244.956543
9.200000 1.120000 0.920000 45.166870 -33.442719 3158.461426
9.200000 1.120000 0.960000 50.083809 -5.950535 2543.796875
9.200000 1.120000 1.000000 37.197048 16.906017 1669.433838
9.200000 1.120000 1.040000 14.623842 24.967422 837.228943
9.200000 1.120000 1.080000 -5.110943 16.063766 284.166321
9.200000 1.120000 1.120000 -11.073509 -2.937984 131.254349
9.200000 1.120000 1.160000 0.071004 -18.897083 357.104797
9.200000 1.120000 1.200000 20.680889 -19.442415 805.706665
9.200000 1.160000 0.800000 -2.923826 -26.050854 687.195740
9.200000 1.160000 0.840000 14.649658 -40.181755 1829.186035
9.200000 1.160000 0.880000 41.350021 -36.469955 3039.881836
9.200000 1.160000 0.920000 59.644814 -12.643257 3717.355713
9.200000 1.160000 0.960000 56.107632 18.449860 3488.463623
9.200000 1.160000 1.000000 32.223267 37.629616 2454.326904
9.200000 1.160000 1.040000 4.076871 33.650005 1148.943726
9.200000 1.160000 1.080000 -9.305840 11.904454 228.314697
9.200000 1.160000 1.120000 -0.202335 -9.444418 89.237968
9.200000 1.160000 1.160000 22.037399 -13.196833 659.803345
9.200000 1.160000 1.200000 38.353584 3.846502 1485.792969
9.200000 1.200000 0.800000 0.161091 -7.072406 50.044884
9.200000 1.200000 0.840000 18.448364 -22.073105 827.564087
9.200000 1.200000 0.880000 45.715210 -15.005916 2315.057861
9.200000 1.200000 0.920000 59.210896 13.967564 3701.022949
9.200000 1.200000 0.960000 45.406414 44.992569 4086.073730
9.200000 1.200000 1.000000 13.183984 54.793037 3176.094238
9.200000 1.200000 1.040000 -12.851458 37.255821 1553.156128
9.200000 1.200000 1.080000 -13.662830 9.136944 270.156677
9.200000 1.200000 1.120000 7.722331 -4.733692 82.042236
9.200000 1.200000 1.160000 29.628893 6.766840 923.661377
9.200000 1.200000 1.200000 31.501440 32.303669 2035.867676
