#kx 	ky 	kz 	real 	imag 	intensity
1.800000 3.800000 7.800000 -7.627402 -8.398093 128.705231
1.800000 3.800000 7.840000 -8.394304 -4.341624 89.314041
1.800000 3.800000 7.880000 -13.553763 -6.747423 229.232208
1.800000 3.800000 7.920000 -13.797794 -16.760696 471.300049
1.800000 3.800000 7.960000 -3.206274 -26.050686 688.918457
1.800000 3.800000 8.000000 13.641745 -24.502974 786.492920
1.800000 3.800000 8.040000 25.055571 -10.565907 739.419983
1.800000 3.800000 8.080000 23.229637 6.575872 582.858154
1.800000 3.800000 8.120000 11.562542 15.659636 378.916595
1.800000 3.800000 8.160000 0.601497 13.846059 192.075150
1.800000 3.800000 8.200000 -2.899437 8.024351 72.796951
1.800000 3.840000 7.800000 -3.921842 -11.924583 157.576538
1.800000 3.840000 7.840000 -7.133289 -7.202264 102.756424
1.800000 3.840000 7.880000 -12.356838 -11.099934 275.899963
1.800000 3.840000 7.920000 -9.830385 -20.624409 522.002686
1.800000 3.840000 7.960000 2.317388 -25.229738 641.909973
1.800000 3.840000 8.000000 15.225901 -17.926197 553.176575
1.800000 3.840000 8.040000 18.066843 -3.195545 336.622345
1.800000 3.840000 8.080000 9.340792 7.178996 138.788361
1.800000 3.840000 8.120000 -1.561718 6.252975 41.538666
1.800000 3.840000 8.160000 -4.548648 -1.132174 21.972013
1.800000 3.840000 8.200000 0.384716 -4.365655 19.206949
1.800000 3.880000 7.800000 2.751704 -15.438633 245.923264
1.800000 3.880000 7.840000 -1.914213 -11.610732 138.473312
1.800000 3.880000 7.880000 -5.777071 -16.090530 292.279724
1.800000 3.880000 7.920000 -1.725525 -23.059776 534.730713
1.800000 3.880000 7.960000 8.141931 -23.689518 627.484253
1.800000 3.880000 8.000000 15.006987 -16.046911 482.713013
1.800000 3.880000 8.040000 13.369088 -7.194639 230.495346
1.800000 3.880000 8.080000 7.290424 -4.983298 77.983551
1.800000 3.880000 8.120000 5.502308 -8.773136 107.243309
1.800000 3.880000 8.160000 10.703230 -10.087370 216.314163
1.800000 3.880000 8.200000 15.551023 -2.936843 250.459381
1.800000 3.920000 7.800000 13.722806 -14.576653 400.794189
1.800000 3.920000 7.840000 8.646893 -11.261256 201.584656
1.800000 3.920000 7.880000 5.566600 -14.714630 247.507385
1.800000 3.920000 7.920000 8.550920 -19.227901 442.830444
1.800000 3.920000 7.960000 14.724900 -19.418261 593.891541
1.800000 3.920000 8.000000 18.951893 -15.705162 605.826355
1.800000 3.920000 8.040000 20.277145 -12.227621 560.677368
1.800000 3.920000 8.080000 22.214907 -10.332623 600.265137
1.800000 3.920000 8.120000 26.566584 -6.124146 743.288574
1.800000 3.920000 8.160000 28.755398 4.082211 843.537354
1.800000 3.920000 8.200000 21.628323 16.637062 744.576172
1.800000 3.960000 7.800000 24.294624 -4.773723 613.017212
1.800000 3.960000 7.840000 18.125320 -1.115631 329.771881
1.800000 3.960000 7.880000 13.754398 -3.660855 202.585327
1.800000 3.960000 7.920000 14.386726 -8.268312 275.342896
1.800000 3.960000 7.960000 19.198128 -11.022865 490.071686
1.800000 3.960000 8.000000 26.038441 -10.260098 783.269958
1.800000 3.960000 8.040000 33.205864 -5.253838 1130.232178
1.800000 3.960000 8.080000 38.294579 4.941615 1490.894287
1.800000 3.960000 8.120000 36.885189 19.507267 1741.050659
1.800000 3.960000 8.160000 25.023636 32.934990 1710.895874
1.800000 3.960000 8.200000 4.597048 36.270363 1336.671997
1.800000 4.000000 7.800000 26.422592 12.258413 848.422058
1.800000 4.000000 7.840000 17.433092 15.392541 540.843018
1.800000 4.000000 7.880000 10.770203 11.236908 242.265350
1.800000 4.000000 7.920000 10.848549 3.828892 132.351425
1.800000 4.000000 7.960000 18.263794 -0.891811 334.361481
1.800000 4.000000 8.000000 29.372915 2.256221 867.858643
1.800000 4.000000 8.040000 37.266129 14.954924 1612.414062
1.800000 4.000000 8.080000 34.711472 33.237144 2309.593994
1.800000 4.000000 8.120000 18.846552 47.940613 2653.494629
1.800000 4.000000 8.160000 -5.208732 49.257240 2453.406494
1.800000 4.000000 8.200000 -25.488226 33.642170 1781.445312
1.800000 4.040000 7.800000 16.250854 28.040535 1050.361816
1.800000 4.040000 7.840000 4.094564 27.784008 788.716553
1.800000 4.040000 7.880000 -2.838727 19.224680 377.646698
1.800000 4.040000 7.920000 0.461366 9.124931 83.477234
1.800000 4.040000 7.960000 12.176615 6.569339 191.426163
1.800000 4.040000 8.000000 23.364683 16.705315 824.975952
1.800000 4.040000 8.040000 23.149609 35.732422 1812.710449
1.800000 4.040000 8.080000 6.865376 51.759445 2726.173584
1.800000 4.040000 8.120000 -18.999836 52.419559 3108.804199
1.800000 4.040000 8.160000 -39.859673 34.248341 2761.742188
1.800000 4.040000 8.200000 -42.922588 6.329875 1882.416016
1.800000 4.080000 7.800000 -1.741416 34.067207 1163.607056
1.800000 4.080000 7.840000 -14.557553 27.674070 977.776550
1.800000 4.080000 7.880000 -17.629654 14.621658 524.597595
1.800000 4.080000 7.920000 -8.713265 5.469981 105.841690
1.800000 4.080000 7.960000 4.459105 9.330088 106.934158
1.800000 4.080000 8.000000 8.713931 25.452938 723.784668
1.800000 4.080000 8.040000 -3.968054 41.801624 1763.121338
1.800000 4.080000 8.080000 -28.450956 43.549931 2706.053223
1.800000 4.080000 8.120000 -48.863823 25.366638 3031.139404
1.800000 4.080000 8.160000 -50.585476 -3.136076 2568.725342
1.800000 4.080000 8.200000 -32.021015 -24.195992 1610.791504
1.800000 4.120000 7.800000 -18.617687 28.685699 1169.487549
1.800000 4.120000 7.840000 -27.862688 16.020496 1032.985718
1.800000 4.120000 7.880000 -24.018797 1.921422 580.594421
1.800000 4.120000 7.920000 -11.083853 -1.705184 125.759445
1.800000 4.120000 7.960000 -2.226726 8.870050 83.636101
1.800000 4.120000 8.000000 -8.789954 24.052841 655.802490
1.800000 4.120000 8.040000 -29.035017 27.893978 1621.106201
1.800000 4.120000 8.080000 -47.826077 12.261023 2437.666260
1.800000 4.120000 8.120000 -48.945229 -14.696825 2611.632080
1.800000 4.120000 8.160000 -29.481079 -34.382336 2051.279053
1.800000 4.120000 8.200000 -2.949606 -33.355919 1121.317505
1.800000 4.160000 7.800000 -28.620359 17.029581 1109.131592
1.800000 4.160000 7.840000 -31.009157 0.965981 962.500916
1.800000 4.160000 7.880000 -20.758606 -9.472740 520.652527
1.800000 4.160000 7.920000 -8.618378 -5.851014 108.510796
1.800000 4.160000 7.960000 -8.255992 6.712971 113.225372
1.800000 4.160000 8.000000 -22.517792 12.885294 673.081726
1.800000 4.160000 8.040000 -38.936035 1.544917 1518.401611
1.800000 4.160000 8.080000 -40.390125 -22.288170 2128.124756
1.800000 4.160000 8.120000 -21.557976 -40.488964 2104.102539
1.800000 4.160000 8.160000 4.845158 -38.020565 1469.038940
1.800000 4.160000 8.200000 18.788582 -17.102808 645.516846
1.800000 4.200000 7.800000 -32.323704 4.714303 1067.046387
1.800000 4.200000 7.840000 -27.232122 -10.731749 856.758911
1.800000 4.200000 7.880000 -14.094572 -14.817614 418.218628
1.800000 4.200000 7.920000 -7.076498 -6.563620 93.157928
1.800000 4.200000 7.960000 -14.130431 1.475119 201.845062
1.800000 4.200000 8.000000 -27.497776 -4.382445 775.333496
1.800000 4.200000 8.040000 -30.315039 -23.845608 1487.614624
1.800000 4.200000 8.080000 -13.881205 -40.948631 1869.478271
1.800000 4.200000 8.120000 11.881143 -38.917633 1655.743652
1.800000 4.200000 8.160000 26.331358 -17.317183 993.225220
1.800000 4.200000 8.200000 17.518131 5.977104 342.610687
1.840000 3.800000 7.800000 -7.866287 -7.228802 114.134048
1.840000 3.800000 7.840000 -7.198549 -5.074870 77.573418
1.840000 3.800000 7.880000 -9.282859 -7.034990 135.662552
1.840000 3.800000 7.920000 -7.778166 -13.795732 250.822098
1.840000 3.800000 7.960000 1.365553 -19.494658 381.906403
1.840000 3.800000 8.000000 14.877556 -16.811502 503.968292
1.840000 3.800000 8.040000 24.084721 -4.291320 598.489197
1.840000 3.800000 8.080000 22.446011 11.543518 637.076172
1.840000 3.800000 8.120000 11.300925 21.553961 592.284119
1.840000 3.800000 8.160000 -1.729651 21.546036 467.223358
1.840000 3.800000 8.200000 -9.661081 14.629499 307.358734
1.840000 3.840000 7.800000 -0.559400 -13.165488 173.643005
1.840000 3.840000 7.840000 1.356768 -8.573278 75.341927
1.840000 3.840000 7.880000 0.431713 -6.485684 42.250477
1.840000 3.840000 7.920000 0.456995 -7.198975 52.034081
1.840000 3.840000 7.960000 3.235764 -7.708918 69.897575
1.840000 3.840000 8.000000 6.879238 -5.229213 74.668579
1.840000 3.840000 8.040000 8.084757 -0.257668 65.429688
1.840000 3.840000 8.080000 5.800961 4.110481 50.547199
1.840000 3.840000 8.120000 2.113752 5.636052 36.233032
1.840000 3.840000 8.160000 -0.453957 5.079580 26.008211
1.840000 3.840000 8.200000 -1.776889 4.511298 23.509144
1.840000 3.880000 7.800000 12.222040 -13.216423 324.052124
1.840000 3.880000 7.840000 13.825678 -3.539384 203.676605
1.840000 3.880000 7.880000 8.890179 4.385092 98.264313
1.840000 3.880000 7.920000 0.274750 6.387227 40.872158
1.840000 3.880000 7.960000 -6.762100 1.457631 47.850685
1.840000 3.880000 8.000000 -7.612969 -7.266602 110.760803
1.840000 3.880000 8.040000 -1.248584 -14.101567 200.413162
1.840000 3.880000 8.080000 8.863785 -14.186396 279.820496
1.840000 3.880000 8.120000 16.589506 -6.578358 318.486481
1.840000 3.880000 8.160000 16.774311 4.764774 304.080566
1.840000 3.880000 8.200000 8.728395 13.039007 246.200562
1.840000 3.920000 7.800000 24.090408 -2.198247 585.180054
1.840000 3.920000 7.840000 20.242958 12.800081 573.619446
1.840000 3.920000 7.880000 5.502772 21.729183 502.437927
1.840000 3.920000 7.920000 -12.646631 16.639074 436.796082
1.840000 3.920000 7.960000 -21.642199 -1.752048 471.454437
1.840000 3.920000 8.000000 -13.179064 -22.191710 666.159729
1.840000 3.920000 8.040000 9.117603 -30.037275 985.368591
1.840000 3.920000 8.080000 30.943970 -18.402769 1296.191162
1.840000 3.920000 8.120000 37.463623 5.887547 1438.186279
1.840000 3.920000 8.160000 24.412262 26.940861 1321.768555
1.840000 3.920000 8.200000 1.189454 31.443598 990.114624
1.840000 3.960000 7.800000 24.981167 16.967535 911.955933
1.840000 3.960000 7.840000 11.157458 31.931610 1144.116577
1.840000 3.960000 7.880000 -12.653563 32.470573 1214.450806
1.840000 3.960000 7.920000 -31.275383 12.922659 1145.144775
1.840000 3.960000 7.960000 -28.658373 -16.903883 1107.043579
1.840000 3.960000 8.000000 -2.343133 -36.097580 1308.525513
1.840000 3.960000 8.040000 31.489077 -28.528275 1805.424316
1.840000 3.960000 8.080000 48.913681 2.914070 2401.039795
1.840000 3.960000 8.120000 37.017105 37.062103 2743.865723
1.840000 3.960000 8.160000 4.458046 50.573906 2577.594238
1.840000 3.960000 8.200000 -25.512840 35.906952 1940.214233
1.840000 4.000000 7.800000 10.795494 32.839813 1194.996094
1.840000 4.000000 7.840000 -11.450372 39.405319 1683.890137
1.840000 4.000000 7.880000 -35.184792 25.636267 1895.187744
1.840000 4.000000 7.920000 -41.620029 -4.981205 1757.039185
1.840000 4.000000 7.960000 -20.699400 -32.656506 1494.912598
1.840000 4.000000 8.000000 16.810806 -34.947498 1503.930908
1.840000 4.000000 8.040000 44.431755 -6.301644 2013.891602
1.840000 4.000000 8.080000 40.478401 34.616264 2836.786621
1.840000 4.000000 8.120000 6.627338 58.351707 3448.843506
1.840000 4.000000 8.160000 -32.532516 48.236603 3385.134277
1.840000 4.000000 8.200000 -49.280590 13.528599 2611.599609
1.840000 4.040000 7.800000 -11.145437 34.554939 1318.264648
1.840000 4.040000 7.840000 -33.596657 28.066017 1916.436646
1.840000 4.040000 7.880000 -46.103737 3.747843 2139.600830
1.840000 4.040000 7.920000 -35.087276 -25.012226 1856.728394
1.840000 4.040000 7.960000 -3.342597 -36.343208 1332.001709
1.840000 4.040000 8.000000 27.736635 -17.956406 1091.753418
1.840000 4.040000 8.040000 33.482033 19.601017 1505.246338
1.840000 4.040000 8.080000 7.137676 48.727715 2425.336670
1.840000 4.040000 8.120000 -32.599358 46.711937 3244.723145
1.840000 4.040000 8.160000 -55.998665 14.983616 3360.359375
1.840000 4.040000 8.200000 -46.619797 -21.997890 2657.312744
1.840000 4.080000 7.800000 -27.657196 21.646935 1233.510254
1.840000 4.080000 7.840000 -41.177345 5.398870 1724.721558
1.840000 4.080000 7.880000 -38.319920 -18.267599 1802.121460
1.840000 4.080000 7.920000 -16.967625 -32.980293 1375.599976
1.840000 4.080000 7.960000 9.525799 -25.470339 739.479004
1.840000 4.080000 8.000000 20.480206 1.278645 421.073730
1.840000 4.080000 8.040000 5.152398 27.358345 775.026245
1.840000 4.080000 8.080000 -26.196819 31.102680 1653.650024
1.840000 4.080000 8.120000 -49.104908 7.845737 2472.847656
1.840000 4.080000 8.160000 -45.056900 -25.049847 2657.619141
1.840000 4.080000 8.200000 -17.221031 -42.395893 2093.975586
1.840000 4.120000 7.800000 -31.254993 4.039972 993.195984
1.840000 4.120000 7.840000 -32.562454 -13.341890 1238.319580
1.840000 4.120000 7.880000 -20.161161 -26.632114 1115.741943
1.840000 4.120000 7.920000 -1.890230 -25.607325 659.308044
1.840000 4.120000 7.960000 8.074270 -10.341091 172.132004
1.840000 4.120000 8.000000 0.707898 6.733162 45.836590
1.840000 4.120000 8.040000 -18.817701 10.035742 454.822021
1.840000 4.120000 8.080000 -33.924797 -5.501222 1181.155273
1.840000 4.120000 8.120000 -30.308138 -28.787601 1747.309326
1.840000 4.120000 8.160000 -8.783422 -41.190536 1773.808716
1.840000 4.120000 8.200000 14.743638 -32.439713 1269.709839
1.840000 4.160000 7.800000 -25.753853 -8.004643 727.335266
1.840000 4.160000 7.840000 -18.711658 -19.523838 731.306396
1.840000 4.160000 7.880000 -6.698332 -21.212606 494.842316
1.840000 4.160000 7.920000 -0.001503 -13.300516 176.903732
1.840000 4.160000 7.960000 -4.400784 -4.859045 42.977222
1.840000 4.160000 8.000000 -15.199080 -6.173068 269.118835
1.840000 4.160000 8.040000 -20.539083 -18.951096 780.997925
1.840000 4.160000 8.080000 -11.990017 -33.630074 1274.742310
1.840000 4.160000 8.120000 7.003029 -37.120731 1426.991211
1.840000 4.160000 8.160000 23.067684 -24.579699 1136.279541
1.840000 4.160000 8.200000 24.118439 -4.421321 601.247192
1.840000 4.200000 7.800000 -20.151993 -13.322529 583.592590
1.840000 4.200000 7.840000 -10.789984 -17.948263 438.563904
1.840000 4.200000 7.880000 -4.653597 -13.987618 217.309433
1.840000 4.200000 7.920000 -7.428894 -9.509594 145.620850
1.840000 4.200000 7.960000 -14.354457 -13.775074 395.803101
1.840000 4.200000 8.000000 -14.075203 -26.962414 925.083069
1.840000 4.200000 8.040000 -0.163482 -38.226906 1461.323120
1.840000 4.200000 8.080000 20.891186 -35.179024 1674.005371
1.840000 4.200000 8.120000 33.896370 -16.300533 1414.671265
1.840000 4.200000 8.160000 28.313612 5.952639 837.094543
1.840000 4.200000 8.200000 8.404282 15.115927 299.123199
1.880000 3.800000 7.800000 -8.541204 -10.704226 187.532639
1.880000 3.800000 7.840000 -4.557763 -7.535233 77.552933
1.880000 3.800000 7.880000 -5.178351 -6.013725 62.980213
1.880000 3.800000 7.920000 -5.335468 -9.476922 118.279274
1.880000 3.800000 7.960000 0.680590 -14.463713 209.662186
1.880000 3.800000 8.000000 12.412279 -13.364864 332.684265
1.880000 3.800000 8.040000 22.120989 -2.157286 493.992004
1.880000 3.800000 8.080000 21.306320 14.451538 662.806274
1.880000 3.800000 8.120000 8.795242 26.096560 758.386658
1.880000 3.800000 8.160000 -7.566381 25.451656 705.036926
1.880000 3.800000 8.200000 -17.341766 14.297286 505.149231
1.880000 3.840000 7.800000 5.951602 -14.268588 239.014175
1.880000 3.840000 7.840000 11.396454 -2.082567 134.216248
1.880000 3.840000 7.880000 5.598175 9.512589 121.828918
1.880000 3.840000 7.920000 -6.457565 11.404245 171.756958
1.880000 3.840000 7.960000 -14.057266 2.649805 204.628204
1.880000 3.840000 8.000000 -10.464767 -8.223938 177.144516
1.880000 3.840000 8.040000 0.852797 -11.024933 122.276405
1.880000 3.840000 8.080000 9.700769 -3.233276 104.559006
1.880000 3.840000 8.120000 8.760286 8.195607 143.910583
1.880000 3.840000 8.160000 -0.145701 13.886168 192.846893
1.880000 3.840000 8.200000 -8.765495 10.560106 188.349762
1.880000 3.880000 7.800000 21.449715 -3.941282 475.623962
1.880000 3.880000 7.840000 19.279057 19.652004 757.883301
1.880000 3.880000 7.880000 -3.110552 35.303116 1255.985474
1.880000 3.880000 7.920000 -32.220581 27.448967 1791.611694
1.880000 3.880000 7.960000 -45.713959 -1.657955 2092.514893
1.880000 3.880000 8.000000 -31.803650 -31.537441 2006.082397
1.880000 3.880000 8.040000 -0.356716 -40.221695 1617.911987
1.880000 3.880000 8.080000 25.337902 -22.863756 1164.760620
1.880000 3.880000 8.120000 28.431393 5.155165 834.919861
1.880000 3.880000 8.160000 11.467034 22.732494 648.259155
1.880000 3.880000 8.200000 -8.604547 20.789064 506.223450
1.880000 3.920000 7.800000 24.371244 18.007805 918.238647
1.880000 3.920000 7.840000 4.654074 45.046227 2050.822998
1.880000 3.920000 7.880000 -36.151726 48.127106 3623.165527
1.880000 3.920000 7.920000 -69.737068 14.898676 5085.229492
1.880000 3.920000 7.960000 -66.761307 -36.890549 5817.984863
1.880000 3.920000 8.000000 -24.164055 -70.609573 5569.613281
1.880000 3.920000 8.040000 29.348183 -61.239777 4611.625977
1.880000 3.920000 8.080000 56.488098 -17.021519 3480.637451
1.880000 3.920000 8.120000 42.211273 28.101938 2571.510498
1.880000 3.920000 8.160000 4.020304 43.808197 1935.320923
1.880000 3.920000 8.200000 -26.183308 26.936787 1411.156006
1.880000 3.960000 7.800000 7.752322 36.938644 1424.562012
1.880000 3.960000 7.840000 -29.340269 51.896004 3554.046631
1.880000 3.960000 7.880000 -73.901321 28.876598 6295.263184
1.880000 3.960000 7.920000 -88.402756 -28.266573 8614.046875
1.880000 3.960000 7.960000 -52.036011 -82.716751 9549.807617
1.880000 3.960000 8.000000 16.251677 -92.840416 8883.459961
1.880000 3.960000 8.040000 69.671463 -48.721481 7227.895508
1.880000 3.960000 8.080000 71.960022 17.568092 5486.882324
1.880000 3.960000 8.120000 27.271507 58.711872 4190.819336
1.880000 3.960000 8.160000 -25.658310 51.290321 3289.045898
1.880000 3.960000 8.200000 -48.283363 11.758947 2469.556152
1.880000 4.000000 7.800000 -19.565830 37.089104 1758.423340
1.880000 4.000000 7.840000 -60.251003 29.182701 4481.813477
1.880000 4.000000 7.880000 -86.691437 -16.190769 7777.546387
1.880000 4.000000 7.920000 -67.825073 -75.410835 10287.035156
1.880000 4.000000 7.960000 -4.919430 -104.472458 10938.695312
1.880000 4.000000 8.000000 62.545452 -76.170822 9713.927734
1.880000 4.000000 8.040000 86.833908 -6.851774 7587.074219
1.880000 4.000000 8.080000 52.301826 54.478863 5703.427734
1.880000 4.000000 8.120000 -11.251059 66.564667 4557.441406
1.880000 4.000000 8.160000 -54.883423 29.142136 3861.454102
1.880000 4.000000 8.200000 -51.646347 -20.685848 3095.249512
1.880000 4.040000 7.800000 -38.489540 16.498474 1753.644287
1.880000 4.040000 7.840000 -64.814034 -10.083574 4302.537109
1.880000 4.040000 7.880000 -62.157635 -57.357956 7153.506836
1.880000 4.040000 7.920000 -18.989822 -93.004204 9010.395508
1.880000 4.040000 7.960000 42.764786 -84.853821 9028.998047
1.880000 4.040000 8.000000 80.519958 -31.214333 7457.798340
1.880000 4.040000 8.040000 65.888115 32.833202 5419.262695
1.880000 4.040000 8.080000 10.339731 62.407921 4001.658691
1.880000 4.040000 8.120000 -43.309952 40.116596 3485.093262
1.880000 4.040000 8.160000 -56.898041 -10.370712 3344.938721
1.880000 4.040000 8.200000 -27.614656 -46.536476 2928.212891
1.880000 4.080000 7.800000 -36.349327 -10.051775 1422.311768
1.880000 4.080000 7.840000 -40.480797 -38.807896 3144.747559
1.880000 4.080000 7.880000 -18.050098 -67.069771 4824.160156
1.880000 4.080000 7.920000 23.841383 -70.956276 5603.204590
1.880000 4.080000 7.960000 58.676964 -40.493446 5082.705078
1.880000 4.080000 8.000000 60.093376 7.733292 3671.017578
1.880000 4.080000 8.040000 25.243523 40.689789 2292.894287
1.880000 4.080000 8.080000 -20.295649 35.538353 1674.887817
1.880000 4.080000 8.120000 -42.713955 -0.684704 1824.950806
1.880000 4.080000 8.160000 -28.054110 -36.974480 2154.145264
1.880000 4.080000 8.200000 7.141623 -45.023464 2078.114990
1.880000 4.120000 7.800000 -18.268053 -24.314253 924.904663
1.880000 4.120000 7.840000 -7.898512 -40.095333 1670.022217
1.880000 4.120000 7.880000 13.508614 -44.586021 2170.395996
1.880000 4.120000 7.920000 33.761429 -31.409006 2126.359863
1.880000 4.120000 7.960000 38.695202 -6.463566 1539.096313
1.880000 4.120000 8.000000 23.628473 14.199295 759.924744
1.880000 4.120000 8.040000 -1.090702 16.134386 261.508057
1.880000 4.120000 8.080000 -16.985674 -1.234762 290.037750
1.880000 4.120000 8.120000 -12.325781 -23.125929 686.733459
1.880000 4.120000 8.160000 7.804239 -31.288744 1039.891602
1.880000 4.120000 8.200000 25.741409 -19.336447 1036.518311
1.880000 4.160000 7.800000 -1.320458 -21.317104 456.162567
1.880000 4.160000 7.840000 8.948810 -21.780125 554.455017
1.880000 4.160000 7.880000 15.378841 -15.025614 462.277832
1.880000 4.160000 7.920000 14.359842 -7.091026 256.487732
1.880000 4.160000 7.960000 8.399139 -4.095203 87.316231
1.880000 4.160000 8.000000 3.601475 -7.630021 71.187843
1.880000 4.160000 8.040000 4.760128 -13.870506 215.049759
1.880000 4.160000 8.080000 11.743102 -16.726381 417.672272
1.880000 4.160000 8.120000 19.601982 -12.515499 540.875427
1.880000 4.160000 8.160000 22.206375 -2.828720 501.124756
1.880000 4.160000 8.200000 16.781279 6.392145 322.470825
1.880000 4.200000 7.800000 2.855594 -12.477196 163.834839
1.880000 4.200000 7.840000 5.023390 -6.564276 68.324165
1.880000 4.200000 7.880000 -0.885745 -3.930588 16.234064
1.880000 4.200000 7.920000 -6.970543 -11.071777 171.172714
1.880000 4.200000 7.960000 -3.031311 -23.796743 575.473816
1.880000 4.200000 8.000000 12.667789 -30.237045 1074.751831
1.880000 4.200000 8.040000 30.389412 -21.884214 1402.435181
1.880000 4.200000 8.080000 36.914307 -2.111311 1367.123657
1.880000 4.200000 8.120000 27.124626 16.040077 993.029419
1.880000 4.200000 8.160000 8.417233 20.723724 500.322540
1.880000 4.200000 8.200000 -5.731374 10.708828 147.527634
1.920000 3.800000 7.800000 -3.848105 -15.461147 253.854996
1.920000 3.800000 7.840000 1.083237 -7.644627 59.613716
1.920000 3.800000 7.880000 -2.296810 -2.660826 12.355330
1.920000 3.800000 7.920000 -6.119339 -6.243443 76.426888
1.920000 3.800000 7.960000 -1.313766 -13.649010 188.021454
1.920000 3.800000 8.000000 12.033579 -13.802071 335.304169
1.920000 3.800000 8.040000 23.265171 -0.896458 542.071838
1.920000 3.800000 8.080000 21.003132 18.411451 780.113098
1.920000 3.800000 8.120000 4.662254 30.137165 929.985352
1.920000 3.800000 8.160000 -14.090096 25.777256 862.997681
1.920000 3.800000 8.200000 -21.687950 10.198416 574.374878
1.920000 3.840000 7.800000 14.335826 -9.257042 291.208740
1.920000 3.840000 7.840000 13.556522 12.955959 351.636169
1.920000 3.840000 7.880000 -6.384430 26.081366 720.998535
1.920000 3.840000 7.920000 -29.695847 16.734203 1161.876953
1.920000 3.840000 7.960000 -35.539185 -8.679367 1338.365112
1.920000 3.840000 8.000000 -17.814318 -28.575302 1133.897827
1.920000 3.840000 8.040000 8.608284 -25.999008 750.050964
1.920000 3.840000 8.080000 21.799553 -4.182115 492.710602
1.920000 3.840000 8.120000 13.020972 17.448025 473.979279
1.920000 3.840000 8.160000 -6.606701 22.240360 538.282104
1.920000 3.840000 8.200000 -18.668100 10.987886 469.231628
1.920000 3.880000 7.800000 22.026915 12.646755 645.125366
1.920000 3.880000 7.840000 0.960411 43.451496 1888.954834
1.920000 3.880000 7.880000 -43.762299 46.065247 4037.145508
1.920000 3.880000 7.920000 -78.166695 8.432255 6181.135254
1.920000 3.880000 7.960000 -70.883629 -46.231468 7161.837402
1.920000 3.880000 8.000000 -23.268723 -77.027779 6474.712402
1.920000 3.880000 8.040000 29.859505 -61.295811 4648.766602
1.920000 3.880000 8.080000 50.611340 -14.307981 2766.226074
1.920000 3.880000 8.120000 30.405792 25.982693 1599.612549
1.920000 3.880000 8.160000 -6.178713 33.381142 1152.477173
1.920000 3.880000 8.200000 -27.464521 13.529585 937.349609
1.920000 3.920000 7.800000 7.423134 35.517578 1316.601318
1.920000 3.920000 7.840000 -39.119373 55.423473 4602.086914
1.920000 3.920000 7.880000 -95.139816 25.546516 9704.208984
1.920000 3.920000 7.920000 -111.245346 -47.075638 14591.642578
1.920000 3.920000 7.960000 -63.211376 -113.366058 16847.541016
1.920000 3.920000 8.000000 21.243809 -122.355820 15422.246094
1.920000 3.920000 8.040000 83.129448 -66.719803 11362.037109
1.920000 3.920000 8.080000 82.470688 10.339561 6908.321289
1.920000 3.920000 8.120000 30.739092 53.640678 3822.214111
1.920000 3.920000 8.160000 -24.044487 42.630936 2395.534180
1.920000 3.920000 8.200000 -42.461391 2.725312 1810.397095
1.920000 3.960000 7.800000 -23.127001 38.730186 2034.885498
1.920000 3.960000 7.840000 -80.739395 28.807163 7348.702637
1.920000 3.960000 7.880000 -117.926743 -36.266647 15221.986328
1.920000 3.960000 7.920000 -89.237068 -120.578522 22502.433594
1.920000 3.960000 7.960000 1.319567 -160.227402 25674.562500
1.920000 3.960000 8.000000 95.748154 -119.023285 23334.250000
1.920000 3.960000 8.040000 128.734772 -23.419949 17121.134766
1.920000 3.960000 8.080000 83.262238 58.491467 10353.851562
1.920000 3.960000 8.120000 2.877965 75.020462 5636.352539
1.920000 3.960000 8.160000 -49.631752 31.419838 3450.517090
1.920000 3.960000 8.200000 -46.034267 -22.855276 2641.517578
1.920000 4.000000 7.800000 -46.965641 15.176439 2436.095703
1.920000 4.000000 7.840000 -89.434540 -25.030121 8625.043945
1.920000 4.000000 7.880000 -85.266296 -100.842575 17439.566406
1.920000 4.000000 7.920000 -14.676491 -158.208832 25245.433594
1.920000 4.000000 7.960000 85.848976 -144.538803 28261.511719
1.920000 4.000000 8.000000 147.615875 -58.418793 25203.203125
1.920000 4.000000 8.040000 127.272980 43.676517 18106.048828
1.920000 4.000000 8.080000 44.568405 93.254898 10682.818359
1.920000 4.000000 8.120000 -35.655418 66.624100 5710.079102
1.920000 4.000000 8.160000 -59.873783 0.276984 3584.946533
1.920000 4.000000 8.200000 -27.515297 -46.770554 2944.576172
1.920000 4.040000 7.800000 -44.202629 -19.628019 2339.131592
1.920000 4.040000 7.840000 -54.326378 -69.007446 7713.382812
1.920000 4.040000 7.880000 -14.599958 -121.594864 14998.469727
1.920000 4.040000 7.920000 64.274277 -130.096237 21056.214844
1.920000 4.040000 7.960000 132.391144 -73.270897 22896.039062
1.920000 4.040000 8.000000 139.288254 19.216593 19770.494141
1.920000 4.040000 8.040000 78.214874 86.751915 13643.460938
1.920000 4.040000 8.080000 -6.039135 87.322159 7661.630371
1.920000 4.040000 8.120000 -54.576691 31.643505 3979.926758
1.920000 4.040000 8.160000 -42.881996 -29.263308 2695.206787
1.920000 4.040000 8.200000 3.707253 -49.922058 2505.955566
1.920000 4.080000 7.800000 -16.426155 -39.812935 1854.888428
1.920000 4.080000 7.840000 -0.311932 -72.308754 5228.652832
1.920000 4.080000 7.880000 45.018806 -86.023399 9426.718750
1.920000 4.080000 7.920000 95.180656 -59.003662 12540.789062
1.920000 4.080000 7.960000 113.905144 1.824512 12977.710938
1.920000 4.080000 8.000000 83.115425 60.663498 10588.234375
1.920000 4.080000 8.040000 20.910954 79.540802 6764.007324
1.920000 4.080000 8.080000 -30.974081 49.523258 3411.946777
1.920000 4.080000 8.120000 -40.740654 -1.991821 1663.768311
1.920000 4.080000 8.160000 -11.328478 -35.001465 1353.437012
1.920000 4.080000 8.200000 25.385895 -29.949234 1541.400269
1.920000 4.120000 7.800000 14.100158 -32.354275 1245.613525
1.920000 4.120000 7.840000 33.563194 -38.056419 2574.779053
1.920000 4.120000 7.880000 56.259995 -26.770374 3881.839844
1.920000 4.120000 7.920000 67.479202 0.643642 4553.856934
1.920000 4.120000 7.960000 57.005489 31.330109 4231.201172
1.920000 4.120000 8.000000 28.005547 47.711067 3060.656738
1.920000 4.120000 8.040000 -3.253098 40.184792 1625.400146
1.920000 4.120000 8.080000 -18.440701 15.213051 571.496338
1.920000 4.120000 8.120000 -10.988749 -8.892942 199.837021
1.920000 4.120000 8.160000 8.983955 -16.019861 337.347412
1.920000 4.120000 8.200000 23.308968 -4.604218 564.506775
1.920000 4.160000 7.800000 25.108582 -8.515020 702.946411
1.920000 4.160000 7.840000 29.145079 0.953419 850.344604
1.920000 4.160000 7.880000 25.183453 9.651772 727.362976
1.920000 4.160000 7.920000 18.081924 12.429920 481.458923
1.920000 4.160000 7.960000 13.510220 10.799625 299.157959
1.920000 4.160000 8.000000 12.354034 9.367792 240.377686
1.920000 4.160000 8.040000 11.483297 10.084702 233.567322
1.920000 4.160000 8.080000 8.678566 10.897766 194.078812
1.920000 4.160000 8.120000 5.331238 9.456102 117.839966
1.920000 4.160000 8.160000 4.036552 6.527849 58.906570
1.920000 4.160000 8.200000 4.773216 4.888966 46.685574
1.920000 4.200000 7.800000 14.728024 8.128107 282.980804
1.920000 4.200000 7.840000 3.291823 14.129345 210.474487
1.920000 4.200000 7.880000 -9.176826 5.050478 109.721466
1.920000 4.200000 7.920000 -7.243828 -12.980582 220.968552
1.920000 4.200000 7.960000 11.313911 -22.332767 626.757080
1.920000 4.200000 8.000000 31.600304 -11.552471 1132.038818
1.920000 4.200000 8.040000 35.398201 12.419273 1407.270996
1.920000 4.200000 8.080000 18.772272 30.223988 1265.887695
1.920000 4.200000 8.120000 -4.317585 28.239161 816.091736
1.920000 4.200000 8.160000 -15.592533 10.610428 355.708252
1.920000 4.200000 8.200000 -9.076572 -6.208040 120.923935
1.960000 3.800000 7.800000 4.901190 -14.357870 230.170105
1.960000 3.800000 7.840000 5.553123 -2.349789 36.358688
1.960000 3.800000 7.880000 -2.977947 1.796438 12.095360
1.960000 3.800000 7.920000 -8.200867 -5.675591 99.466537
1.960000 3.800000 7.960000 -0.663231 -15.086349 228.037827
1.960000 3.800000 8.000000 15.377327 -12.825287 400.950165
1.960000 3.800000 8.040000 25.151478 4.297695 651.067017
1.960000 3.800000 8.080000 17.807205 24.713717 927.864319
1.960000 3.800000 8.120000 -2.496424 32.637093 1071.411987
1.960000 3.800000 8.160000 -20.178837 23.020855 937.145264
1.960000 3.800000 8.200000 -22.859154 6.000812 558.550659
1.960000 3.840000 7.800000 16.484596 2.922632 280.283691
1.960000 3.840000 7.840000 0.965618 26.412613 698.558533
1.960000 3.840000 7.880000 -30.798168 26.748976 1664.034912
1.960000 3.840000 7.920000 -51.242504 -1.574951 2628.274658
1.960000 3.840000 7.960000 -39.785172 -37.085777 2958.214844
1.960000 3.840000 8.000000 -3.445610 -49.831635 2495.064209
1.960000 3.840000 8.040000 28.638065 -29.137032 1669.105469
1.960000 3.840000 8.080000 31.958166 6.842344 1068.142090
1.960000 3.840000 8.120000 8.273579 28.967115 907.545837
1.960000 3.840000 8.160000 -18.603401 24.053213 924.643616
1.960000 3.840000 8.200000 -27.149000 4.364003 756.112732
1.960000 3.880000 7.800000 7.565308 26.465624 757.663147
1.960000 3.880000 7.840000 -35.079807 44.576756 3217.680176
1.960000 3.880000 7.880000 -84.470215 15.980080 7390.580078
1.960000 3.880000 7.920000 -94.898262 -49.295441 11435.720703
1.960000 3.880000 7.960000 -48.061256 -104.108788 13148.523438
1.960000 3.880000 8.000000 26.128342 -104.746277 11654.472656
1.960000 3.880000 8.040000 73.935089 -50.801327 8047.172363
1.960000 3.880000 8.080000 64.901665 14.663998 4427.258789
1.960000 3.880000 8.120000 16.338621 44.652683 2260.812744
1.960000 3.880000 8.160000 -27.003767 28.372726 1534.215088
1.960000 3.880000 8.200000 -35.537273 -5.721124 1295.629028
1.960000 3.920000 7.800000 -21.026705 34.449669 1628.901978
1.960000 3.920000 7.840000 -81.976639 23.520102 7273.364746
1.960000 3.920000 7.880000 -119.188644 -46.252983 16345.271484
1.960000 3.920000 7.920000 -85.308334 -133.463959 25090.140625
1.960000 3.920000 7.960000 11.212219 -169.964417 29013.615234
1.960000 3.920000 8.000000 106.308739 -121.829483 26143.970703
1.960000 3.920000 8.040000 133.932175 -22.230005 18432.001953
1.960000 3.920000 8.080000 82.918228 56.929344 10116.382812
1.960000 3.920000 8.120000 3.037931 67.587006 4577.232422
1.960000 3.920000 8.160000 -43.419567 22.473358 2390.310547
1.960000 3.920000 8.200000 -35.504265 -25.876545 1930.148438
1.960000 3.960000 7.800000 -48.233353 13.999981 2522.455811
1.960000 3.960000 7.840000 -99.387230 -34.666302 11079.574219
1.960000 3.960000 7.880000 -92.242973 -126.304237 24461.527344
1.960000 3.960000 7.920000 -4.612198 -192.812546 37197.953125
1.960000 3.960000 7.960000 115.664413 -171.755920 42878.351562
1.960000 3.960000 8.000000 185.219803 -66.160400 38683.574219
1.960000 3.960000 8.040000 156.603271 53.026711 27336.416016
1.960000 3.960000 8.080000 59.053310 106.774155 14888.013672
1.960000 3.960000 8.120000 -29.970701 73.901299 6359.644531
1.960000 3.960000 8.160000 -53.683544 1.721461 2884.886230
1.960000 3.960000 8.200000 -18.979658 -44.264122 2319.540039
1.960000 4.000000 7.800000 -49.345856 -23.701336 2996.766602
1.960000 4.000000 7.840000 -64.291435 -91.762604 12553.763672
1.960000 4.000000 7.880000 -8.131626 -164.472977 27117.482422
1.960000 4.000000 7.920000 102.302856 -173.809647 40675.667969
1.960000 4.000000 7.960000 194.894821 -91.991562 46446.437500
1.960000 4.000000 8.000000 200.731735 36.076405 41594.738281
1.960000 4.000000 8.040000 115.100769 126.107513 29151.292969
1.960000 4.000000 8.080000 2.430191 124.905594 15607.313477
1.960000 4.000000 8.120000 -59.994343 52.353138 6340.172363
1.960000 4.000000 8.160000 -45.873734 -22.767733 2622.769043
1.960000 4.000000 8.200000 7.251679 -46.425354 2207.900391
1.960000 4.040000 7.800000 -19.234972 -50.163998 2886.410889
1.960000 4.040000 7.840000 3.833214 -104.417557 10917.719727
1.960000 4.040000 7.880000 78.530800 -128.668610 22722.697266
1.960000 4.040000 7.920000 162.421265 -83.313408 33321.792969
1.960000 4.040000 7.960000 192.474899 19.107643 37411.687500
1.960000 4.040000 8.000000 139.390594 116.514534 33005.375000
1.960000 4.040000 8.040000 36.124153 146.407944 22740.240234
1.960000 4.040000 8.080000 -48.082558 97.619926 11841.583008
1.960000 4.040000 8.120000 -65.065094 16.976887 4521.681152
1.960000 4.040000 8.160000 -23.709721 -33.975067 1716.456055
1.960000 4.040000 8.200000 26.188801 -30.154552 1595.150391
1.960000 4.080000 7.800000 20.836414 -44.226955 2390.179688
1.960000 4.080000 7.840000 57.051086 -63.477638 7284.237305
1.960000 4.080000 7.880000 109.153915 -45.623360 13996.068359
1.960000 4.080000 7.920000 139.352661 14.434555 19627.519531
1.960000 4.080000 7.960000 117.684875 86.726753 21371.259766
1.960000 4.080000 8.000000 49.734188 126.166214 18391.402344
1.960000 4.080000 8.040000 -24.332664 108.417580 12346.449219
1.960000 4.080000 8.080000 -60.673294 49.931450 6174.398438
1.960000 4.080000 8.120000 -45.877697 -6.270269 2144.079346
1.960000 4.080000 8.160000 -4.282757 -26.046753 696.775330
1.960000 4.080000 8.200000 26.308140 -8.890451 771.158325
1.960000 4.120000 7.800000 41.203415 -11.485240 1829.632202
1.960000 4.120000 7.840000 60.764858 -2.760345 3699.987305
1.960000 4.120000 7.880000 72.447594 22.672249 5762.684570
1.960000 4.120000 7.920000 64.206703 55.157951 7164.900391
1.960000 4.120000 7.960000 34.704533 77.928940 7277.324219
1.960000 4.120000 8.000000 -4.049171 77.607307 6039.290039
1.960000 4.120000 8.040000 -33.314571 53.705193 3994.108398
1.960000 4.120000 8.080000 -39.766518 19.795403 1973.233887
1.960000 4.120000 8.120000 -24.450542 -5.400740 626.997009
1.960000 4.120000 8.160000 -1.500147 -10.750122 117.815567
1.960000 4.120000 8.200000 12.596600 0.376991 158.816437
1.960000 4.160000 7.800000 30.213062 20.902205 1349.731323
1.960000 4.160000 7.840000 23.114283 32.055252 1561.809326
1.960000 4.160000 7.880000 10.805304 34.537910 1309.621948
1.960000 4.160000 7.920000 2.766693 29.575943 882.390991
1.960000 4.160000 7.960000 1.245621 25.377499 645.569031
1.960000 4.160000 8.000000 -0.191849 26.291100 691.258728
1.960000 4.160000 8.040000 -7.455709 27.400764 806.389465
1.960000 4.160000 8.080000 -17.443316 20.914019 741.665405
1.960000 4.160000 8.120000 -20.644936 6.673010 470.742432
1.960000 4.160000 8.160000 -12.122877 -5.873810 181.465790
1.960000 4.160000 8.200000 1.742031 -7.116736 53.682610
1.960000 4.200000 7.800000 3.591785 29.467178 881.215515
1.960000 4.200000 7.840000 -16.161690 24.014097 837.877075
1.960000 4.200000 7.880000 -22.764526 1.687676 521.071899
1.960000 4.200000 7.920000 -6.142513 -16.996326 326.605591
1.960000 4.200000 7.960000 19.630558 -12.181938 533.758423
1.960000 4.200000 8.000000 29.122238 13.520802 1030.916748
1.960000 4.200000 8.040000 11.487093 36.018723 1429.301758
1.960000 4.200000 8.080000 -17.752220 33.380684 1429.411377
1.960000 4.200000 8.120000 -31.836063 7.779396 1074.053955
1.960000 4.200000 8.160000 -19.191990 -17.082714 660.151611
1.960000 4.200000 8.200000 6.114492 -19.965824 436.021149
2.000000 3.800000 7.800000 9.715070 -5.477137 124.381607
2.000000 3.800000 7.840000 3.468979 5.224388 39.328045
2.000000 3.800000 7.880000 -7.373787 3.786430 68.709793
2.000000 3.800000 7.920000 -9.214926 -7.335754 138.728149
2.000000 3.800000 7.960000 2.455238 -14.628616 220.024612
2.000000 3.800000 8.000000 17.741802 -7.115053 365.395538
2.000000 3.800000 8.040000 21.657608 12.199874 617.888916
2.000000 3.800000 8.080000 8.770611 28.701452 900.697021
2.000000 3.800000 8.120000 -11.563404 29.998028 1033.593994
2.000000 3.800000 8.160000 -24.327797 17.201254 887.724854
2.000000 3.800000 8.200000 -22.803169 2.792645 527.783447
2.000000 3.840000 7.800000 6.469782 13.684879 229.134003
2.000000 3.840000 7.840000 -20.554726 24.744646 1034.794189
2.000000 3.840000 7.880000 -49.205475 5.629078 2452.865234
2.000000 3.840000 7.920000 -50.997601 -33.385952 3715.377197
2.000000 3.840000 7.960000 -18.774826 -60.915340 4063.172852
2.000000 3.840000 8.000000 24.370270 -52.791962 3380.901367
2.000000 3.840000 8.040000 45.149811 -14.755501 2256.230225
2.000000 3.840000 8.080000 29.933556 22.951729 1422.799561
2.000000 3.840000 8.120000 -4.558989 33.498493 1142.933472
2.000000 3.840000 8.160000 -29.103756 16.258854 1111.378906
2.000000 3.840000 8.200000 -29.293903 -6.795167 904.307068
2.000000 3.880000 7.800000 -15.652334 23.610092 802.432007
2.000000 3.880000 7.840000 -62.637768 13.845787 4115.195801
2.000000 3.880000 7.880000 -88.586128 -41.129646 9539.149414
2.000000 3.880000 7.920000 -58.398369 -106.008362 14648.141602
2.000000 3.880000 7.960000 17.083458 -127.989700 16673.207031
2.000000 3.880000 8.000000 85.755035 -85.071457 14591.079102
2.000000 3.880000 8.040000 98.984009 -7.803413 9858.727539
2.000000 3.880000 8.080000 53.925488 47.543556 5168.347656
2.000000 3.880000 8.120000 -7.099510 48.384186 2391.432617
2.000000 3.880000 8.160000 -37.676701 10.252916 1524.656128
2.000000 3.880000 8.200000 -27.223013 -24.707302 1351.543213
2.000000 3.920000 7.800000 -41.128204 8.982445 1772.213501
2.000000 3.920000 7.840000 -86.230949 -36.438362 8763.531250
2.000000 3.920000 7.880000 -76.275780 -119.330124 20057.673828
2.000000 3.920000 7.920000 6.136322 -175.675812 30899.644531
2.000000 3.920000 7.960000 113.735771 -150.659790 35634.199219
2.000000 3.920000 8.000000 170.555664 -51.994827 31792.697266
2.000000 3.920000 8.040000 138.134171 52.779690 21866.744141
2.000000 3.920000 8.080000 48.496368 94.407623 11264.697266
2.000000 3.920000 8.120000 -27.274612 59.934624 4336.063477
2.000000 3.920000 8.160000 -42.762100 -3.657654 1841.975586
2.000000 3.920000 8.200000 -10.474761 -39.320774 1655.843872
2.000000 3.960000 7.800000 -45.845070 -25.064182 2729.983887
2.000000 3.960000 7.840000 -59.995377 -96.534119 12918.281250
2.000000 3.960000 7.880000 1.529390 -170.901245 29209.576172
2.000000 3.960000 7.920000 117.853027 -176.000259 44865.429688
2.000000 3.960000 7.960000 210.843414 -86.031532 51856.371094
2.000000 3.960000 8.000000 210.438309 47.423481 46533.269531
2.000000 3.960000 8.040000 117.418404 135.696075 32200.507812
2.000000 3.960000 8.080000 2.774200 128.365479 16485.390625
2.000000 3.960000 8.120000 -55.659531 52.387821 5842.467285
2.000000 3.960000 8.160000 -37.681580 -19.832926 1813.246460
2.000000 3.960000 8.200000 13.139196 -38.307144 1640.075684
2.000000 4.000000 7.800000 -19.524612 -53.389481 3231.646973
2.000000 4.000000 7.840000 8.513426 -119.434570 14337.094727
2.000000 4.000000 7.880000 100.433968 -147.451508 31828.929688
2.000000 4.000000 7.920000 201.366119 -88.925636 48456.082031
2.000000 4.000000 7.960000 233.212524 37.203415 55772.175781
2.000000 4.000000 8.000000 163.823059 152.167969 49993.085938
2.000000 4.000000 8.040000 38.498619 182.001343 34606.632812
2.000000 4.000000 8.080000 -57.927315 119.478058 17630.580078
2.000000 4.000000 8.120000 -72.838020 25.476315 5954.419922
2.000000 4.000000 8.160000 -23.977331 -28.902708 1410.278931
2.000000 4.000000 8.200000 28.014767 -21.804447 1260.261108
2.000000 4.040000 7.800000 22.057529 -51.542404 3143.154053
2.000000 4.040000 7.840000 73.697525 -83.011719 12322.270508
2.000000 4.040000 7.880000 151.652588 -58.164749 26381.646484
2.000000 4.040000 7.920000 196.060242 31.394333 39425.222656
2.000000 4.040000 7.960000 161.102921 137.625992 44895.062500
2.000000 4.040000 8.000000 58.709579 191.259598 40027.050781
2.000000 4.040000 8.040000 -47.444298 159.449600 27675.136719
2.000000 4.040000 8.080000 -93.995224 72.574501 14102.160156
2.000000 4.040000 8.120000 -68.151253 -4.325226 4663.300781
2.000000 4.040000 8.160000 -10.879132 -27.166126 856.353943
2.000000 4.040000 8.200000 25.654388 -3.447681 670.034180
2.000000 4.080000 7.800000 48.661415 -18.233618 2700.398193
2.000000 4.080000 7.840000 89.944115 -12.275972 8240.643555
2.000000 4.080000 7.880000 122.509735 34.561401 16203.125000
2.000000 4.080000 7.920000 111.554688 103.806412 23220.218750
2.000000 4.080000 7.960000 50.001102 152.861679 25866.804688
2.000000 4.080000 8.000000 -31.399506 147.977997 22883.417969
2.000000 4.080000 8.040000 -86.267113 92.095383 15923.574219
2.000000 4.080000 8.080000 -88.390411 22.400265 8314.636719
2.000000 4.080000 8.120000 -49.761055 -20.013763 2876.713379
2.000000 4.080000 8.160000 -6.363874 -20.847336 475.110321
2.000000 4.080000 8.200000 13.047291 2.327332 175.648270
2.000000 4.120000 7.800000 41.594944 22.409399 2232.320557
2.000000 4.120000 7.840000 51.360207 41.619473 4370.051270
2.000000 4.120000 7.880000 44.498337 69.595032 6823.570312
2.000000 4.120000 7.920000 17.442940 91.276543 8635.663086
2.000000 4.120000 7.960000 -21.052513 93.030396 9097.862305
2.000000 4.120000 8.000000 -54.720573 71.223419 8067.116211
2.000000 4.120000 8.040000 -69.160988 34.605812 5980.804688
2.000000 4.120000 8.080000 -60.003021 -0.720140 3600.881104
2.000000 4.120000 8.120000 -34.948883 -20.494823 1641.462158
2.000000 4.120000 8.160000 -8.717739 -20.061291 478.454346
2.000000 4.120000 8.200000 5.873867 -6.059590 71.220947
2.000000 4.160000 7.800000 9.687729 41.871117 1847.042480
2.000000 4.160000 7.840000 -5.145206 46.119301 2153.463135
2.000000 4.160000 7.880000 -18.255028 38.778381 1837.008789
2.000000 4.160000 7.920000 -21.693718 28.059637 1257.960693
2.000000 4.160000 7.960000 -19.930862 23.643837 956.270264
2.000000 4.160000 8.000000 -23.257790 24.303795 1131.599243
2.000000 4.160000 8.040000 -33.671593 19.222321 1503.273682
2.000000 4.160000 8.080000 -40.359383 1.935699 1632.626709
2.000000 4.160000 8.120000 -31.184042 -19.333090 1346.212891
2.000000 4.160000 8.160000 -7.761379 -27.974958 842.837341
2.000000 4.160000 8.200000 13.345192 -16.268450 442.756592
2.000000 4.200000 7.800000 -19.954353 31.810631 1410.092529
2.000000 4.200000 7.840000 -35.522213 12.722329 1423.685303
2.000000 4.200000 7.880000 -27.506035 -13.389143 935.851135
2.000000 4.200000 7.920000 -0.427906 -20.760712 431.190247
2.000000 4.200000 7.960000 19.229502 -0.821098 370.447937
2.000000 4.200000 8.000000 10.239382 26.255604 794.201660
2.000000 4.200000 8.040000 -19.708431 30.991650 1348.904663
2.000000 4.200000 8.080000 -40.255653 5.492043 1650.680054
2.000000 4.200000 8.120000 -29.168945 -27.278318 1594.934082
2.000000 4.200000 8.160000 4.549063 -36.388943 1344.849121
2.000000 4.200000 8.200000 29.725824 -14.331182 1089.007446
2.040000 3.800000 7.800000 4.492130 4.242298 38.176327
2.040000 3.800000 7.840000 -4.936878 7.903076 86.831383
2.040000 3.800000 7.880000 -12.056982 0.924294 146.225143
2.040000 3.800000 7.920000 -8.314495 -9.170174 153.222916
2.040000 3.800000 7.960000 4.009178 -10.960312 136.201935
2.040000 3.800000 8.000000 13.763447 -0.399717 189.592239
2.040000 3.800000 8.040000 11.494953 15.240368 364.402771
2.040000 3.800000 8.080000 -1.975854 24.264381 592.664185
2.040000 3.800000 8.120000 -16.998257 21.044481 731.810913
2.040000 3.800000 8.160000 -24.279633 9.950277 688.508545
2.040000 3.800000 8.200000 -22.415892 -0.062565 502.476105
2.040000 3.840000 7.800000 -10.501186 11.623024 245.369598
2.040000 3.840000 7.840000 -34.536995 4.909798 1216.910156
2.040000 3.840000 7.880000 -45.154640 -24.353882 2632.053223
2.040000 3.840000 7.920000 -26.153011 -55.364098 3749.163330
2.040000 3.840000 7.960000 13.334152 -61.351696 3941.830078
2.040000 3.840000 8.000000 44.828712 -34.455101 3196.767334
2.040000 3.840000 8.040000 45.267876 6.231422 2088.011230
2.040000 3.840000 8.080000 16.927608 31.409229 1273.083618
2.040000 3.840000 8.120000 -16.177685 26.868919 983.656372
2.040000 3.840000 8.160000 -30.824911 3.391041 961.674316
2.040000 3.840000 8.200000 -23.670879 -16.551491 834.262390
2.040000 3.880000 7.800000 -29.751890 0.899380 885.983887
2.040000 3.880000 7.840000 -56.906490 -30.674610 4179.280273
2.040000 3.880000 7.880000 -46.343277 -84.506393 9289.029297
2.040000 3.880000 7.920000 10.614388 -117.508392 13920.887695
2.040000 3.880000 7.960000 80.196236 -95.691124 15588.226562
2.040000 3.880000 8.000000 112.607063 -27.796753 13453.009766
2.040000 3.880000 8.040000 85.695770 39.671886 8917.624023
2.040000 3.880000 8.080000 24.001377 62.451279 4476.228027
2.040000 3.880000 8.120000 -24.799129 35.352650 1864.806641
2.040000 3.880000 8.160000 -32.158707 -8.343687 1103.799438
2.040000 3.880000 8.200000 -8.961053 -31.425777 1067.879883
2.040000 3.920000 7.800000 -33.853333 -26.312813 1838.412231
2.040000 3.920000 7.840000 -41.092255 -81.871124 8391.454102
2.040000 3.920000 7.880000 10.566624 -136.727951 18806.187500
2.040000 3.920000 7.920000 101.939781 -135.128876 28651.531250
2.040000 3.920000 7.960000 170.655792 -60.243565 32752.687500
2.040000 3.920000 8.000000 164.171783 44.236485 28909.242188
2.040000 3.920000 8.040000 87.411659 108.838074 19486.525391
2.040000 3.920000 8.080000 -1.478790 97.662231 9540.097656
2.040000 3.920000 8.120000 -43.050125 35.900707 3142.174072
2.040000 3.920000 8.160000 -25.601421 -18.824158 1009.781738
2.040000 3.920000 8.200000 13.919037 -30.288063 1111.106323
2.040000 3.960000 7.800000 -12.122898 -50.628052 2710.164307
2.040000 3.960000 7.840000 16.035015 -108.316666 11989.622070
2.040000 3.960000 7.880000 100.708084 -129.261459 26850.644531
2.040000 3.960000 7.920000 189.796524 -71.127556 41081.847656
2.040000 3.960000 7.960000 212.718353 45.188042 47291.058594
2.040000 3.960000 8.000000 144.173309 146.055420 42118.128906
2.040000 3.960000 8.040000 29.684710 166.635803 28648.671875
2.040000 3.960000 8.080000 -53.222446 105.667038 13998.151367
2.040000 3.960000 8.120000 -61.152145 21.819695 4215.684082
2.040000 3.960000 8.160000 -15.528566 -22.341795 740.292175
2.040000 3.960000 8.200000 27.558510 -12.695354 920.643433
2.040000 4.000000 7.800000 24.631599 -50.135529 3120.287109
2.040000 4.000000 7.840000 79.752975 -81.865273 13062.459961
2.040000 4.000000 7.880000 161.720428 -52.620995 28922.464844
2.040000 4.000000 7.920000 205.128220 44.719833 44077.449219
2.040000 4.000000 7.960000 162.631378 155.836777 50734.066406
2.040000 4.000000 8.000000 51.401596 206.639038 45341.816406
2.040000 4.000000 8.040000 -57.697495 166.551880 31068.531250
2.040000 4.000000 8.080000 -99.657242 73.469971 15329.402344
2.040000 4.000000 8.120000 -67.450325 -2.492699 4555.759766
2.040000 4.000000 8.160000 -9.126389 -19.970497 482.111755
2.040000 4.000000 8.200000 22.440310 6.010411 539.692566
2.040000 4.040000 7.800000 50.648483 -20.540983 2987.200684
2.040000 4.040000 7.840000 104.329300 -15.262119 11117.535156
2.040000 4.040000 7.880000 147.605347 45.186497 23829.158203
2.040000 4.040000 7.920000 132.166779 135.299103 35773.906250
2.040000 4.040000 7.960000 49.923882 196.028152 40919.429688
2.040000 4.040000 8.000000 -54.397018 183.503021 36632.394531
2.040000 4.040000 8.040000 -118.196396 106.938835 25406.300781
2.040000 4.040000 8.080000 -111.867157 20.040916 12915.899414
2.040000 4.040000 8.120000 -58.834808 -25.260643 4099.634766
2.040000 4.040000 8.160000 -8.766867 -18.711647 426.983673
2.040000 4.040000 8.200000 7.162532 9.652196 144.466751
2.040000 4.080000 7.800000 46.621681 19.326181 2547.082275
2.040000 4.080000 7.840000 73.001068 45.981049 7443.412598
2.040000 4.080000 7.880000 70.955658 98.065025 14651.455078
2.040000 4.080000 7.920000 25.118942 143.180359 21131.576172
2.040000 4.080000 7.960000 -46.799812 146.915939 23774.515625
2.040000 4.080000 8.000000 -105.303101 101.442070 21379.236328
2.040000 4.080000 8.040000 -119.405457 32.447884 15310.528320
2.040000 4.080000 8.080000 -89.287216 -21.506893 8434.753906
2.040000 4.080000 8.120000 -42.392349 -38.179897 3254.815918
2.040000 4.080000 8.160000 -8.900596 -24.090755 659.585083
2.040000 4.080000 8.200000 0.102839 -2.363886 5.598535
2.040000 4.120000 7.800000 16.231104 42.851917 2099.735596
2.040000 4.120000 7.840000 12.447962 62.331879 4040.214844
2.040000 4.120000 7.880000 -8.698051 78.877419 6297.303223
2.040000 4.120000 7.920000 -40.841801 79.571022 7999.600098
2.040000 4.120000 7.960000 -70.379745 60.126457 8568.500000
2.040000 4.120000 8.000000 -84.896973 26.599487 7915.028809
2.040000 4.120000 8.040000 -79.227165 -8.920502 6356.519043
2.040000 4.120000 8.080000 -56.679649 -34.415398 4397.002441
2.040000 4.120000 8.120000 -26.757914 -42.605358 2531.202637
2.040000 4.120000 8.160000 -1.206491 -33.472679 1121.875854
2.040000 4.120000 8.200000 10.875700 -14.340307 323.925262
2.040000 4.160000 7.800000 -17.812874 37.794399 1745.715088
2.040000 4.160000 7.840000 -32.201027 32.740704 2108.859863
2.040000 4.160000 7.880000 -38.807240 18.931091 1864.388062
2.040000 4.160000 7.920000 -35.334179 7.839020 1309.954346
2.040000 4.160000 7.960000 -31.359783 5.260437 1011.108154
2.040000 4.160000 8.000000 -35.314964 3.703842 1260.865234
2.040000 4.160000 8.040000 -42.073036 -8.178671 1837.031006
2.040000 4.160000 8.080000 -36.993553 -29.594925 2244.382568
2.040000 4.160000 8.120000 -13.341187 -44.515793 2159.643066
2.040000 4.160000 8.160000 16.565212 -37.138474 1653.672485
2.040000 4.160000 8.200000 30.683004 -10.071608 1042.884033
2.040000 4.200000 7.800000 -34.079445 14.677851 1376.847900
2.040000 4.200000 7.840000 -36.863346 -9.398159 1447.231689
2.040000 4.200000 7.880000 -16.651094 -26.756893 993.190308
2.040000 4.200000 7.920000 8.855624 -18.774334 430.897705
2.040000 4.200000 7.960000 13.371637 6.692181 223.585968
2.040000 4.200000 8.000000 -8.506741 21.106033 517.829285
2.040000 4.200000 8.040000 -32.855301 5.440180 1109.066406
2.040000 4.200000 8.080000 -30.268070 -27.623125 1679.193115
2.040000 4.200000 8.120000 2.363789 -44.880650 2019.860229
2.040000 4.200000 8.160000 36.684864 -26.830074 2065.632324
2.040000 4.200000 8.200000 41.146896 11.172823 1817.899170
2.080000 3.800000 7.800000 -7.582443 5.187210 84.400597
2.080000 3.800000 7.840000 -12.794323 1.903900 167.319534
2.080000 3.800000 7.880000 -12.957626 -5.066582 193.570343
2.080000 3.800000 7.920000 -6.933784 -9.710079 142.363007
2.080000 3.800000 7.960000 0.935410 -7.791900 61.588699
2.080000 3.800000 8.000000 4.873470 -0.302891 23.842457
2.080000 3.800000 8.040000 2.243716 7.960831 68.409088
2.080000 3.800000 8.080000 -5.279597 12.370695 180.908249
2.080000 3.800000 8.120000 -13.817631 11.125579 314.705444
2.080000 3.800000 8.160000 -19.877647 5.217135 422.339386
2.080000 3.800000 8.200000 -21.496712 -2.885975 470.437469
2.080000 3.840000 7.800000 -20.307299 -5.250004 439.948914
2.080000 3.840000 7.840000 -28.215601 -20.190020 1203.757080
2.080000 3.840000 7.880000 -20.141781 -41.526634 2130.152588
2.080000 3.840000 7.920000 5.235909 -52.169064 2749.025879
2.080000 3.840000 7.960000 33.362320 -40.230293 2731.520996
2.080000 3.840000 8.000000 44.929676 -10.689877 2132.949219
2.080000 3.840000 8.040000 32.060471 17.608662 1337.938721
2.080000 3.840000 8.080000 4.758381 27.149721 759.749573
2.080000 3.840000 8.120000 -17.954605 15.280968 555.875854
2.080000 3.840000 8.160000 -23.539543 -5.595568 585.420471
2.080000 3.840000 8.200000 -14.181185 -20.046524 602.969116
2.080000 3.880000 7.800000 -20.257288 -27.161638 1148.112305
2.080000 3.880000 7.840000 -18.551094 -56.369167 3521.625977
2.080000 3.880000 7.880000 13.246864 -82.045929 6907.014160
2.080000 3.880000 7.920000 63.171646 -76.140930 9788.098633
2.080000 3.880000 7.960000 98.021545 -31.970619 10630.343750
2.080000 3.880000 8.000000 91.220612 25.840740 8988.944336
2.080000 3.880000 8.040000 46.892677 60.255344 5829.629883
2.080000 3.880000 8.080000 -3.152645 52.697258 2786.940186
2.080000 3.880000 8.120000 -26.770443 17.049316 1007.335815
2.080000 3.880000 8.160000 -17.169083 -15.377687 531.250610
2.080000 3.880000 8.200000 6.205606 -24.097694 619.208374
2.080000 3.920000 7.800000 0.154408 -44.879753 2014.216064
2.080000 3.920000 7.840000 23.335302 -77.705383 6582.662598
2.080000 3.920000 7.880000 79.602234 -84.677277 13506.756836
2.080000 3.920000 7.920000 134.610260 -41.176910 19815.458984
2.080000 3.920000 7.960000 144.266296 36.791313 22166.365234
2.080000 3.920000 8.000000 95.000626 101.013214 19228.789062
2.080000 3.920000 8.040000 18.438301 111.044716 12670.899414
2.080000 3.920000 8.080000 -34.939739 68.376396 5896.117188
2.080000 3.920000 8.120000 -38.302559 12.471993 1622.636719
2.080000 3.920000 8.160000 -7.097095 -16.168833 311.799927
2.080000 3.920000 8.200000 21.607763 -9.380907 554.896851
2.080000 3.960000 7.800000 31.223572 -41.199131 2672.279785
2.080000 3.960000 7.840000 74.455589 -58.958416 9019.729492
2.080000 3.960000 7.880000 134.145721 -30.441828 18921.779297
2.080000 3.960000 7.920000 161.182251 46.947857 28183.820312
2.080000 3.960000 7.960000 122.425575 130.143890 31925.453125
2.080000 3.960000 8.000000 34.448517 163.826523 28025.830078
2.080000 3.960000 8.040000 -47.295158 128.237396 18681.662109
2.080000 3.960000 8.080000 -75.147697 55.609364 8739.578125
2.080000 3.960000 8.120000 -47.493988 -0.156441 2255.703369
2.080000 3.960000 8.160000 -3.376495 -10.253342 116.531731
2.080000 3.960000 8.200000 17.877930 10.427941 428.362305
2.080000 4.000000 7.800000 51.533791 -13.695163 2843.289062
2.080000 4.000000 7.840000 97.616486 -4.818758 9552.199219
2.080000 4.000000 7.880000 131.989639 52.112595 20136.988281
2.080000 4.000000 7.920000 112.361252 132.235733 30111.339844
2.080000 4.000000 7.960000 34.566666 181.872955 34272.628906
2.080000 4.000000 8.000000 -58.170647 164.148438 30328.533203
2.080000 4.000000 8.040000 -109.835327 91.943962 20517.492188
2.080000 4.000000 8.080000 -98.096207 16.261881 9887.315430
2.080000 4.000000 8.120000 -49.002678 -18.317945 2736.809570
2.080000 4.000000 8.160000 -8.231251 -8.148271 134.147797
2.080000 4.000000 8.200000 0.478742 15.782472 249.315598
2.080000 4.040000 7.800000 45.677063 21.152348 2533.815918
2.080000 4.040000 7.840000 73.867752 50.058037 7962.251953
2.080000 4.040000 7.880000 70.369781 107.258789 16456.355469
2.080000 4.040000 7.920000 17.785339 155.166077 24392.830078
2.080000 4.040000 7.960000 -61.715813 154.682724 27735.585938
2.080000 4.040000 8.000000 -121.588295 99.930542 24769.828125
2.080000 4.040000 8.040000 -128.925964 24.337645 17214.224609
2.080000 4.040000 8.080000 -89.972290 -27.718729 8863.340820
2.080000 4.040000 8.120000 -40.443428 -36.453693 2964.542480
2.080000 4.040000 8.160000 -12.385635 -16.902905 439.112152
2.080000 4.040000 8.200000 -10.215626 2.102434 108.779236
2.080000 4.080000 7.800000 17.583853 41.046227 1993.984619
2.080000 4.080000 7.840000 20.184702 69.587051 5249.780273
2.080000 4.080000 7.880000 -6.708401 100.154678 10075.962891
2.080000 4.080000 7.920000 -56.822342 105.757332 14413.391602
2.080000 4.080000 7.960000 -103.393661 74.351654 16218.417969
2.080000 4.080000 8.000000 -119.825020 19.552155 14740.322266
2.080000 4.080000 8.040000 -99.813835 -30.211258 10875.521484
2.080000 4.080000 8.080000 -59.751564 -53.462215 6428.458008
2.080000 4.080000 8.120000 -23.356352 -48.948471 2941.472168
2.080000 4.080000 8.160000 -4.070425 -30.957775 974.952209
2.080000 4.080000 8.200000 -0.066916 -14.393699 207.183029
2.080000 4.120000 7.800000 -13.377003 36.175171 1487.587158
2.080000 4.120000 7.840000 -25.503294 46.492569 2811.977051
2.080000 4.120000 7.880000 -47.236603 46.001102 4347.397949
2.080000 4.120000 7.920000 -67.590302 30.325302 5488.072754
2.080000 4.120000 7.960000 -76.813599 4.245071 5918.349609
2.080000 4.120000 8.000000 -71.548653 -23.415237 5667.482910
2.080000 4.120000 8.040000 -53.898178 -45.042988 4933.884277
2.080000 4.120000 8.080000 -28.506126 -55.631905 3907.507812
2.080000 4.120000 8.120000 -1.777942 -52.304291 2738.899902
2.080000 4.120000 8.160000 17.981438 -35.775684 1603.231689
2.080000 4.120000 8.200000 23.368736 -12.829848 710.702881
2.080000 4.160000 7.800000 -29.505219 15.506646 1111.014038
2.080000 4.160000 7.840000 -37.296005 5.514274 1421.399292
2.080000 4.160000 7.880000 -35.381882 -7.539871 1308.727173
2.080000 4.160000 7.920000 -27.330862 -13.731064 935.518127
2.080000 4.160000 7.960000 -23.462139 -13.363182 729.046631
2.080000 4.160000 8.000000 -26.428524 -16.885620 983.591064
2.080000 4.160000 8.040000 -25.728348 -30.770039 1608.743164
2.080000 4.160000 8.080000 -9.390833 -46.142197 2217.290039
2.080000 4.160000 8.120000 19.434696 -45.372040 2436.329590
2.080000 4.160000 8.160000 41.115273 -21.515453 2153.380371
2.080000 4.160000 8.200000 37.631535 10.754467 1531.791016
2.080000 4.200000 7.800000 -28.385117 -3.917507 821.061707
2.080000 4.200000 7.840000 -20.340820 -21.985727 897.121155
2.080000 4.200000 7.880000 1.194333 -25.327858 642.926819
2.080000 4.200000 7.920000 14.901772 -8.587669 295.810852
2.080000 4.200000 7.960000 5.809280 10.010189 133.951630
2.080000 4.200000 8.000000 -15.506023 7.491554 296.560150
2.080000 4.200000 8.040000 -21.914154 -16.953106 767.637939
2.080000 4.200000 8.080000 0.641258 -37.842205 1432.443726
2.080000 4.200000 8.120000 35.219784 -29.140343 2089.592773
2.080000 4.200000 8.160000 49.073448 6.751309 2453.783447
2.080000 4.200000 8.200000 27.610737 38.883476 2274.277344
2.120000 3.800000 7.800000 -16.089094 -5.187933 285.773590
2.120000 3.800000 7.840000 -12.992140 -8.767257 245.660492
2.120000 3.800000 7.880000 -9.485458 -9.902015 188.023819
2.120000 3.800000 7.920000 -6.951538 -10.017154 148.667252
2.120000 3.800000 7.960000 -4.328590 -10.383467 126.553078
2.120000 3.800000 8.000000 -0.169834 -9.599018 92.169998
2.120000 3.800000 8.040000 3.888961 -4.995792 40.081959
2.120000 3.800000 8.080000 3.302319 2.921472 19.440304
2.120000 3.800000 8.120000 -4.409430 8.611075 93.593689
2.120000 3.800000 8.160000 -15.119274 5.808415 262.330139
2.120000 3.800000 8.200000 -20.102947 -5.496396 434.338837
2.120000 3.840000 7.800000 -12.681000 -25.325935 802.210754
2.120000 3.840000 7.840000 -5.195673 -32.046509 1053.973755
2.120000 3.840000 7.880000 6.984871 -35.062843 1278.191406
2.120000 3.840000 7.920000 21.076227 -30.509356 1375.028198
2.120000 3.840000 7.960000 31.205614 -17.399265 1276.524780
2.120000 3.840000 8.000000 31.553947 0.258736 995.718567
2.120000 3.840000 8.040000 20.579056 14.553482 635.301392
2.120000 3.840000 8.080000 3.247208 18.134903 339.419067
2.120000 3.840000 8.120000 -11.121098 9.359230 211.273987
2.120000 3.840000 8.160000 -14.718484 -5.862741 251.005508
2.120000 3.840000 8.200000 -6.756828 -17.732523 360.097107
2.120000 3.880000 7.800000 8.940638 -38.756226 1581.979980
2.120000 3.880000 7.840000 24.589951 -44.678684 2600.850586
2.120000 3.880000 7.880000 47.433548 -39.590263 3817.330322
2.120000 3.880000 7.920000 66.317917 -17.655415 4709.779785
2.120000 3.880000 7.960000 67.557922 14.906794 4786.285156
2.120000 3.880000 8.000000 46.814346 41.735428 3933.428955
2.120000 3.880000 8.040000 14.518484 48.064545 2520.986816
2.120000 3.880000 8.080000 -10.965935 32.366619 1167.849731
2.120000 3.880000 8.120000 -17.053722 7.492908 346.973114
2.120000 3.880000 8.160000 -5.714518 -9.839743 129.476242
2.120000 3.880000 8.200000 10.111935 -11.818412 241.926086
2.120000 3.920000 7.800000 37.509434 -30.673216 2347.803711
2.120000 3.920000 7.840000 60.241241 -28.495058 4440.975586
2.120000 3.920000 7.880000 84.694847 -6.038111 7209.676270
2.120000 3.920000 7.920000 90.780212 35.044987 9469.198242
2.120000 3.920000 7.960000 66.293053 74.774956 9986.062500
2.120000 3.920000 8.000000 20.493608 89.116920 8361.813477
2.120000 3.920000 8.040000 -20.882486 70.158318 5358.267578
2.120000 3.920000 8.080000 -35.812569 33.203438 2385.008301
2.120000 3.920000 8.120000 -23.052586 3.704156 545.142456
2.120000 3.920000 8.160000 -0.516850 -3.678834 13.800954
2.120000 3.920000 8.200000 12.432297 5.505159 184.868774
2.120000 3.960000 7.800000 52.405136 -1.703578 2749.200439
2.120000 3.960000 7.840000 74.453094 13.183034 5717.055664
2.120000 3.960000 7.880000 85.337036 50.953766 9878.696289
2.120000 3.960000 7.920000 65.061623 95.938141 13437.141602
2.120000 3.960000 7.960000 14.969994 119.307053 14458.273438
2.120000 3.960000 8.000000 -39.122314 103.549004 12252.952148
2.120000 3.960000 8.040000 -66.792770 58.841225 7923.564453
2.120000 3.960000 8.080000 -57.920975 14.892345 3576.621338
2.120000 3.960000 8.120000 -29.116680 -4.191948 865.353516
2.120000 3.960000 8.160000 -6.410405 1.872897 44.601040
2.120000 3.960000 8.200000 -2.015482 14.586342 216.823532
2.120000 4.000000 7.800000 41.306057 30.053719 2609.416260
2.120000 4.000000 7.840000 52.985836 54.232101 5748.619629
2.120000 4.000000 7.880000 41.784477 92.596886 10320.125977
2.120000 4.000000 7.920000 -0.489115 119.684700 14324.666992
2.120000 4.000000 7.960000 -55.960052 111.716187 15612.033203
2.120000 4.000000 8.000000 -93.085121 68.876877 13408.863281
2.120000 4.000000 8.040000 -92.757706 16.646751 8881.106445
2.120000 4.000000 8.080000 -63.415604 -15.596930 4264.803223
2.120000 4.000000 8.120000 -31.185427 -18.191469 1303.460449
2.120000 4.000000 8.160000 -15.785542 -4.969724 273.881470
2.120000 4.000000 8.200000 -16.051390 4.263914 275.828094
2.120000 4.040000 7.800000 11.719524 43.686184 2045.829956
2.120000 4.040000 7.840000 9.104802 66.891724 4557.400391
2.120000 4.040000 7.880000 -17.598513 89.246941 8274.724609
2.120000 4.040000 7.920000 -61.243118 88.312820 11549.874023
2.120000 4.040000 7.960000 -97.609703 56.252205 12691.964844
2.120000 4.040000 8.000000 -105.163437 8.168316 11126.070312
2.120000 4.040000 8.040000 -82.694550 -30.125584 7745.939453
2.120000 4.040000 8.080000 -48.474213 -43.039303 4202.130859
2.120000 4.040000 8.120000 -23.024487 -35.082657 1760.919800
2.120000 4.040000 8.160000 -13.061894 -22.068666 657.639099
2.120000 4.040000 8.200000 -11.064519 -14.619607 336.156494
2.120000 4.080000 7.800000 -15.622557 33.331989 1355.085693
2.120000 4.080000 7.840000 -27.270159 45.738197 2835.644287
2.120000 4.080000 7.880000 -52.408123 46.914413 4947.573242
2.120000 4.080000 7.920000 -77.213234 28.043833 6748.339844
2.120000 4.080000 7.960000 -85.986870 -4.979218 7418.534180
2.120000 4.080000 8.000000 -73.610535 -36.623005 6759.755371
2.120000 4.080000 8.040000 -47.940155 -54.069859 5221.808105
2.120000 4.080000 8.080000 -21.641621 -55.086678 3502.901855
2.120000 4.080000 8.120000 -2.704803 -45.712418 2096.941162
2.120000 4.080000 8.160000 7.886577 -32.696911 1131.286133
2.120000 4.080000 8.200000 11.880953 -19.256130 511.955597
2.120000 4.120000 7.800000 -25.434589 11.739078 784.724243
2.120000 4.120000 7.840000 -35.660408 10.876491 1389.962769
2.120000 4.120000 7.880000 -45.310829 0.537062 2053.359619
2.120000 4.120000 7.920000 -47.500420 -15.424786 2494.213867
2.120000 4.120000 7.960000 -41.447136 -30.650412 2657.312988
2.120000 4.120000 8.000000 -30.072609 -42.000687 2668.419434
2.120000 4.120000 8.040000 -15.008766 -49.115803 2637.625000
2.120000 4.120000 8.080000 3.651431 -50.143719 2527.725586
2.120000 4.120000 8.120000 22.819401 -41.128937 2212.314453
2.120000 4.120000 8.160000 34.416405 -21.497643 1646.637451
2.120000 4.120000 8.200000 31.042225 0.999567 964.618896
2.120000 4.160000 7.800000 -20.031036 -3.693989 414.888000
2.120000 4.160000 7.840000 -20.749533 -12.287854 581.534485
2.120000 4.160000 7.880000 -14.029049 -18.865372 552.716431
2.120000 4.160000 7.920000 -6.758066 -18.255169 378.922638
2.120000 4.160000 7.960000 -5.923714 -15.785603 284.275635
2.120000 4.160000 8.000000 -7.902637 -20.456106 480.903961
2.120000 4.160000 8.040000 -1.179939 -31.549904 996.788696
2.120000 4.160000 8.080000 18.948473 -35.757042 1637.610596
2.120000 4.160000 8.120000 40.789680 -20.735773 2093.770264
2.120000 4.160000 8.160000 45.142597 8.843969 2116.069824
2.120000 4.160000 8.200000 25.353241 31.946064 1663.337891
2.120000 4.200000 7.800000 -13.343674 -7.638389 236.398621
2.120000 4.200000 7.840000 -3.210884 -15.673694 255.974457
2.120000 4.200000 7.880000 10.008572 -9.955371 199.280914
2.120000 4.200000 7.920000 10.739187 4.511306 135.682022
2.120000 4.200000 7.960000 -2.524164 10.042242 107.218033
2.120000 4.200000 8.000000 -12.637363 -2.670437 166.834198
2.120000 4.200000 8.040000 -2.256926 -20.739353 435.214478
2.120000 4.200000 8.080000 24.326881 -20.600281 1016.168762
2.120000 4.200000 8.120000 41.974804 5.612142 1793.380249
2.120000 4.200000 8.160000 30.100529 38.111259 2358.510010
2.120000 4.200000 8.200000 -3.729386 47.469135 2267.227051
2.160000 3.800000 7.800000 -13.045444 -19.368250 545.312744
2.160000 3.800000 7.840000 -5.178233 -16.044905 284.253052
2.160000 3.800000 7.880000 -4.850408 -11.310910 151.463150
2.160000 3.800000 7.920000 -7.737888 -12.804842 223.838898
2.160000 3.800000 7.960000 -4.788661 -19.357407 397.640472
2.160000 3.800000 8.000000 6.639518 -21.277693 496.823395
2.160000 3.800000 8.040000 17.834789 -11.194300 443.392059
2.160000 3.800000 8.080000 16.804468 6.009256 318.501282
2.160000 3.800000 8.120000 1.702210 16.051804 260.557922
2.160000 3.800000 8.160000 -15.188458 9.324223 317.630402
2.160000 3.800000 8.200000 -18.476400 -8.326830 410.713470
2.160000 3.840000 7.800000 8.268166 -32.985439 1156.401733
2.160000 3.840000 7.840000 17.145662 -23.338924 838.679077
2.160000 3.840000 7.880000 17.528343 -14.577801 519.755127
2.160000 3.840000 7.920000 15.862077 -11.535458 384.672272
2.160000 3.840000 7.960000 18.288593 -10.330267 441.187073
2.160000 3.840000 8.000000 22.838285 -3.994950 537.546936
2.160000 3.840000 8.040000 21.373241 7.813869 517.872009
2.160000 3.840000 8.080000 9.699921 16.444328 364.504395
2.160000 3.840000 8.120000 -5.548558 12.903898 197.297089
2.160000 3.840000 8.160000 -11.936548 -1.475472 144.658203
2.160000 3.840000 8.200000 -3.706909 -14.496439 223.887924
2.160000 3.880000 7.800000 36.878338 -24.264809 1948.792725
2.160000 3.880000 7.840000 41.727165 -7.954937 1804.437378
2.160000 3.880000 7.880000 37.992355 5.399390 1472.572510
2.160000 3.880000 7.920000 31.451622 13.200752 1163.464355
2.160000 3.880000 7.960000 25.573498 18.240898 986.734131
2.160000 3.880000 8.000000 18.805840 23.062466 885.536926
2.160000 3.880000 8.040000 8.652988 25.561769 728.278259
2.160000 3.880000 8.080000 -2.740813 21.340816 462.942505
2.160000 3.880000 8.120000 -8.756558 10.142694 179.551575
2.160000 3.880000 8.160000 -4.813576 -1.460246 25.302832
2.160000 3.880000 8.200000 5.883584 -5.167037 61.314835
2.160000 3.920000 7.800000 50.699150 6.253235 2609.506836
2.160000 3.920000 7.840000 47.038902 25.267929 2851.126709
2.160000 3.920000 7.880000 35.161621 39.191956 2772.349121
2.160000 3.920000 7.920000 19.797287 45.489178 2461.197998
2.160000 3.920000 7.960000 4.981331 44.814697 2033.170654
2.160000 3.920000 8.000000 -7.024976 38.876225 1560.711182
2.160000 3.920000 8.040000 -14.753262 29.287052 1075.390137
2.160000 3.920000 8.080000 -16.874783 18.215656 616.568420
2.160000 3.920000 8.120000 -13.265852 8.951801 256.117584
2.160000 3.920000 8.160000 -6.266196 4.557616 60.037071
2.160000 3.920000 8.200000 0.095581 5.574821 31.087761
2.160000 3.960000 7.800000 36.361004 38.646255 2815.655762
2.160000 3.960000 7.840000 23.955435 53.712524 3458.898193
2.160000 3.960000 7.880000 4.710673 61.307037 3780.743164
2.160000 3.960000 7.920000 -15.882884 58.301575 3651.339844
2.160000 3.960000 7.960000 -31.303246 45.917767 3088.334473
2.160000 3.960000 8.000000 -37.464073 29.384789 2267.022461
2.160000 3.960000 8.040000 -34.854828 15.003376 1439.960327
2.160000 3.960000 8.080000 -27.744032 6.509247 812.101624
2.160000 3.960000 8.120000 -20.839638 3.452883 446.212891
2.160000 3.960000 8.160000 -16.145718 2.829021 268.687561
2.160000 3.960000 8.200000 -12.520355 2.405169 162.544128
2.160000 4.000000 7.800000 2.867314 49.514030 2459.860596
2.160000 4.000000 7.840000 -13.369940 55.711246 3282.498291
2.160000 4.000000 7.880000 -33.409809 52.721916 3895.815674
2.160000 4.000000 7.920000 -49.922905 38.734383 3992.648926
2.160000 4.000000 7.960000 -56.002064 18.511463 3478.905518
2.160000 4.000000 8.000000 -50.658375 0.611052 2566.644287
2.160000 4.000000 8.040000 -39.533031 -9.003698 1643.927124
2.160000 4.000000 8.080000 -29.841284 -11.048412 1012.569580
2.160000 4.000000 8.120000 -24.361198 -10.800270 710.113831
2.160000 4.000000 8.160000 -20.256516 -12.011412 554.600464
2.160000 4.000000 8.200000 -13.736160 -13.129822 361.074341
2.160000 4.040000 7.800000 -25.240601 32.956852 1723.241943
2.160000 4.040000 7.840000 -38.557171 30.580757 2421.838135
2.160000 4.040000 7.880000 -51.542480 19.418423 3033.702393
2.160000 4.040000 7.920000 -56.798088 1.282048 3227.666260
2.160000 4.040000 7.960000 -51.231461 -16.276354 2889.582275
2.160000 4.040000 8.000000 -39.009766 -26.372196 2217.254639
2.160000 4.040000 8.040000 -27.421780 -28.490170 1563.643799
2.160000 4.040000 8.080000 -20.001083 -27.583784 1160.908447
2.160000 4.040000 8.120000 -14.273290 -27.762424 974.479004
2.160000 4.040000 8.160000 -6.302565 -27.654095 804.471313
2.160000 4.040000 8.200000 3.247141 -22.552643 519.165649
2.160000 4.080000 7.800000 -30.025539 5.707367 934.107056
2.160000 4.080000 7.840000 -36.605743 -0.622468 1340.367920
2.160000 4.080000 7.880000 -39.355949 -12.582172 1707.201782
2.160000 4.080000 7.920000 -34.515476 -25.075794 1820.113525
2.160000 4.080000 7.960000 -24.544378 -32.422577 1653.650024
2.160000 4.080000 8.000000 -14.978935 -34.055386 1384.137817
2.160000 4.080000 8.040000 -8.084940 -33.940758 1217.341309
2.160000 4.080000 8.080000 -1.055441 -34.612385 1199.131226
2.160000 4.080000 8.120000 9.060949 -33.261978 1188.459961
2.160000 4.080000 8.160000 19.704231 -25.067781 1016.650391
2.160000 4.080000 8.200000 23.706369 -10.168249 665.385254
2.160000 4.120000 7.800000 -16.031813 -9.560791 348.427734
2.160000 4.120000 7.840000 -16.609434 -15.230873 507.852783
2.160000 4.120000 7.880000 -12.312471 -21.456543 611.980225
2.160000 4.120000 7.920000 -5.387321 -23.623484 587.092224
2.160000 4.120000 7.960000 -0.700283 -22.508137 507.106598
2.160000 4.120000 8.000000 1.393112 -23.039034 532.737793
2.160000 4.120000 8.040000 6.290390 -26.794527 757.515625
2.160000 4.120000 8.080000 17.934422 -27.865059 1098.104980
2.160000 4.120000 8.120000 31.507675 -18.558331 1337.145264
2.160000 4.120000 8.160000 35.897713 0.532853 1288.929688
2.160000 4.120000 8.200000 24.949329 18.047924 948.196655
2.160000 4.160000 7.800000 -3.631742 -6.286850 52.714043
2.160000 4.160000 7.840000 -0.719326 -9.845055 97.442535
2.160000 4.160000 7.880000 4.871069 -8.824320 101.595932
2.160000 4.160000 7.920000 6.294849 -3.867342 54.581463
2.160000 4.160000 7.960000 2.251299 -2.556492 11.603998
2.160000 4.160000 8.000000 0.791182 -9.125099 83.893402
2.160000 4.160000 8.040000 10.290627 -16.401314 374.900085
2.160000 4.160000 8.080000 27.231558 -11.561345 875.222412
2.160000 4.160000 8.120000 36.317326 8.833645 1396.981445
2.160000 4.160000 8.160000 25.476580 31.567474 1645.561523
2.160000 4.160000 8.200000 0.434299 37.744003 1424.798340
2.160000 4.200000 7.800000 -6.738141 1.205366 46.855453
2.160000 4.200000 7.840000 -0.986664 -0.814291 1.636575
2.160000 4.200000 7.880000 2.438745 5.046096 31.410568
2.160000 4.200000 7.920000 -3.143816 10.496632 120.062851
2.160000 4.200000 7.960000 -11.309106 5.573563 158.960480
2.160000 4.200000 8.000000 -8.665169 -6.859011 122.131180
2.160000 4.200000 8.040000 7.981768 -11.131361 187.615814
2.160000 4.200000 8.080000 23.961437 4.047469 590.532471
2.160000 4.200000 8.120000 20.152824 29.942492 1302.689087
2.160000 4.200000 8.160000 -5.262255 43.301796 1902.736816
2.160000 4.200000 8.200000 -31.347561 29.965471 1880.598999
2.200000 3.800000 7.800000 -0.269885 -26.777294 717.096313
2.200000 3.800000 7.840000 4.347347 -15.734945 266.487915
2.200000 3.800000 7.880000 -1.901293 -11.215014 129.391464
2.200000 3.800000 7.920000 -5.477082 -18.853205 385.441772
2.200000 3.800000 7.960000 4.755346 -28.176670 816.538086
2.200000 3.800000 8.000000 23.676174 -23.488327 1112.262695
2.200000 3.800000 8.040000 33.414970 -1.941050 1120.328003
2.200000 3.800000 8.080000 21.866014 20.987186 918.584595
2.200000 3.800000 8.120000 -3.246815 25.863365 679.455444
2.200000 3.800000 8.160000 -20.485214 9.214108 504.543793
2.200000 3.800000 8.200000 -15.615361 -12.129972 390.975708
2.200000 3.840000 7.800000 27.241409 -22.993025 1270.773560
2.200000 3.840000 7.840000 23.769871 -4.281137 583.334900
2.200000 3.840000 7.880000 10.062720 0.228391 101.310501
2.200000 3.840000 7.920000 4.194356 -9.391863 105.799706
2.200000 3.840000 7.960000 13.985901 -17.165882 490.272949
2.200000 3.840000 8.000000 28.364986 -9.047400 886.427856
2.200000 3.840000 8.040000 29.377060 11.083590 985.857605
2.200000 3.840000 8.080000 12.142318 24.828493 763.889893
2.200000 3.840000 8.120000 -8.954723 18.791468 433.306335
2.200000 3.840000 8.160000 -14.868605 -0.760655 221.654007
2.200000 3.840000 8.200000 -1.777857 -14.024517 199.847839
2.200000 3.880000 7.800000 43.704124 4.359141 1929.052612
2.200000 3.880000 7.840000 26.317039 22.590603 1202.921875
2.200000 3.880000 7.880000 5.238668 19.569536 410.410370
2.200000 3.880000 7.920000 -0.719298 3.620038 13.622066
2.200000 3.880000 7.960000 10.344198 -5.616758 138.550415
2.200000 3.880000 8.000000 22.706417 2.338365 521.049316
2.200000 3.880000 8.040000 20.439789 18.659723 765.970215
2.200000 3.880000 8.080000 4.167316 25.639290 674.739685
2.200000 3.880000 8.120000 -10.393844 15.920805 361.504028
2.200000 3.880000 8.160000 -9.762169 -0.127541 95.316208
2.200000 3.880000 8.200000 3.200593 -6.162585 48.221249
2.200000 3.920000 7.800000 32.207405 37.540226 2446.585449
2.200000 3.920000 7.840000 3.758582 43.942352 1945.057251
2.200000 3.920000 7.880000 -17.222153 27.536028 1054.835449
2.200000 3.920000 7.920000 -16.360382 4.719778 289.938416
2.200000 3.920000 7.960000 0.385165 -4.362788 19.182272
2.200000 3.920000 8.000000 13.813610 5.398368 219.958206
2.200000 3.920000 8.040000 10.709105 20.931837 552.826721
2.200000 3.920000 8.080000 -4.378969 25.531801 671.048218
2.200000 3.920000 8.120000 -15.803746 15.424249 487.665833
2.200000 3.920000 8.160000 -13.556505 1.737916 186.799194
2.200000 3.920000 8.200000 -2.340215 -2.468675 11.570962
2.200000 3.960000 7.800000 -1.977781 50.772087 2581.716553
2.200000 3.960000 7.840000 -29.861687 39.623249 2461.722168
2.200000 3.960000 7.880000 -39.828667 12.258893 1736.603027
2.200000 3.960000 7.920000 -26.425003 -10.591038 810.450867
2.200000 3.960000 7.960000 -3.489178 -12.921173 179.131073
2.200000 3.960000 8.000000 8.739333 2.779698 84.102661
2.200000 3.960000 8.040000 1.773555 19.209072 372.133972
2.200000 3.960000 8.080000 -14.970279 21.030552 666.393372
2.200000 3.960000 8.120000 -24.837467 8.205787 684.234741
2.200000 3.960000 8.160000 -19.837605 -6.167573 431.569519
2.200000 3.960000 8.200000 -6.436733 -9.613585 133.852570
2.200000 4.000000 7.800000 -33.612915 33.399403 2245.348145
2.200000 4.000000 7.840000 -48.495594 10.181204 2455.479736
2.200000 4.000000 7.880000 -41.838646 -17.162260 2045.015503
2.200000 4.000000 7.920000 -18.162825 -29.775311 1216.457275
2.200000 4.000000 7.960000 4.149427 -20.251080 427.323975
2.200000 4.000000 8.000000 8.576074 0.655224 73.978363
2.200000 4.000000 8.040000 -5.318346 13.762795 217.699341
2.200000 4.000000 8.080000 -22.449633 8.526183 576.681763
2.200000 4.000000 8.120000 -26.606472 -8.502275 780.193054
2.200000 4.000000 8.160000 -14.722902 -21.058037 660.204773
2.200000 4.000000 8.200000 1.857456 -18.441805 343.550293
2.200000 4.040000 7.800000 -39.532616 0.694884 1563.310669
2.200000 4.040000 7.840000 -37.828484 -21.642925 1899.410400
2.200000 4.040000 7.880000 -19.636665 -37.281811 1775.532104
2.200000 4.040000 7.920000 3.969964 -34.625328 1214.673950
2.200000 4.040000 7.960000 16.142878 -16.199890 523.028931
2.200000 4.040000 8.000000 9.129176 2.265063 88.472366
2.200000 4.040000 8.040000 -8.355488 5.457952 99.603409
2.200000 4.040000 8.080000 -18.929922 -7.746002 418.342499
2.200000 4.040000 8.120000 -12.472918 -23.635942 714.231445
2.200000 4.040000 8.160000 5.022748 -26.738407 740.170471
2.200000 4.040000 8.200000 17.786633 -13.913584 509.952087
2.200000 4.080000 7.800000 -20.128239 -19.956684 803.415222
2.200000 4.080000 7.840000 -9.305939 -31.401272 1072.640381
2.200000 4.080000 7.880000 8.496703 -32.116890 1103.688599
2.200000 4.080000 7.920000 21.467815 -19.249420 831.407288
2.200000 4.080000 7.960000 19.809284 -2.021523 396.494293
2.200000 4.080000 8.000000 6.092224 5.465281 66.984482
2.200000 4.080000 8.040000 -5.890882 -2.376356 40.349564
2.200000 4.080000 8.080000 -3.898763 -16.578251 290.038757
2.200000 4.080000 8.120000 10.733322 -21.863878 593.233398
2.200000 4.080000 8.160000 24.188404 -11.467540 716.583374
2.200000 4.080000 8.200000 23.586441 6.338875 596.501526
2.200000 4.120000 7.800000 1.629248 -15.167717 232.714081
2.200000 4.120000 7.840000 10.677046 -16.031757 371.016541
2.200000 4.120000 7.880000 19.259426 -8.706079 446.721313
2.200000 4.120000 7.920000 19.238848 3.463054 382.126007
2.200000 4.120000 7.960000 9.528416 10.375690 198.445648
2.200000 4.120000 8.000000 -0.630829 5.467198 30.288204
2.200000 4.120000 8.040000 -0.086176 -5.971943 35.671528
2.200000 4.120000 8.080000 12.047825 -10.739790 260.493164
2.200000 4.120000 8.120000 24.033520 -1.151825 578.936768
2.200000 4.120000 8.160000 22.786764 16.075232 777.649658
2.200000 4.120000 8.200000 7.560578 25.772673 721.393005
2.200000 4.160000 7.800000 3.602167 2.011506 17.021763
2.200000 4.160000 7.840000 6.582762 3.817764 57.908077
2.200000 4.160000 7.880000 6.599757 9.689629 137.445694
2.200000 4.160000 7.920000 0.208524 13.736311 188.729721
2.200000 4.160000 7.960000 -7.448643 9.498251 145.699051
2.200000 4.160000 8.000000 -6.806466 -0.582710 46.667530
2.200000 4.160000 8.040000 4.534263 -5.202452 47.625050
2.200000 4.160000 8.080000 16.395290 4.104348 285.651215
2.200000 4.160000 8.120000 14.972856 21.912226 704.332031
2.200000 4.160000 8.160000 -1.993217 32.124065 1035.928467
2.200000 4.160000 8.200000 -20.731266 24.082197 1009.737610
2.200000 4.200000 7.800000 -12.986459 6.451861 210.274628
2.200000 4.200000 7.840000 -11.378317 5.158398 156.075165
2.200000 4.200000 7.880000 -12.920584 6.377426 207.613052
2.200000 4.200000 7.920000 -17.427834 3.517365 316.101227
2.200000 4.200000 7.960000 -17.194035 -5.051020 321.147614
2.200000 4.200000 8.000000 -7.062858 -10.903625 168.772980
2.200000 4.200000 8.040000 6.092844 -3.953276 52.751144
2.200000 4.200000 8.080000 7.790720 13.996756 256.604492
2.200000 4.200000 8.120000 -8.176584 27.272585 810.650391
2.200000 4.200000 8.160000 -29.949347 21.179356 1345.528442
2.200000 4.200000 8.200000 -37.145504 -0.988275 1380.765137
