#kx 	ky 	kz 	real 	imag 	intensity
2.800000 4.800000 -1.200000 0.238848 -22.443611 503.772705
2.800000 4.800000 -1.160000 8.097219 -18.683395 414.634247
2.800000 4.800000 -1.120000 9.495731 -11.583630 224.349396
2.800000 4.800000 -1.080000 5.340440 -8.238438 96.392151
2.800000 4.800000 -1.040000 2.066364 -11.135896 128.278030
2.800000 4.800000 -1.000000 4.760487 -15.919138 276.081207
2.800000 4.800000 -0.960000 12.088085 -16.200525 408.578827
2.800000 4.800000 -0.920000 18.071480 -10.029301 427.165253
2.800000 4.800000 -0.880000 18.253000 -1.245447 334.723175
2.800000 4.800000 -0.840000 13.457022 4.975048 205.842529
2.800000 4.800000 -0.800000 7.683003 7.021056 108.323761
2.800000 4.840000 -1.200000 8.204741 -22.274090 563.452820
2.800000 4.840000 -1.160000 14.074032 -18.647736 545.816406
2.800000 4.840000 -1.120000 15.255194 -14.552559 444.497925
2.800000 4.840000 -1.080000 15.079286 -13.554884 411.119751
2.800000 4.840000 -1.040000 17.547863 -13.892347 500.924805
2.800000 4.840000 -1.000000 22.253511 -11.325744 623.491272
2.800000 4.840000 -0.960000 24.955933 -4.676718 644.670288
2.800000 4.840000 -0.920000 22.734785 2.594607 523.602417
2.800000 4.840000 -0.880000 17.360151 6.389746 342.203705
2.800000 4.840000 -0.840000 12.984416 6.553461 211.542908
2.800000 4.840000 -0.800000 11.099899 6.487374 165.293793
2.800000 4.880000 -1.200000 14.983408 -19.003677 585.642273
2.800000 4.880000 -1.160000 21.224150 -16.157734 711.536865
2.800000 4.880000 -1.120000 25.193258 -12.519144 791.429199
2.800000 4.880000 -1.080000 28.694866 -8.505841 895.744629
2.800000 4.880000 -1.040000 31.506199 -2.519334 998.987610
2.800000 4.880000 -1.000000 31.105244 5.239725 994.990906
2.800000 4.880000 -0.960000 26.371498 11.472679 827.078308
2.800000 4.880000 -0.920000 20.144049 13.163242 579.053650
2.800000 4.880000 -0.880000 16.781446 11.527775 414.506531
2.800000 4.880000 -0.840000 17.090509 11.236993 418.355530
2.800000 4.880000 -0.800000 16.888563 15.062141 512.091675
2.800000 4.920000 -1.200000 20.382668 -13.372501 594.276917
2.800000 4.920000 -1.160000 28.009607 -8.845390 862.778992
2.800000 4.920000 -1.120000 33.161541 -1.667766 1102.469238
2.800000 4.920000 -1.080000 34.956059 7.413826 1276.890869
2.800000 4.920000 -1.040000 32.081894 16.497339 1301.410156
2.800000 4.920000 -1.000000 25.152363 22.145056 1123.044922
2.800000 4.920000 -0.960000 18.067402 22.309128 824.128174
2.800000 4.920000 -0.920000 15.273472 19.391636 609.314514
2.800000 4.920000 -0.880000 16.998032 18.973021 648.908569
2.800000 4.920000 -0.840000 17.999207 24.212433 910.213318
2.800000 4.920000 -0.800000 12.408182 31.710411 1159.513184
2.800000 4.960000 -1.200000 23.677317 -4.831640 583.960022
2.800000 4.960000 -1.160000 29.823048 3.651376 902.746704
2.800000 4.960000 -1.120000 30.947849 14.368471 1164.222290
2.800000 4.960000 -1.080000 26.346046 23.982635 1269.281006
2.800000 4.960000 -1.040000 17.983627 28.812695 1153.582275
2.800000 4.960000 -1.000000 10.605637 27.662106 877.671631
2.800000 4.960000 -0.960000 8.508130 23.981781 647.514038
2.800000 4.960000 -0.920000 11.149795 23.832541 692.307922
2.800000 4.960000 -0.880000 12.511522 30.253222 1071.795532
2.800000 4.960000 -0.840000 6.173704 39.303623 1582.889404
2.800000 4.960000 -0.800000 -8.036580 42.624672 1881.449341
2.800000 5.000000 -1.200000 22.136356 6.316183 529.912415
2.800000 5.000000 -1.160000 22.182671 16.694633 770.781616
2.800000 5.000000 -1.120000 16.302568 25.176849 899.647461
2.800000 5.000000 -1.080000 7.421506 28.037893 841.202209
2.800000 5.000000 -1.040000 0.875895 24.988705 625.202576
2.800000 5.000000 -1.000000 0.524660 20.566534 423.257599
2.800000 5.000000 -0.960000 4.654480 21.166544 469.686768
2.800000 5.000000 -0.920000 6.249980 29.148705 888.709229
2.800000 5.000000 -0.880000 -1.270957 39.474174 1559.825806
2.800000 5.000000 -0.840000 -17.506765 42.938248 2150.179932
2.800000 5.000000 -0.800000 -34.156353 34.035248 2325.054688
2.800000 5.040000 -1.200000 13.076942 16.327881 437.606140
2.800000 5.040000 -1.160000 5.946114 22.156168 526.252075
2.800000 5.040000 -1.120000 -2.879615 21.621447 475.779114
2.800000 5.040000 -1.080000 -7.505186 15.470965 295.678589
2.800000 5.040000 -1.040000 -4.551754 9.599811 112.874832
2.800000 5.040000 -1.000000 2.758480 11.055078 129.823944
2.800000 5.040000 -0.960000 5.798705 21.459759 494.146210
2.800000 5.040000 -0.920000 -2.559701 34.023571 1164.155518
2.800000 5.040000 -0.880000 -20.988083 38.004131 1884.813599
2.800000 5.040000 -0.840000 -39.490978 27.563374 2319.276855
2.800000 5.040000 -0.800000 -46.978745 7.122997 2257.739502
2.800000 5.080000 -1.200000 -2.049743 19.044722 366.902863
2.800000 5.080000 -1.160000 -10.920568 14.655285 334.036194
2.800000 5.080000 -1.120000 -13.479099 4.473945 201.702286
2.800000 5.080000 -1.080000 -6.311935 -4.023548 56.029465
2.800000 5.080000 -1.040000 6.039345 -2.412254 42.292656
2.800000 5.080000 -1.000000 12.769213 10.936606 282.662170
2.800000 5.080000 -0.960000 5.143716 27.485920 781.933594
2.800000 5.080000 -0.920000 -15.245347 34.032127 1390.606323
2.800000 5.080000 -0.880000 -36.336018 23.343185 1865.210449
2.800000 5.080000 -0.840000 -44.703171 0.544374 1998.669922
2.800000 5.080000 -0.800000 -36.120102 -20.858788 1739.750732
2.800000 5.120000 -1.200000 -16.368143 10.950390 387.827148
2.800000 5.120000 -1.160000 -18.156626 -2.827967 337.660461
2.800000 5.120000 -1.120000 -7.731535 -14.856685 280.497711
2.800000 5.120000 -1.080000 10.117096 -14.657369 317.194092
2.800000 5.120000 -1.040000 22.578173 0.827557 510.458740
2.800000 5.120000 -1.000000 18.191463 22.439262 834.449829
2.800000 5.120000 -0.960000 -2.855015 34.294834 1184.286743
2.800000 5.120000 -0.920000 -27.279928 26.265388 1434.065063
2.800000 5.120000 -0.880000 -38.622314 2.648689 1498.698730
2.800000 5.120000 -0.840000 -30.222675 -21.166836 1361.445068
2.800000 5.120000 -0.800000 -9.762259 -31.214260 1069.631714
2.800000 5.160000 -1.200000 -21.891077 -4.565320 500.061401
2.800000 5.160000 -1.160000 -11.323572 -19.927208 525.316895
2.800000 5.160000 -1.120000 9.954421 -23.068810 631.260498
2.800000 5.160000 -1.080000 28.450520 -8.030144 873.915283
2.800000 5.160000 -1.040000 29.702320 17.525682 1189.377441
2.800000 5.160000 -1.000000 10.566784 36.205353 1422.484375
2.800000 5.160000 -0.960000 -16.625107 34.157398 1443.122070
2.800000 5.160000 -0.920000 -33.016731 12.615650 1249.259155
2.800000 5.160000 -0.880000 -28.161381 -12.945792 960.656860
2.800000 5.160000 -0.840000 -7.700412 -25.553547 712.280090
2.800000 5.160000 -0.800000 12.693064 -19.861816 555.605591
2.800000 5.200000 -1.200000 -16.118587 -18.725792 610.464111
2.800000 5.200000 -1.160000 4.198954 -26.600929 725.240662
2.800000 5.200000 -1.120000 26.518530 -15.744656 951.126587
2.800000 5.200000 -1.080000 34.449722 9.990441 1286.592285
2.800000 5.200000 -1.040000 20.417885 34.169964 1584.476440
2.800000 5.200000 -1.000000 -6.870302 39.950886 1643.274292
2.800000 5.200000 -0.960000 -28.426426 23.840191 1376.416382
2.800000 5.200000 -0.920000 -30.039169 -1.372225 904.234680
2.800000 5.200000 -0.880000 -13.192065 -17.337244 474.610596
2.800000 5.200000 -0.840000 7.586971 -14.818181 277.140625
2.800000 5.200000 -0.800000 17.722300 0.672801 314.532562
2.840000 4.800000 -1.200000 23.192535 -7.563259 595.096558
2.840000 4.800000 -1.160000 20.090532 0.712030 404.136475
2.840000 4.800000 -1.120000 12.404287 3.085598 163.387268
2.840000 4.800000 -1.080000 7.315126 -1.471596 55.676659
2.840000 4.800000 -1.040000 9.273271 -7.261265 138.719513
2.840000 4.800000 -1.000000 15.609026 -7.774961 304.091736
2.840000 4.800000 -0.960000 19.700523 -2.203413 392.965668
2.840000 4.800000 -0.920000 17.956339 4.478971 342.491302
2.840000 4.800000 -0.880000 12.812263 7.386519 218.714737
2.840000 4.800000 -0.840000 8.923325 6.637754 123.685509
2.840000 4.800000 -0.800000 7.512523 5.912634 91.397232
2.840000 4.840000 -1.200000 20.086191 1.822924 406.778137
2.840000 4.840000 -1.160000 20.885199 2.542970 442.658234
2.840000 4.840000 -1.120000 23.643320 4.660664 580.728394
2.840000 4.840000 -1.080000 25.885452 10.786274 786.400330
2.840000 4.840000 -1.040000 22.979942 19.642521 913.906372
2.840000 4.840000 -1.000000 13.273315 25.414209 822.062927
2.840000 4.840000 -0.960000 1.524406 22.728067 518.888855
2.840000 4.840000 -0.920000 -4.270751 12.759052 181.032730
2.840000 4.840000 -0.880000 -0.480534 3.445169 12.100101
2.840000 4.840000 -0.840000 7.889539 2.419596 68.099274
2.840000 4.840000 -0.800000 11.494627 9.336117 219.289520
2.840000 4.880000 -1.200000 13.507595 4.757210 205.086166
2.840000 4.880000 -1.160000 24.264059 6.464490 630.534180
2.840000 4.880000 -1.120000 32.433411 20.242931 1461.702393
2.840000 4.880000 -1.080000 26.624329 40.387703 2340.021484
2.840000 4.880000 -1.040000 4.743750 52.143463 2741.443848
2.840000 4.880000 -1.000000 -21.021265 43.964603 2374.780029
2.840000 4.880000 -0.960000 -32.733456 19.315380 1444.562988
2.840000 4.880000 -0.920000 -22.400991 -4.340187 520.641663
2.840000 4.880000 -0.880000 0.102678 -10.091883 101.856644
2.840000 4.880000 -0.840000 15.394049 3.480534 249.090851
2.840000 4.880000 -0.800000 11.901716 21.451670 601.824951
2.840000 4.920000 -1.200000 10.325140 2.830319 114.619217
2.840000 4.920000 -1.160000 25.840343 16.085804 926.476440
2.840000 4.920000 -1.120000 24.761015 43.232983 2482.198730
2.840000 4.920000 -1.080000 -1.335030 64.175117 4120.228027
2.840000 4.920000 -1.040000 -39.060944 58.131042 4904.975586
2.840000 4.920000 -1.000000 -61.285187 24.009605 4332.334961
2.840000 4.920000 -0.960000 -50.352863 -15.309141 2769.780762
2.840000 4.920000 -0.920000 -14.994020 -31.308445 1205.039429
2.840000 4.920000 -0.880000 16.370686 -14.719189 484.653870
2.840000 4.920000 -0.840000 20.533895 16.744005 702.002563
2.840000 4.920000 -0.800000 -0.805340 35.286602 1245.792847
2.840000 4.960000 -1.200000 11.801544 2.657951 146.341156
2.840000 4.960000 -1.160000 18.832417 28.524082 1168.283203
2.840000 4.960000 -1.120000 -1.981170 55.970215 3136.590088
2.840000 4.960000 -1.080000 -43.375626 57.962425 5241.087891
2.840000 4.960000 -1.040000 -75.611526 24.201902 6302.834961
2.840000 4.960000 -1.000000 -70.988533 -25.064526 5667.602051
2.840000 4.960000 -0.960000 -30.240768 -53.545631 3781.638672
2.840000 4.960000 -0.920000 15.698818 -40.444077 1882.176147
2.840000 4.960000 -0.880000 32.126026 0.787302 1032.701416
2.840000 4.960000 -0.840000 10.700512 34.940231 1335.320801
2.840000 4.960000 -0.800000 -25.296289 36.832703 1996.550293
2.840000 5.000000 -1.200000 12.138095 7.867330 209.228226
2.840000 5.000000 -1.160000 1.660390 34.665802 1204.474609
2.840000 5.000000 -1.120000 -33.462948 44.649033 3113.305176
2.840000 5.000000 -1.080000 -69.223816 19.707109 5180.306641
2.840000 5.000000 -1.040000 -73.660080 -29.075607 6271.198730
2.840000 5.000000 -1.000000 -37.042664 -66.098114 5741.119141
2.840000 5.000000 -0.960000 15.527979 -61.393353 4010.261963
2.840000 5.000000 -0.920000 43.984482 -18.510498 2277.273193
2.840000 5.000000 -0.880000 28.361887 27.605806 1566.477173
2.840000 5.000000 -0.840000 -14.330927 41.675976 1942.262451
2.840000 5.000000 -0.800000 -47.371887 18.335838 2580.298584
2.840000 5.040000 -1.200000 5.232196 14.064217 225.178055
2.840000 5.040000 -1.160000 -17.964142 26.626137 1031.661621
2.840000 5.040000 -1.120000 -48.586987 12.717105 2522.420166
2.840000 5.040000 -1.080000 -58.715221 -26.341574 4141.355957
2.840000 5.040000 -1.040000 -32.026756 -63.369423 5041.396973
2.840000 5.040000 -1.000000 16.881586 -66.701347 4734.057617
2.840000 5.040000 -0.960000 51.365543 -29.906883 3532.840576
2.840000 5.040000 -0.920000 44.234428 19.673698 2343.739014
2.840000 5.040000 -0.880000 2.381475 43.844208 1927.985962
2.840000 5.040000 -0.840000 -39.632774 26.859999 2292.216309
2.840000 5.040000 -0.800000 -50.932602 -12.603630 2752.981445
2.840000 5.080000 -1.200000 -7.427902 12.803496 219.103241
2.840000 5.080000 -1.160000 -27.657578 5.915143 799.930481
2.840000 5.080000 -1.120000 -36.891697 -20.338385 1774.647217
2.840000 5.080000 -1.080000 -19.444662 -49.411263 2819.567871
2.840000 5.080000 -1.040000 18.966225 -55.588036 3449.747559
2.840000 5.080000 -1.000000 51.070225 -27.809338 3381.527344
2.840000 5.080000 -0.960000 50.129406 16.655169 2790.352051
2.840000 5.080000 -0.920000 14.695396 44.468468 2193.399170
2.840000 5.080000 -0.880000 -28.468327 34.801025 2021.556885
2.840000 5.080000 -0.840000 -47.373661 -2.691362 2251.507080
2.840000 5.080000 -0.800000 -32.076225 -37.704460 2450.510742
2.840000 5.120000 -1.200000 -16.723156 0.862357 280.407593
2.840000 5.120000 -1.160000 -20.474066 -15.964134 674.040955
2.840000 5.120000 -1.120000 -7.330697 -34.378803 1235.641235
2.840000 5.120000 -1.080000 20.191231 -37.623489 1823.212769
2.840000 5.120000 -1.040000 44.249321 -16.496346 2230.131836
2.840000 5.120000 -1.000000 44.402924 18.769123 2323.899658
2.840000 5.120000 -0.960000 16.362999 43.453880 2155.987549
2.840000 5.120000 -0.920000 -21.547569 38.285866 1930.105225
2.840000 5.120000 -0.880000 -42.275826 6.550342 1830.152344
2.840000 5.120000 -0.840000 -32.498589 -28.265442 1855.093384
2.840000 5.120000 -0.800000 -2.850235 -42.596214 1822.561279
2.840000 5.160000 -1.200000 -14.409915 -15.161976 437.531158
2.840000 5.160000 -1.160000 -1.303685 -26.074909 681.600464
2.840000 5.160000 -1.120000 19.533611 -24.379782 975.935791
2.840000 5.160000 -1.080000 35.414696 -5.797635 1287.813232
2.840000 5.160000 -1.040000 33.014538 21.474367 1551.108154
2.840000 5.160000 -1.000000 9.954582 39.942177 1694.471191
2.840000 5.160000 -0.960000 -20.597361 35.563267 1688.997192
2.840000 5.160000 -0.920000 -38.413460 9.833783 1572.297119
2.840000 5.160000 -0.880000 -31.789186 -20.206366 1418.849609
2.840000 5.160000 -0.840000 -6.693211 -35.085709 1275.806030
2.840000 5.160000 -0.800000 18.794527 -27.838116 1128.194946
2.840000 5.200000 -1.200000 -1.590882 -24.308918 593.454407
2.840000 5.200000 -1.160000 16.821386 -20.416203 699.780396
2.840000 5.200000 -1.120000 28.453045 -2.674249 816.727356
2.840000 5.200000 -1.080000 23.893444 19.982391 970.192627
2.840000 5.200000 -1.040000 3.603281 33.535118 1137.587769
2.840000 5.200000 -1.000000 -20.952654 28.515171 1252.128662
2.840000 5.200000 -0.960000 -34.570892 7.389046 1249.744629
2.840000 5.200000 -0.920000 -29.034054 -16.634876 1119.695312
2.840000 5.200000 -0.880000 -8.857734 -28.951923 916.673340
2.840000 5.200000 -0.840000 12.600001 -23.688492 719.904663
2.840000 5.200000 -0.800000 23.136654 -6.639950 579.393677
2.880000 4.800000 -1.200000 27.533131 25.797392 1423.578735
2.880000 4.800000 -1.160000 11.689871 27.697063 903.780396
2.880000 4.800000 -1.120000 0.786972 18.216751 332.469330
2.880000 4.800000 -1.080000 1.501888 6.315861 42.145767
2.880000 4.800000 -1.040000 9.787857 2.099892 100.211693
2.880000 4.800000 -1.000000 15.488609 7.028181 289.292358
2.880000 4.800000 -0.960000 13.029621 13.454025 350.781830
2.880000 4.800000 -0.920000 6.519754 13.764992 231.982193
2.880000 4.800000 -0.880000 3.900099 8.676126 90.485939
2.880000 4.800000 -0.840000 7.259342 5.427809 82.159157
2.880000 4.800000 -0.800000 10.608491 8.395851 183.030396
2.880000 4.840000 -1.200000 5.991151 30.730881 980.280884
2.880000 4.840000 -1.160000 6.448723 25.384979 685.983154
2.880000 4.840000 -1.120000 11.350368 28.677402 951.224304
2.880000 4.840000 -1.080000 8.585144 40.643669 1725.612549
2.880000 4.840000 -1.040000 -8.269714 49.125290 2481.682373
2.880000 4.840000 -1.000000 -30.838703 40.916878 2625.216553
2.880000 4.840000 -0.960000 -41.647030 16.259731 1998.854004
2.880000 4.840000 -0.920000 -30.647896 -8.779018 1016.364685
2.880000 4.840000 -0.880000 -6.131577 -16.130791 297.798645
2.880000 4.840000 -0.840000 11.920172 -2.789688 149.872864
2.880000 4.840000 -0.800000 10.365408 16.194542 369.704865
2.880000 4.880000 -1.200000 -10.130831 18.827625 457.113190
2.880000 4.880000 -1.160000 6.018288 26.213116 723.347229
2.880000 4.880000 -1.120000 5.620630 53.314098 2873.984619
2.880000 4.880000 -1.080000 -25.628368 75.332428 6331.788086
2.880000 4.880000 -1.040000 -72.355331 63.785889 9303.933594
2.880000 4.880000 -1.000000 -98.899460 15.673851 10026.773438
2.880000 4.880000 -0.960000 -81.080177 -39.138985 8105.855469
2.880000 4.880000 -0.920000 -30.077316 -62.333752 4790.141602
2.880000 4.880000 -0.880000 16.066614 -41.154251 1951.808472
2.880000 4.880000 -0.840000 26.175346 0.861082 685.890198
2.880000 4.880000 -0.800000 2.469141 26.802078 724.448059
2.880000 4.920000 -1.200000 -10.607761 2.013392 116.578354
2.880000 4.920000 -1.160000 2.225407 32.768509 1078.727539
2.880000 4.920000 -1.120000 -26.206139 69.904167 5573.354492
2.880000 4.920000 -1.080000 -87.611237 69.628883 12523.910156
2.880000 4.920000 -1.040000 -135.617538 13.370289 18570.880859
2.880000 4.920000 -1.000000 -125.228630 -68.093796 20318.974609
2.880000 4.920000 -0.960000 -56.209602 -117.056885 16861.833984
2.880000 4.920000 -0.920000 23.164164 -99.433029 10423.505859
2.880000 4.920000 -0.880000 57.796333 -35.046867 4568.699219
2.880000 4.920000 -0.840000 33.379562 21.750450 1587.277344
2.880000 4.920000 -0.800000 -15.374962 31.759687 1245.067139
2.880000 4.960000 -1.200000 0.081896 -5.380636 28.957952
2.880000 4.960000 -1.160000 -11.148407 37.621910 1539.695068
2.880000 4.960000 -1.120000 -68.683792 55.520401 7799.978516
2.880000 4.960000 -1.080000 -131.561340 11.236895 17434.654297
2.880000 4.960000 -1.040000 -140.112396 -79.339630 25926.261719
2.880000 4.960000 -1.000000 -72.372284 -152.797455 28584.810547
2.880000 4.960000 -0.960000 29.962414 -152.081848 24026.634766
2.880000 4.960000 -0.920000 94.886688 -78.568047 15176.421875
2.880000 4.960000 -0.880000 82.771133 8.822327 6928.894043
2.880000 4.960000 -0.840000 18.449535 47.000763 2549.457031
2.880000 4.960000 -0.800000 -36.724129 22.601295 1859.480225
2.880000 5.000000 -1.200000 8.181105 -0.220115 66.978928
2.880000 5.000000 -1.160000 -29.673660 30.251623 1795.686768
2.880000 5.000000 -1.120000 -91.314423 9.974564 8437.816406
2.880000 5.000000 -1.080000 -118.722839 -67.099182 18597.412109
2.880000 5.000000 -1.040000 -70.749336 -150.292282 27593.238281
2.880000 5.000000 -1.000000 32.136105 -171.672333 30504.119141
2.880000 5.000000 -0.960000 118.909874 -108.098068 25824.750000
2.880000 5.000000 -0.920000 128.640640 -5.203585 16575.492188
2.880000 5.000000 -0.880000 63.644936 61.997314 7894.344727
2.880000 5.000000 -0.840000 -15.943498 54.607445 3236.168213
2.880000 5.000000 -0.800000 -49.252785 -1.275066 2427.462646
2.880000 5.040000 -1.200000 4.967905 7.507113 81.036819
2.880000 5.040000 -1.160000 -40.247421 8.657196 1694.801880
2.880000 5.040000 -1.120000 -74.999878 -40.585991 7272.204590
2.880000 5.040000 -1.080000 -53.227440 -113.163818 15639.209961
2.880000 5.040000 -1.040000 28.084957 -149.016602 22994.712891
2.880000 5.040000 -1.000000 116.621475 -108.490250 25370.703125
2.880000 5.040000 -0.960000 146.349350 -12.942618 21585.644531
2.880000 5.040000 -0.920000 96.158447 69.855530 14126.242188
2.880000 5.040000 -0.880000 8.800820 84.184250 7164.442383
2.880000 5.040000 -0.840000 -48.562584 33.155003 3457.578613
2.880000 5.040000 -0.800000 -43.374680 -30.094875 2787.064453
2.880000 5.080000 -1.200000 -4.826726 6.046182 59.853596
2.880000 5.080000 -1.160000 -32.799484 -16.367996 1343.717407
2.880000 5.080000 -1.120000 -29.578794 -64.626251 5051.457520
2.880000 5.080000 -1.080000 20.570148 -99.678261 10358.886719
2.880000 5.080000 -1.040000 90.490616 -81.962700 14906.435547
2.880000 5.080000 -1.000000 127.237091 -11.414703 16319.573242
2.880000 5.080000 -0.960000 98.217392 65.800285 13976.333984
2.880000 5.080000 -0.920000 22.690989 94.661774 9475.732422
2.880000 5.080000 -0.880000 -43.503700 58.921944 5364.367188
2.880000 5.080000 -0.840000 -56.500687 -6.468478 3234.168945
2.880000 5.080000 -0.800000 -19.857588 -49.340874 2828.845459
2.880000 5.120000 -1.200000 -8.859765 -5.614800 110.021423
2.880000 5.120000 -1.160000 -10.353556 -29.440094 973.915222
2.880000 5.120000 -1.120000 14.485630 -51.367195 2848.422119
2.880000 5.120000 -1.080000 56.603336 -45.523766 5276.351074
2.880000 5.120000 -1.040000 84.990555 -3.534794 7235.889160
2.880000 5.120000 -1.000000 71.734283 51.483833 7796.392578
2.880000 5.120000 -0.960000 19.435740 80.193405 6808.730469
2.880000 5.120000 -0.920000 -36.971020 60.431103 5018.774414
2.880000 5.120000 -0.880000 -58.449871 7.454967 3471.963867
2.880000 5.120000 -0.840000 -34.578735 -39.105835 2724.955322
2.880000 5.120000 -0.800000 9.984941 -49.461967 2546.185303
2.880000 5.160000 -1.200000 -0.612633 -17.070690 291.783752
2.880000 5.160000 -1.160000 12.721395 -23.745083 725.662842
2.880000 5.160000 -1.120000 32.012604 -17.749166 1339.839600
2.880000 5.160000 -1.080000 44.244957 4.756817 1980.243530
2.880000 5.160000 -1.040000 35.685829 34.094940 2435.943359
2.880000 5.160000 -1.000000 5.253746 50.482033 2576.037354
2.880000 5.160000 -0.960000 -30.301346 39.122845 2448.768555
2.880000 5.160000 -0.920000 -47.152855 4.293520 2241.826172
2.880000 5.160000 -0.880000 -33.396503 -31.762041 2124.153809
2.880000 5.160000 -0.840000 0.805343 -45.870712 2104.770996
2.880000 5.160000 -0.800000 31.773207 -32.035233 2035.792725
2.880000 5.200000 -1.200000 13.924006 -17.743366 508.705017
2.880000 5.200000 -1.160000 22.858109 -6.603297 566.096619
2.880000 5.200000 -1.120000 22.063995 8.855293 565.236084
2.880000 5.200000 -1.080000 10.507651 20.928802 548.425537
2.880000 5.200000 -1.040000 -7.454773 22.663074 569.188599
2.880000 5.200000 -1.000000 -23.315670 11.348574 672.410645
2.880000 5.200000 -0.960000 -28.080259 -9.051014 870.421814
2.880000 5.200000 -0.920000 -17.496855 -28.658781 1127.465698
2.880000 5.200000 -0.880000 4.326164 -36.683331 1364.382446
2.880000 5.200000 -0.840000 26.350204 -28.209167 1490.090332
2.880000 5.200000 -0.800000 37.201672 -7.815439 1445.045410
2.920000 4.800000 -1.200000 2.516445 56.094135 3152.884521
2.920000 4.800000 -1.160000 -18.532707 42.450218 2145.482178
2.920000 4.800000 -1.120000 -22.898682 20.473152 943.499573
2.920000 4.800000 -1.080000 -11.885269 6.314732 181.135468
2.920000 4.800000 -1.040000 0.825333 7.045944 50.326504
2.920000 4.800000 -1.000000 3.373535 14.942749 234.666489
2.920000 4.800000 -0.960000 -2.793870 17.290169 306.755615
2.920000 4.800000 -0.920000 -6.477505 10.660099 155.595779
2.920000 4.800000 -0.880000 -0.749851 3.793682 14.954301
2.920000 4.800000 -0.840000 8.733864 6.283932 115.768173
2.920000 4.800000 -0.800000 10.587106 16.456497 382.903137
2.920000 4.840000 -1.200000 -30.045553 40.609676 2551.881104
2.920000 4.840000 -1.160000 -25.239677 30.906723 1592.266846
2.920000 4.840000 -1.120000 -21.110058 36.340973 1766.300781
2.920000 4.840000 -1.080000 -33.321857 46.322220 3256.094238
2.920000 4.840000 -1.040000 -59.035099 40.128464 5095.436523
2.920000 4.840000 -1.000000 -76.232307 9.461273 5900.880371
2.920000 4.840000 -0.960000 -64.440231 -29.324192 5012.451660
2.920000 4.840000 -0.920000 -26.747795 -47.975170 3017.061523
2.920000 4.840000 -0.880000 10.289322 -32.956657 1192.011353
2.920000 4.840000 -0.840000 20.408901 0.789248 417.146179
2.920000 4.840000 -0.800000 1.938590 23.602831 560.851746
2.920000 4.880000 -1.200000 -39.972443 7.743441 1657.756958
2.920000 4.880000 -1.160000 -25.459404 25.262024 1286.351074
2.920000 4.880000 -1.120000 -45.747952 54.237801 5034.614258
2.920000 4.880000 -1.080000 -98.304482 52.715179 12442.662109
2.920000 4.880000 -1.040000 -141.072205 -0.816048 19902.033203
2.920000 4.880000 -1.000000 -129.134644 -79.847229 23051.335938
2.920000 4.880000 -0.960000 -59.427460 -128.455368 20032.404297
2.920000 4.880000 -0.920000 21.942635 -111.159500 12837.914062
2.920000 4.880000 -0.880000 59.379166 -45.782944 5621.962891
2.920000 4.880000 -0.840000 36.750557 13.393547 1529.990479
2.920000 4.880000 -0.800000 -11.754377 25.511803 789.017456
2.920000 4.920000 -1.200000 -23.764570 -18.331415 900.795593
2.920000 4.920000 -1.160000 -29.855335 24.765871 1504.689453
2.920000 4.920000 -1.120000 -89.861359 44.059937 10016.341797
2.920000 4.920000 -1.080000 -158.961700 -6.701160 25313.728516
2.920000 4.920000 -1.040000 -166.792160 -112.224823 40414.035156
2.920000 4.920000 -1.000000 -85.139900 -199.190948 46925.835938
2.920000 4.920000 -0.960000 38.768929 -199.209808 41187.578125
2.920000 4.920000 -0.920000 119.932976 -111.947906 26916.253906
2.920000 4.920000 -0.880000 110.052719 -6.082909 12148.602539
2.920000 4.920000 -0.840000 37.079777 43.264771 3246.750000
2.920000 4.920000 -0.800000 -26.790432 19.195919 1086.210571
2.920000 4.960000 -1.200000 1.589167 -21.855495 480.188141
2.920000 4.960000 -1.160000 -41.110397 18.939663 2048.775635
2.920000 4.960000 -1.120000 -119.847595 -5.221275 14390.708008
2.920000 4.960000 -1.080000 -156.328613 -107.061295 35900.757812
2.920000 4.960000 -1.040000 -91.723206 -220.482864 57025.843750
2.920000 4.960000 -1.000000 49.777908 -252.526825 66247.640625
2.920000 4.960000 -0.960000 173.267380 -168.593506 58445.351562
2.920000 4.960000 -0.920000 194.583466 -27.469893 38617.320312
2.920000 4.960000 -0.880000 113.576324 70.092674 17812.564453
2.920000 4.960000 -0.840000 8.836033 69.778305 4947.087402
2.920000 4.960000 -0.800000 -38.149803 4.016630 1471.540771
2.920000 5.000000 -1.200000 15.413079 -7.870117 299.501770
2.920000 5.000000 -1.160000 -49.352043 0.682941 2436.090576
2.920000 5.000000 -1.120000 -104.915527 -69.311935 15811.412109
2.920000 5.000000 -1.080000 -76.401634 -181.154175 38654.046875
2.920000 5.000000 -1.040000 47.069008 -242.387802 60967.339844
2.920000 5.000000 -1.000000 188.985962 -187.130005 70733.335938
2.920000 5.000000 -0.960000 246.671982 -41.845387 62598.101562
2.920000 5.000000 -0.920000 182.055252 92.851471 41765.507812
2.920000 5.000000 -0.880000 54.238220 129.719406 19768.910156
2.920000 5.000000 -0.840000 -37.076309 67.735588 5962.762695
2.920000 5.000000 -0.800000 -40.342731 -17.806822 1944.618896
2.920000 5.040000 -1.200000 11.811905 5.501537 169.788010
2.920000 5.040000 -1.160000 -42.078266 -23.537138 2324.577393
2.920000 5.040000 -1.120000 -47.399460 -106.486824 13586.152344
2.920000 5.040000 -1.080000 32.710045 -176.865631 32351.398438
2.920000 5.040000 -1.040000 158.416351 -159.357132 50490.437500
2.920000 5.040000 -1.000000 237.614532 -43.653992 58366.339844
2.920000 5.040000 -0.960000 205.815842 97.054611 51779.757812
2.920000 5.040000 -0.920000 85.747406 166.227356 34984.152344
2.920000 5.040000 -0.880000 -32.393528 127.244896 17240.603516
2.920000 5.040000 -0.840000 -71.219757 30.282101 5989.259766
2.920000 5.040000 -0.800000 -29.026924 -40.241840 2461.968018
2.920000 5.080000 -1.200000 2.121249 5.828108 38.466537
2.920000 5.080000 -1.160000 -18.227304 -37.928341 1770.793701
2.920000 5.080000 -1.120000 16.794928 -93.715317 9064.629883
2.920000 5.080000 -1.080000 101.074493 -102.555359 20733.654297
2.920000 5.080000 -1.040000 175.078888 -33.457680 31772.033203
2.920000 5.080000 -1.000000 173.810486 79.041130 36457.585938
2.920000 5.080000 -0.960000 87.380821 157.512207 32445.503906
2.920000 5.080000 -0.920000 -25.676804 147.531494 22424.839844
2.920000 5.080000 -0.880000 -87.935394 64.710312 11920.058594
2.920000 5.080000 -0.840000 -68.817093 -22.148363 5226.342285
2.920000 5.080000 -0.800000 -4.372416 -53.928177 2927.366211
2.920000 5.120000 -1.200000 0.714207 -3.056915 9.854822
2.920000 5.120000 -1.160000 8.744787 -32.175266 1111.719116
2.920000 5.120000 -1.120000 48.823669 -46.129166 4511.650391
2.920000 5.120000 -1.080000 96.154617 -16.989471 9534.352539
2.920000 5.120000 -1.040000 107.828964 49.411163 14068.548828
2.920000 5.120000 -1.000000 61.674633 109.976463 15898.582031
2.920000 5.120000 -0.960000 -18.512260 118.078285 14285.185547
2.920000 5.120000 -0.920000 -78.887589 65.055901 10455.521484
2.920000 5.120000 -0.880000 -80.413933 -10.680309 6580.469238
2.920000 5.120000 -0.840000 -30.801172 -56.688774 4162.329590
2.920000 5.120000 -0.800000 26.079937 -50.304077 3210.663330
2.920000 5.160000 -1.200000 10.122107 -8.015736 166.709045
2.920000 5.160000 -1.160000 22.425713 -11.574863 636.890076
2.920000 5.160000 -1.120000 39.003380 -1.522537 1523.581787
2.920000 5.160000 -1.080000 44.798809 24.442345 2604.361572
2.920000 5.160000 -1.040000 26.406784 52.582813 3462.270508
2.920000 5.160000 -1.000000 -12.493118 60.237518 3784.636719
2.920000 5.160000 -0.960000 -48.755157 35.134338 3611.487305
2.920000 5.160000 -0.920000 -56.288639 -10.861210 3286.376709
2.920000 5.160000 -0.880000 -28.120703 -48.487549 3141.816406
2.920000 5.160000 -0.840000 16.799999 -54.058865 3204.600830
2.920000 5.160000 -0.800000 49.141201 -28.027960 3200.424316
2.920000 5.200000 -1.200000 20.398655 -1.795862 419.330261
2.920000 5.200000 -1.160000 18.028292 7.892296 387.307617
2.920000 5.200000 -1.120000 10.325401 13.625652 292.272308
2.920000 5.200000 -1.080000 0.750599 14.071543 198.571716
2.920000 5.200000 -1.040000 -8.518768 9.148871 156.271271
2.920000 5.200000 -1.000000 -14.928925 -1.738422 225.894897
2.920000 5.200000 -0.960000 -13.754192 -17.505169 495.608765
2.920000 5.200000 -0.920000 -0.760101 -32.052345 1027.930542
2.920000 5.200000 -0.880000 22.063604 -35.703728 1761.558838
2.920000 5.200000 -0.840000 44.391331 -22.379292 2471.422852
2.920000 5.200000 -0.800000 53.367722 3.722937 2861.974121
2.960000 4.800000 -1.200000 -40.471691 60.110367 5251.213867
2.960000 4.800000 -1.160000 -54.373634 30.137329 3864.750732
2.960000 4.800000 -1.120000 -44.556755 2.250431 1990.368896
2.960000 4.800000 -1.080000 -23.074059 -7.423836 587.525513
2.960000 4.800000 -1.040000 -8.598427 -0.322052 74.036659
2.960000 4.800000 -1.000000 -8.287170 8.414383 139.479034
2.960000 4.800000 -0.960000 -12.907982 7.327759 220.312042
2.960000 4.800000 -0.920000 -9.825539 0.325081 96.646881
2.960000 4.800000 -0.880000 1.417652 0.083372 2.016688
2.960000 4.800000 -0.840000 8.716793 11.497475 208.174408
2.960000 4.800000 -0.800000 2.336466 24.642225 612.698303
2.960000 4.840000 -1.200000 -65.526428 19.629425 4679.027344
2.960000 4.840000 -1.160000 -54.998009 9.391296 3112.977539
2.960000 4.840000 -1.120000 -53.292984 13.861158 3032.273926
2.960000 4.840000 -1.080000 -69.247314 12.929428 4962.360352
2.960000 4.840000 -1.040000 -86.819183 -11.421516 7668.021973
2.960000 4.840000 -1.000000 -79.599892 -52.326736 9074.230469
2.960000 4.840000 -0.960000 -39.418198 -80.167870 7980.681641
2.960000 4.840000 -0.920000 10.960670 -70.113213 5035.999023
2.960000 4.840000 -0.880000 36.378139 -27.940674 2104.050293
2.960000 4.840000 -0.840000 21.979815 13.201405 657.389343
2.960000 4.840000 -0.800000 -12.836494 23.210606 703.507812
2.960000 4.880000 -1.200000 -53.506821 -24.900494 3483.014648
2.960000 4.880000 -1.160000 -49.120003 -1.750212 2415.837891
2.960000 4.880000 -1.120000 -85.485085 10.860119 7425.642090
2.960000 4.880000 -1.080000 -132.837051 -26.721977 18359.746094
2.960000 4.880000 -1.040000 -135.796936 -107.617767 30022.392578
2.960000 4.880000 -1.000000 -68.423492 -175.685181 35547.058594
2.960000 4.880000 -0.960000 34.150887 -174.245361 31527.728516
2.960000 4.880000 -0.920000 102.492874 -100.278847 20560.636719
2.960000 4.880000 -0.880000 94.492111 -9.540115 9019.772461
2.960000 4.880000 -0.840000 31.840523 33.702377 2149.669189
2.960000 4.880000 -0.800000 -23.791836 13.139643 738.701660
2.960000 4.920000 -1.200000 -16.263786 -44.537155 2248.068848
2.960000 4.920000 -1.160000 -47.297123 -7.922226 2299.779541
2.960000 4.920000 -1.120000 -116.049759 -29.009850 14309.118164
2.960000 4.920000 -1.080000 -147.783722 -124.515923 37344.242188
2.960000 4.920000 -1.040000 -82.977936 -232.812958 61087.210938
2.960000 4.920000 -1.000000 57.371780 -262.667206 72285.585938
2.960000 4.920000 -0.960000 180.787811 -178.204224 64440.976562
2.960000 4.920000 -0.920000 203.161285 -36.242123 42588.000000
2.960000 4.920000 -0.880000 123.118881 63.016533 19129.341797
2.960000 4.920000 -0.840000 18.731884 64.534271 4515.555664
2.960000 4.920000 -0.800000 -27.895639 0.420817 778.343750
2.960000 4.960000 -1.200000 17.589123 -32.342999 1355.446777
2.960000 4.960000 -1.160000 -47.970428 -19.290318 2673.278564
2.960000 4.960000 -1.120000 -107.905746 -93.659363 20415.726562
2.960000 4.960000 -1.080000 -75.522522 -217.488556 53004.925781
2.960000 4.960000 -1.040000 64.757736 -286.394440 86215.335938
2.960000 4.960000 -1.000000 227.849380 -223.614166 101918.640625
2.960000 4.960000 -0.960000 296.559753 -57.109749 91209.210938
2.960000 4.960000 -0.920000 225.918777 99.378479 60915.375000
2.960000 4.960000 -0.880000 81.926559 145.909973 28001.681641
2.960000 4.960000 -0.840000 -22.240974 80.391647 6957.478027
2.960000 4.960000 -0.800000 -27.854153 -11.963642 918.982544
2.960000 5.000000 -1.200000 28.014235 -5.928844 819.948547
2.960000 5.000000 -1.160000 -40.181160 -36.857059 2972.968506
2.960000 5.000000 -1.120000 -49.719013 -140.764816 22286.714844
2.960000 5.000000 -1.080000 51.614174 -232.847153 56881.820312
2.960000 5.000000 -1.040000 215.543213 -213.130737 91883.585938
2.960000 5.000000 -1.000000 322.981659 -64.578033 108487.468750
2.960000 5.000000 -0.960000 288.039185 120.439583 97472.265625
2.960000 5.000000 -0.920000 137.009705 217.005966 65863.250000
2.960000 5.000000 -0.880000 -15.651306 175.884705 31180.392578
2.960000 5.000000 -0.840000 -70.510498 59.319851 8490.575195
2.960000 5.000000 -0.800000 -24.497387 -26.017954 1277.055908
2.960000 5.040000 -1.200000 18.091251 11.631845 462.593201
2.960000 5.040000 -1.160000 -18.096081 -48.914883 2720.133789
2.960000 5.040000 -1.120000 27.987778 -134.360626 18836.093750
2.960000 5.040000 -1.080000 152.643829 -154.128983 47055.882812
2.960000 5.040000 -1.040000 268.651001 -56.606895 75377.703125
2.960000 5.040000 -1.000000 276.488647 111.394882 88854.789062
2.960000 5.040000 -0.960000 156.449860 236.126846 80232.445312
2.960000 5.040000 -0.920000 -9.150066 234.543411 55094.335938
2.960000 5.040000 -0.880000 -107.624847 125.155991 27247.128906
2.960000 5.040000 -0.840000 -92.450714 4.878914 8570.938477
2.960000 5.040000 -0.800000 -12.873648 -42.003883 1930.057007
2.960000 5.080000 -1.200000 5.778250 12.295397 184.564957
2.960000 5.080000 -1.160000 9.406731 -42.999493 1937.442993
2.960000 5.080000 -1.120000 76.872955 -78.528168 12076.125000
2.960000 5.080000 -1.080000 167.096283 -37.194168 29304.574219
2.960000 5.080000 -1.040000 200.889526 77.575180 46374.511719
2.960000 5.080000 -1.000000 132.377884 192.335785 54516.960938
2.960000 5.080000 -0.960000 -3.143509 222.713593 49611.226562
2.960000 5.080000 -0.920000 -114.879364 147.675598 35005.351562
2.960000 5.080000 -0.880000 -133.905472 27.442591 18683.771484
2.960000 5.080000 -0.840000 -68.761147 -51.845490 7416.049805
2.960000 5.080000 -0.800000 11.654844 -51.908798 2830.358887
2.960000 5.120000 -1.200000 4.094153 5.841196 50.881664
2.960000 5.120000 -1.160000 25.453495 -20.200792 1055.952393
2.960000 5.120000 -1.120000 72.526924 -14.245197 5463.080566
2.960000 5.120000 -1.080000 104.764320 39.844166 12563.120117
2.960000 5.120000 -1.040000 80.917435 113.431801 19414.404297
2.960000 5.120000 -1.000000 0.941154 150.623993 22688.474609
2.960000 5.120000 -0.960000 -86.417160 116.305649 20994.929688
2.960000 5.120000 -0.920000 -121.931946 29.668907 15747.643555
2.960000 5.120000 -0.880000 -85.833534 -50.375011 9905.037109
2.960000 5.120000 -0.840000 -12.394501 -74.986969 5776.668945
2.960000 5.120000 -0.800000 43.380562 -43.335781 3759.863037
2.960000 5.160000 -1.200000 10.450573 5.463005 139.058899
2.960000 5.160000 -1.160000 21.382885 4.187240 474.760773
2.960000 5.160000 -1.120000 33.306873 17.538177 1416.935425
2.960000 5.160000 -1.080000 29.670166 43.361782 2760.562988
2.960000 5.160000 -1.040000 1.273796 62.931702 3962.021729
2.960000 5.160000 -1.000000 -39.944595 54.387718 4553.594727
2.960000 5.160000 -0.960000 -65.782654 13.888397 4520.245117
2.960000 5.160000 -0.920000 -54.184807 -36.495041 4267.881348
2.960000 5.160000 -0.880000 -9.308125 -64.208458 4209.367188
2.960000 5.160000 -0.840000 40.405533 -52.318428 4369.825195
2.960000 5.160000 -0.800000 65.132507 -12.360649 4395.029297
2.960000 5.200000 -1.200000 13.726164 13.515844 371.085632
2.960000 5.200000 -1.160000 5.096418 14.838537 246.155670
2.960000 5.200000 -1.120000 -0.811829 9.962780 99.916054
2.960000 5.200000 -1.080000 -2.086105 4.173050 21.766180
2.960000 5.200000 -1.040000 -2.072296 -0.224819 4.344955
2.960000 5.200000 -1.000000 -2.463882 -6.362206 46.548374
2.960000 5.200000 -0.960000 1.306608 -16.781395 283.322418
2.960000 5.200000 -0.920000 15.513340 -26.429237 939.168274
2.960000 5.200000 -0.880000 38.702301 -24.300299 2088.372559
2.960000 5.200000 -0.840000 58.608276 -3.908518 3450.206787
2.960000 5.200000 -0.800000 60.668179 28.022602 4465.894043
3.000000 4.800000 -1.200000 -75.212097 32.365028 6704.354492
3.000000 4.800000 -1.160000 -72.667686 -5.611454 5312.081055
3.000000 4.800000 -1.120000 -47.513397 -29.320251 3117.200195
3.000000 4.800000 -1.080000 -19.416698 -29.076332 1222.441284
3.000000 4.800000 -1.040000 -5.659159 -14.996552 256.922638
3.000000 4.800000 -1.000000 -6.322189 -4.453964 59.807877
3.000000 4.800000 -0.960000 -8.351158 -3.896540 84.924866
3.000000 4.800000 -0.920000 -2.785728 -4.763737 30.453470
3.000000 4.800000 -0.880000 4.904762 3.207047 34.341839
3.000000 4.800000 -0.840000 2.698391 17.618820 317.704132
3.000000 4.800000 -0.800000 -11.771051 25.099482 768.541626
3.000000 4.840000 -1.200000 -76.815247 -21.543156 6364.689453
3.000000 4.840000 -1.160000 -61.782223 -29.687340 4698.380859
3.000000 4.840000 -1.120000 -59.341263 -29.320698 4381.088867
3.000000 4.840000 -1.080000 -66.983421 -40.686089 6142.136719
3.000000 4.840000 -1.040000 -63.094227 -69.552078 8818.373047
3.000000 4.840000 -1.000000 -30.985252 -96.223045 10218.959961
3.000000 4.840000 -0.960000 18.857697 -92.818954 8970.970703
3.000000 4.840000 -0.920000 53.740803 -52.862671 5682.536133
3.000000 4.840000 -0.880000 48.584343 -1.911964 2364.093994
3.000000 4.840000 -0.840000 10.985552 23.888302 691.333313
3.000000 4.840000 -0.800000 -24.888683 11.088375 742.398621
3.000000 4.880000 -1.200000 -39.881477 -59.119068 5085.596680
3.000000 4.880000 -1.160000 -46.299812 -40.805996 3808.801758
3.000000 4.880000 -1.120000 -79.948212 -52.530579 9151.177734
3.000000 4.880000 -1.080000 -94.340050 -110.794708 21175.511719
3.000000 4.880000 -1.040000 -47.490700 -178.704788 34190.765625
3.000000 4.880000 -1.000000 49.940842 -194.709351 40405.816406
3.000000 4.880000 -0.960000 135.679077 -131.880081 35801.167969
3.000000 4.880000 -0.920000 149.670990 -28.333740 23204.205078
3.000000 4.880000 -0.880000 89.226402 44.148094 9910.405273
3.000000 4.880000 -0.840000 10.652004 44.019981 2051.223877
3.000000 4.880000 -0.800000 -24.100857 -6.022419 617.120850
3.000000 4.920000 -1.200000 8.649195 -58.654465 3515.154785
3.000000 4.920000 -1.160000 -34.702789 -46.000618 3320.340332
3.000000 4.920000 -1.120000 -77.933540 -102.455017 16570.667969
3.000000 4.920000 -1.080000 -48.012192 -200.488358 42500.753906
3.000000 4.920000 -1.040000 70.852783 -253.926636 69498.851562
3.000000 4.920000 -1.000000 208.621582 -196.990982 82328.406250
3.000000 4.920000 -0.960000 265.711548 -52.222321 73329.796875
3.000000 4.920000 -0.920000 203.010895 83.263397 48146.214844
3.000000 4.920000 -0.880000 77.334641 122.956749 21099.007812
3.000000 4.920000 -0.840000 -12.619085 65.090355 4395.995605
3.000000 4.920000 -0.800000 -15.405212 -15.093951 465.147949
3.000000 4.960000 -1.200000 37.488506 -28.229679 2202.302734
3.000000 4.960000 -1.160000 -23.321526 -52.573097 3307.824219
3.000000 4.960000 -1.120000 -31.081348 -148.641617 23060.380859
3.000000 4.960000 -1.080000 68.046234 -235.246643 59971.273438
3.000000 4.960000 -1.040000 228.833725 -213.429550 97917.046875
3.000000 4.960000 -1.000000 334.381256 -64.985703 116033.968750
3.000000 4.960000 -0.960000 299.311401 119.473091 103861.132812
3.000000 4.960000 -0.920000 149.399323 216.199158 69062.234375
3.000000 4.960000 -0.880000 -1.631889 176.539093 31168.712891
3.000000 4.960000 -0.840000 -55.232964 63.102135 7032.559570
3.000000 4.960000 -0.800000 -9.682955 -17.540220 401.418945
3.000000 5.000000 -1.200000 35.951126 5.283354 1320.397339
3.000000 5.000000 -1.160000 -4.899281 -57.129539 3287.787109
3.000000 5.000000 -1.120000 45.051731 -150.765274 24759.826172
3.000000 5.000000 -1.080000 184.635162 -172.658447 63901.085938
3.000000 5.000000 -1.040000 316.222961 -62.395138 103890.117188
3.000000 5.000000 -1.000000 326.568237 128.526566 123165.890625
3.000000 5.000000 -0.960000 192.415466 271.826630 110913.429688
3.000000 5.000000 -0.920000 6.234831 273.609894 74901.250000
3.000000 5.000000 -0.880000 -105.369492 154.907593 35099.089844
3.000000 5.000000 -0.840000 -91.154022 24.760704 8922.148438
3.000000 5.000000 -0.800000 -7.824603 -23.500454 613.495789
3.000000 5.040000 -1.200000 17.621672 21.156883 758.137024
3.000000 5.040000 -1.160000 18.340660 -49.502117 2786.839600
3.000000 5.040000 -1.120000 104.509796 -97.821068 20491.257812
3.000000 5.040000 -1.080000 223.745819 -45.968506 52175.296875
3.000000 5.040000 -1.040000 271.322388 103.898094 84410.648438
3.000000 5.040000 -1.000000 185.522354 256.459198 100189.859375
3.000000 5.040000 -0.960000 11.087627 301.452057 90996.281250
3.000000 5.040000 -0.920000 -134.987869 211.127365 62796.492188
3.000000 5.040000 -0.880000 -164.703064 62.613708 31047.576172
3.000000 5.040000 -0.840000 -90.047806 -35.112751 9341.512695
3.000000 5.040000 -0.800000 1.311455 -36.052925 1301.533325
3.000000 5.080000 -1.200000 2.791353 19.348597 382.159851
3.000000 5.080000 -1.160000 33.437408 -26.680311 1829.899292
3.000000 5.080000 -1.120000 110.255432 -22.196049 12648.925781
3.000000 5.080000 -1.080000 166.779037 61.892319 31645.906250
3.000000 5.080000 -1.040000 134.887817 180.812119 50887.742188
3.000000 5.080000 -1.000000 12.919540 245.715759 60543.148438
3.000000 5.080000 -0.960000 -123.747055 201.096664 55753.203125
3.000000 5.080000 -0.920000 -184.620300 76.066940 39870.835938
3.000000 5.080000 -0.880000 -140.889938 -41.038345 21534.121094
3.000000 5.080000 -0.840000 -44.347717 -79.892639 8349.553711
3.000000 5.080000 -0.800000 26.152386 -42.730949 2509.881348
3.000000 5.120000 -1.200000 -0.407766 13.568310 184.265305
3.000000 5.120000 -1.160000 29.552519 0.161352 873.377441
3.000000 5.120000 -1.120000 67.176437 27.486326 5268.171875
3.000000 5.120000 -1.080000 68.289932 90.050858 12772.671875
3.000000 5.120000 -1.040000 10.462883 142.136871 20312.363281
3.000000 5.120000 -1.000000 -78.756012 134.435562 24275.429688
3.000000 5.120000 -0.960000 -139.243118 60.072037 22997.296875
3.000000 5.120000 -0.920000 -128.461380 -35.197617 17741.199219
3.000000 5.120000 -0.880000 -57.590202 -90.328659 11475.898438
3.000000 5.120000 -0.840000 20.302460 -79.120323 6672.215332
3.000000 5.120000 -0.800000 57.250801 -26.521015 3981.018555
3.000000 5.160000 -1.200000 1.440844 14.038383 199.152222
3.000000 5.160000 -1.160000 10.479782 14.663776 324.852173
3.000000 5.160000 -1.120000 15.850662 28.668076 1073.102051
3.000000 5.160000 -1.080000 3.243271 47.934475 2308.232666
3.000000 5.160000 -1.040000 -28.287338 52.190804 3524.053467
3.000000 5.160000 -1.000000 -59.490227 26.900833 4262.742188
3.000000 5.160000 -0.960000 -63.990219 -19.903580 4490.900391
3.000000 5.160000 -0.920000 -31.329288 -59.819115 4559.850586
3.000000 5.160000 -0.880000 21.684464 -65.758530 4794.399902
3.000000 5.160000 -0.840000 63.096252 -33.985229 5136.132812
3.000000 5.160000 -0.800000 70.797668 13.704304 5200.118164
3.000000 5.200000 -1.200000 -0.789007 18.937897 359.266449
3.000000 5.200000 -1.160000 -7.835496 11.138317 185.457108
3.000000 5.200000 -1.120000 -6.108109 0.894114 38.108429
3.000000 5.200000 -1.080000 1.277649 -3.970669 17.398598
3.000000 5.200000 -1.040000 6.815910 -3.390053 57.949093
3.000000 5.200000 -1.000000 8.572207 -4.049484 89.881065
3.000000 5.200000 -0.960000 13.193810 -9.521133 264.728607
3.000000 5.200000 -0.920000 27.532516 -13.255505 933.747925
3.000000 5.200000 -0.880000 47.943268 -3.617914 2311.646240
3.000000 5.200000 -0.840000 59.932705 23.176075 4129.059570
3.000000 5.200000 -0.800000 50.228729 55.984417 5657.180176
3.040000 4.800000 -1.200000 -81.168388 -9.955624 6687.421387
3.040000 4.800000 -1.160000 -61.378933 -43.809849 5686.676270
3.040000 4.800000 -1.120000 -26.577663 -55.169701 3750.067871
3.040000 4.800000 -1.080000 1.820185 -42.717773 1828.121338
3.040000 4.800000 -1.040000 11.663605 -21.578056 601.652222
3.040000 4.800000 -1.000000 8.056335 -7.309868 118.338715
3.040000 4.800000 -0.960000 3.702545 -2.272392 18.872608
3.040000 4.800000 -0.920000 3.672905 1.934982 17.234386
3.040000 4.800000 -0.880000 1.791519 10.705406 117.815262
3.040000 4.800000 -0.840000 -8.594162 18.409304 412.762085
3.040000 4.800000 -0.800000 -23.458153 15.443714 788.793213
3.040000 4.840000 -1.200000 -57.693253 -58.083191 6702.168457
3.040000 4.840000 -1.160000 -39.497929 -63.130783 5545.582031
3.040000 4.840000 -1.120000 -31.065575 -64.823692 5167.181152
3.040000 4.840000 -1.080000 -23.905853 -75.094154 6210.621582
3.040000 4.840000 -1.040000 -2.747292 -88.800774 7893.125488
3.040000 4.840000 -1.000000 33.598358 -86.442619 8601.176758
3.040000 4.840000 -0.960000 64.941452 -55.601273 7308.893555
3.040000 4.840000 -0.920000 66.640816 -8.601234 4514.979980
3.040000 4.840000 -0.880000 34.959042 24.380173 1816.527466
3.040000 4.840000 -0.840000 -6.065208 22.262510 532.406128
3.040000 4.840000 -0.800000 -25.259155 -6.668228 682.490173
3.040000 4.880000 -1.200000 -7.813441 -74.731827 5645.895508
3.040000 4.880000 -1.160000 -16.196943 -67.621521 4835.010742
3.040000 4.880000 -1.120000 -29.061707 -92.461197 9393.656250
3.040000 4.880000 -1.080000 -6.385086 -138.998627 19361.388672
3.040000 4.880000 -1.040000 63.271049 -161.119293 29962.652344
3.040000 4.880000 -1.000000 141.815674 -120.680656 34675.507812
3.040000 4.880000 -0.960000 171.234055 -29.868752 30213.244141
3.040000 4.880000 -0.920000 127.641403 53.273075 19130.347656
3.040000 4.880000 -0.880000 45.854572 75.186691 7755.680664
3.040000 4.880000 -0.840000 -11.510185 34.442192 1318.749023
3.040000 4.880000 -0.800000 -10.546223 -20.192867 518.974731
3.040000 4.920000 -1.200000 35.732025 -52.973061 4082.922852
3.040000 4.920000 -1.160000 2.315017 -64.554398 4172.629395
3.040000 4.920000 -1.120000 1.809380 -125.323410 15709.230469
3.040000 4.920000 -1.080000 74.400284 -180.044617 37951.468750
3.040000 4.920000 -1.040000 189.521210 -157.783661 60813.972656
3.040000 4.920000 -1.000000 263.004639 -44.729755 71172.187500
3.040000 4.920000 -0.960000 232.364822 92.753387 62596.601562
3.040000 4.920000 -0.920000 117.252747 162.887085 40280.410156
3.040000 4.920000 -0.880000 3.586441 129.836517 16870.384766
3.040000 4.920000 -0.840000 -34.065208 42.248722 2945.393066
3.040000 4.920000 -0.800000 4.442876 -17.432833 323.642792
3.040000 4.960000 -1.200000 49.461525 -12.970909 2614.686768
3.040000 4.960000 -1.160000 18.729240 -58.415146 3763.113770
3.040000 4.960000 -1.120000 61.368637 -131.400848 21032.292969
3.040000 4.960000 -1.080000 178.681396 -145.178329 53003.789062
3.040000 4.960000 -1.040000 288.587891 -47.508621 85540.039062
3.040000 4.960000 -1.000000 294.269348 117.986526 100515.273438
3.040000 4.960000 -0.960000 176.066223 240.992401 89076.648438
3.040000 4.960000 -0.920000 14.586979 240.946487 58267.992188
3.040000 4.960000 -0.880000 -80.289825 137.559387 25369.042969
3.040000 4.960000 -0.840000 -65.490112 27.059692 5021.181641
3.040000 4.960000 -0.800000 6.930366 -9.524731 138.750473
3.040000 5.000000 -1.200000 35.060123 17.981636 1552.551514
3.040000 5.000000 -1.160000 34.917641 -45.998657 3335.118164
3.040000 5.000000 -1.120000 117.773239 -90.353210 22034.238281
3.040000 5.000000 -1.080000 233.562927 -37.362228 55947.578125
3.040000 5.000000 -1.040000 278.984436 111.838295 90340.117188
3.040000 5.000000 -1.000000 192.884949 263.213776 106486.093750
3.040000 5.000000 -0.960000 19.956753 307.901306 95201.484375
3.040000 5.000000 -0.920000 -123.784500 219.578201 63537.187500
3.040000 5.000000 -0.880000 -152.527191 75.959488 29034.388672
3.040000 5.000000 -0.840000 -80.785851 -15.396072 6763.392578
3.040000 5.000000 -0.800000 2.879364 -11.958263 151.290802
3.040000 5.040000 -1.200000 11.815893 27.415710 891.236450
3.040000 5.040000 -1.160000 44.750648 -23.957369 2576.575928
3.040000 5.040000 -1.120000 132.102859 -18.458431 17791.878906
3.040000 5.040000 -1.080000 197.002441 78.910599 45036.843750
3.040000 5.040000 -1.040000 160.304001 216.715179 72662.843750
3.040000 5.040000 -1.000000 20.322735 292.579987 86016.062500
3.040000 5.040000 -0.960000 -135.989853 243.646606 77856.906250
3.040000 5.040000 -0.920000 -206.091721 104.730133 53442.195312
3.040000 5.040000 -0.880000 -159.887146 -23.402512 26111.578125
3.040000 5.040000 -0.840000 -58.530014 -63.890366 7507.741211
3.040000 5.040000 -0.800000 9.943188 -23.986534 674.220825
3.040000 5.080000 -1.200000 -3.379513 22.194935 504.036255
3.040000 5.080000 -1.160000 39.395824 1.716176 1554.976318
3.040000 5.080000 -1.120000 94.439842 40.741028 10578.714844
3.040000 5.080000 -1.080000 97.126404 131.011826 26597.636719
3.040000 5.080000 -1.040000 16.011505 206.478867 42889.890625
3.040000 5.080000 -1.000000 -108.651054 198.334030 51141.437500
3.040000 5.080000 -0.960000 -193.282623 99.401215 47238.773438
3.040000 5.080000 -0.920000 -182.437225 -25.872711 33952.738281
3.040000 5.080000 -0.880000 -95.269577 -96.914154 18468.644531
3.040000 5.080000 -0.840000 -3.478580 -84.444244 7142.931152
3.040000 5.080000 -0.800000 34.715057 -26.358053 1899.882202
3.040000 5.120000 -1.200000 -8.071665 15.656536 310.278900
3.040000 5.120000 -1.160000 19.091331 17.522131 671.504028
3.040000 5.120000 -1.120000 34.693436 53.633942 4080.234131
3.040000 5.120000 -1.080000 7.179214 100.273674 10106.350586
3.040000 5.120000 -1.040000 -60.163628 112.542679 16285.516602
3.040000 5.120000 -1.000000 -124.265137 65.316071 19708.013672
3.040000 5.120000 -0.960000 -136.420532 -19.647415 18996.583984
3.040000 5.120000 -0.920000 -84.833061 -88.665504 15058.220703
3.040000 5.120000 -0.880000 -4.966526 -100.526711 10130.285156
3.040000 5.120000 -0.840000 51.764042 -58.614052 6115.123047
3.040000 5.120000 -0.800000 60.077457 -2.130777 3613.841064
3.040000 5.160000 -1.200000 -9.613239 13.670456 279.295715
3.040000 5.160000 -1.160000 -3.435850 15.132204 240.788666
3.040000 5.160000 -1.120000 -4.156765 25.396053 662.238220
3.040000 5.160000 -1.080000 -19.653488 33.017189 1476.394287
3.040000 5.160000 -1.040000 -42.889557 22.572021 2349.010254
3.040000 5.160000 -1.000000 -53.971008 -9.140343 2996.415527
3.040000 5.160000 -0.960000 -36.577930 -45.758621 3431.796387
3.040000 5.160000 -0.920000 5.866920 -62.040241 3883.412109
3.040000 5.160000 -0.880000 50.227837 -44.218361 4478.098633
3.040000 5.160000 -0.840000 70.924423 -1.590635 5032.804199
3.040000 5.160000 -0.800000 59.042969 41.150604 5179.444336
3.040000 5.200000 -1.200000 -13.311711 13.039265 347.224091
3.040000 5.200000 -1.160000 -13.684756 0.801144 187.914383
3.040000 5.200000 -1.120000 -4.201151 -8.144775 83.987030
3.040000 5.200000 -1.080000 7.957726 -7.821671 124.503922
3.040000 5.200000 -1.040000 14.817116 -1.633530 222.215347
3.040000 5.200000 -1.000000 16.492516 2.477882 278.142975
3.040000 5.200000 -0.960000 20.491013 2.358646 425.444794
3.040000 5.200000 -0.920000 31.668167 5.469447 1032.787598
3.040000 5.200000 -0.880000 43.915520 21.033173 2370.967285
3.040000 5.200000 -0.840000 43.631592 48.222103 4229.086914
3.040000 5.200000 -0.800000 22.603470 73.341721 5889.924805
3.080000 4.800000 -1.200000 -59.063210 -41.047310 5173.344238
3.080000 4.800000 -1.160000 -29.389385 -61.990284 4706.531250
3.080000 4.800000 -1.120000 5.780624 -58.594364 3466.715088
3.080000 4.800000 -1.080000 27.796188 -35.736626 2049.734619
3.080000 4.800000 -1.040000 29.688904 -9.611988 973.821350
3.080000 4.800000 -1.000000 18.861504 6.772558 401.623871
3.080000 4.800000 -0.960000 6.847855 12.318718 198.643921
3.080000 4.800000 -0.920000 -1.720356 13.443985 183.700363
3.080000 4.800000 -0.880000 -9.690001 13.837276 285.366333
3.080000 4.800000 -0.840000 -19.205332 10.739382 484.179077
3.080000 4.800000 -0.800000 -26.177816 1.091249 686.468872
3.080000 4.840000 -1.200000 -22.978493 -70.615112 5514.505371
3.080000 4.840000 -1.160000 -2.538612 -71.543335 5124.893066
3.080000 4.840000 -1.120000 12.750050 -68.521973 4857.824707
3.080000 4.840000 -1.080000 28.119293 -65.402512 5068.183105
3.080000 4.840000 -1.040000 47.614433 -56.362255 5443.837891
3.080000 4.840000 -1.000000 64.418243 -33.523849 5273.558594
3.080000 4.840000 -0.960000 64.395218 -0.093941 4146.752930
3.080000 4.840000 -0.920000 41.120312 26.852222 2411.921875
3.080000 4.840000 -0.880000 6.448524 29.822159 930.944641
3.080000 4.840000 -0.840000 -16.680988 8.218317 345.796112
3.080000 4.840000 -0.800000 -14.142141 -18.966867 559.742249
3.080000 4.880000 -1.200000 22.911654 -66.418465 4936.356445
3.080000 4.880000 -1.160000 22.567245 -66.297180 4904.596680
3.080000 4.880000 -1.120000 31.623770 -83.147827 7913.624023
3.080000 4.880000 -1.080000 68.010147 -96.000580 13841.491211
3.080000 4.880000 -1.040000 119.203506 -74.484802 19757.460938
3.080000 4.880000 -1.000000 147.170685 -13.016464 21828.638672
3.080000 4.880000 -0.960000 123.216812 56.015175 18320.082031
3.080000 4.880000 -0.920000 58.618111 87.369904 11069.583008
3.080000 4.880000 -0.880000 -1.661232 63.922054 4088.788818
3.080000 4.880000 -0.840000 -18.350956 12.755320 499.455780
3.080000 4.880000 -0.800000 7.839950 -20.420895 478.477753
3.080000 4.920000 -1.200000 51.178047 -34.110588 3782.724854
3.080000 4.920000 -1.160000 40.751228 -52.379498 4404.274414
3.080000 4.920000 -1.120000 68.863670 -85.827927 12108.638672
3.080000 4.920000 -1.080000 137.680908 -84.912605 26166.183594
3.080000 4.920000 -1.040000 199.214600 -18.881393 40042.964844
3.080000 4.920000 -1.000000 195.571899 85.386520 45539.226562
3.080000 4.920000 -0.960000 115.949944 159.791534 38977.722656
3.080000 4.920000 -0.920000 12.150784 154.891251 24138.939453
3.080000 4.920000 -0.880000 -45.772179 85.097794 9336.726562
3.080000 4.920000 -0.840000 -31.412437 13.981499 1182.223511
3.080000 4.920000 -0.800000 19.038399 -5.454456 392.211731
3.080000 4.960000 -1.200000 50.268803 3.500025 2539.202881
3.080000 4.960000 -1.160000 51.977619 -33.595497 3830.330322
3.080000 4.960000 -1.120000 109.601959 -58.111618 15389.549805
3.080000 4.960000 -1.080000 189.119049 -14.774883 35984.312500
3.080000 4.960000 -1.040000 216.995667 95.932083 56290.085938
3.080000 4.960000 -1.000000 149.469208 205.906021 64738.335938
3.080000 4.960000 -0.960000 20.139965 236.003357 56103.203125
3.080000 4.960000 -0.920000 -84.979500 168.247818 35528.843750
3.080000 4.960000 -0.880000 -103.166779 62.052990 14493.957031
3.080000 4.960000 -0.840000 -47.692268 -1.787708 2277.748291
3.080000 4.960000 -0.800000 12.601825 6.799196 205.035049
3.080000 5.000000 -1.200000 29.393234 26.194796 1550.129517
3.080000 5.000000 -1.160000 54.891197 -10.881842 3131.458008
3.080000 5.000000 -1.120000 124.813629 -2.616261 15585.287109
3.080000 5.000000 -1.080000 175.865967 81.151810 37514.453125
3.080000 5.000000 -1.040000 141.663681 197.737396 59168.675781
3.080000 5.000000 -1.000000 21.107334 260.942871 68536.703125
3.080000 5.000000 -0.960000 -111.636932 218.332001 60131.667969
3.080000 5.000000 -0.920000 -169.898163 101.002243 39066.835938
3.080000 5.000000 -0.880000 -130.178589 -4.421005 16966.009766
3.080000 5.000000 -0.840000 -47.237988 -33.918922 3381.920898
3.080000 5.000000 -0.800000 3.193848 2.520213 16.552135
3.080000 5.040000 -1.200000 6.224768 29.573948 913.366150
3.080000 5.040000 -1.160000 45.692570 11.899040 2229.398193
3.080000 5.040000 -1.120000 97.623146 51.764374 12209.828125
3.080000 5.040000 -1.080000 98.076126 141.666595 29688.351562
3.080000 5.040000 -1.040000 16.048012 216.256470 47024.398438
3.080000 5.040000 -1.000000 -107.978653 207.899414 54881.558594
3.080000 5.040000 -0.960000 -191.356720 111.006546 48939.847656
3.080000 5.040000 -0.920000 -181.228607 -9.492537 32933.917969
3.080000 5.040000 -0.880000 -99.460960 -75.276352 15559.011719
3.080000 5.040000 -0.840000 -17.748871 -61.558846 4104.513672
3.080000 5.040000 -0.800000 9.809593 -9.740855 191.112381
3.080000 5.080000 -1.200000 -8.295736 22.192310 561.317871
3.080000 5.080000 -1.160000 24.519772 25.731604 1263.334595
3.080000 5.080000 -1.120000 42.550728 71.886841 6978.282227
3.080000 5.080000 -1.080000 6.781700 130.214432 17001.791016
3.080000 5.080000 -1.040000 -77.142990 145.214249 27038.218750
3.080000 5.080000 -1.000000 -155.402451 88.167709 31923.466797
3.080000 5.080000 -0.960000 -170.590836 -11.853203 29241.730469
3.080000 5.080000 -0.920000 -112.684387 -90.386856 20867.554688
3.080000 5.080000 -0.880000 -26.789850 -102.798164 11285.159180
3.080000 5.080000 -0.840000 28.828293 -59.151703 4329.994629
3.080000 5.080000 -0.800000 32.082642 -7.340689 1083.181641
3.080000 5.120000 -1.200000 -14.329100 13.672902 392.271362
3.080000 5.120000 -1.160000 0.476080 23.156593 536.454468
3.080000 5.120000 -1.120000 -4.140797 49.887001 2505.859131
3.080000 5.120000 -1.080000 -39.591892 66.792465 6028.751465
3.080000 5.120000 -1.040000 -86.485680 46.459152 9638.225586
3.080000 5.120000 -1.000000 -107.505150 -10.232994 11662.071289
3.080000 5.120000 -0.960000 -80.212997 -70.131775 11352.590820
3.080000 5.120000 -0.920000 -18.329838 -94.347214 9237.379883
3.080000 5.120000 -0.880000 39.343170 -70.561882 6526.864258
3.080000 5.120000 -0.840000 61.465347 -20.880480 4213.983398
3.080000 5.120000 -0.800000 47.014828 20.364819 2625.119873
3.080000 5.160000 -1.200000 -16.637558 7.242781 329.266235
3.080000 5.160000 -1.160000 -13.269068 7.164101 227.392502
3.080000 5.160000 -1.120000 -15.750357 10.362112 355.447083
3.080000 5.160000 -1.080000 -25.162176 7.610554 691.055664
3.080000 5.160000 -1.040000 -32.246521 -7.582001 1097.324829
3.080000 5.160000 -1.000000 -24.447605 -29.988636 1497.003662
3.080000 5.160000 -0.960000 1.774048 -44.200188 1956.803833
3.080000 5.160000 -0.920000 35.272507 -36.561409 2580.886230
3.080000 5.160000 -0.880000 57.275425 -7.005615 3329.552979
3.080000 5.160000 -0.840000 55.325340 30.077103 3965.525391
3.080000 5.160000 -0.800000 31.798157 56.476219 4200.686035
3.080000 5.200000 -1.200000 -17.487436 1.784307 308.994171
3.080000 5.200000 -1.160000 -11.165060 -9.136011 208.125275
3.080000 5.200000 -1.120000 2.382591 -12.980495 174.169998
3.080000 5.200000 -1.080000 15.082394 -7.003471 276.527191
3.080000 5.200000 -1.040000 20.707630 3.751888 442.882599
3.080000 5.200000 -1.000000 20.571529 12.287617 574.173340
3.080000 5.200000 -0.960000 20.835361 17.449106 738.583618
3.080000 5.200000 -0.920000 24.171009 24.910282 1204.759766
3.080000 5.200000 -0.880000 25.013124 39.813354 2210.759521
3.080000 5.200000 -0.840000 14.304274 58.721664 3652.846191
3.080000 5.200000 -0.800000 -10.523610 69.997192 5010.353516
3.120000 4.800000 -1.200000 -28.197861 -46.615269 2968.102783
3.120000 4.800000 -1.160000 0.893608 -53.431004 2855.670654
3.120000 4.800000 -1.120000 28.239172 -39.301945 2342.093750
3.120000 4.800000 -1.080000 39.434174 -11.770041 1693.587891
3.120000 4.800000 -1.040000 31.038166 13.904006 1156.689087
3.120000 4.800000 -1.000000 11.548409 26.351238 827.753479
3.120000 4.800000 -0.960000 -7.040030 24.763954 662.815430
3.120000 4.800000 -0.920000 -18.165859 15.859848 581.533203
3.120000 4.800000 -0.880000 -22.464069 6.105969 541.917236
3.120000 4.800000 -0.840000 -22.949776 -2.468975 532.788025
3.120000 4.800000 -0.800000 -20.609985 -10.205108 528.915710
3.120000 4.840000 -1.200000 4.882245 -58.728230 3472.841309
3.120000 4.840000 -1.160000 25.511181 -54.226074 3591.287354
3.120000 4.840000 -1.120000 41.496780 -41.689819 3460.023926
3.120000 4.840000 -1.080000 50.969620 -24.149208 3181.086426
3.120000 4.840000 -1.040000 52.494194 -3.673019 2769.131348
3.120000 4.840000 -1.000000 43.805809 16.298706 2184.596680
3.120000 4.840000 -0.960000 24.837444 29.058788 1461.311768
3.120000 4.840000 -0.920000 1.772873 27.764482 774.009583
3.120000 4.840000 -0.880000 -14.094976 12.178740 346.990051
3.120000 4.840000 -0.840000 -14.214353 -8.262655 270.319275
3.120000 4.840000 -0.800000 -0.610907 -20.222786 409.334259
3.120000 4.880000 -1.200000 37.513054 -45.074432 3438.933594
3.120000 4.880000 -1.160000 46.551903 -41.546036 3893.152832
3.120000 4.880000 -1.120000 61.474136 -38.282017 5244.582031
3.120000 4.880000 -1.080000 82.194191 -23.500677 7308.166992
3.120000 4.880000 -1.040000 94.277847 9.428841 8977.215820
3.120000 4.880000 -1.000000 80.952621 49.230427 8976.961914
3.120000 4.880000 -0.960000 42.022732 71.851974 6928.616211
3.120000 4.880000 -0.920000 -0.759327 61.463421 3778.328857
3.120000 4.880000 -0.880000 -20.272411 26.954958 1137.540405
3.120000 4.880000 -0.840000 -7.950142 -4.018531 79.353348
3.120000 4.880000 -0.800000 18.631878 -9.264971 432.986572
3.120000 4.920000 -1.200000 52.272049 -14.774780 2950.661377
3.120000 4.920000 -1.160000 58.260124 -20.219345 3803.064209
3.120000 4.920000 -1.120000 83.442062 -19.659082 7349.057129
3.120000 4.920000 -1.080000 113.909767 9.240641 13060.824219
3.120000 4.920000 -1.040000 118.025620 65.028107 18158.701172
3.120000 4.920000 -1.000000 77.565453 115.770638 19419.240234
3.120000 4.920000 -0.960000 10.540333 124.871651 15704.027344
3.120000 4.920000 -0.920000 -40.318420 85.833885 8993.031250
3.120000 4.920000 -0.880000 -44.808060 30.510868 2938.675293
3.120000 4.920000 -0.840000 -12.078772 0.814520 146.560165
3.120000 4.920000 -0.800000 19.875008 11.141350 519.145630
3.120000 4.960000 -1.200000 44.985329 14.873934 2244.913818
3.120000 4.960000 -1.160000 58.106079 4.253500 3394.408691
3.120000 4.960000 -1.120000 92.155418 16.120707 8752.498047
3.120000 4.960000 -1.080000 114.258011 66.908768 17531.675781
3.120000 4.960000 -1.040000 88.439423 133.304214 25591.544922
3.120000 4.960000 -1.000000 14.795431 166.996933 28106.880859
3.120000 4.960000 -0.960000 -63.420761 138.728485 23267.785156
3.120000 4.960000 -0.920000 -95.769440 68.047295 13802.218750
3.120000 4.960000 -0.880000 -69.764496 7.274796 4920.007812
3.120000 4.960000 -0.840000 -20.362509 -5.734718 447.518768
3.120000 4.960000 -0.800000 5.331306 20.579264 451.928925
3.120000 5.000000 -1.200000 24.246294 31.197506 1561.167114
3.120000 5.000000 -1.160000 45.362129 25.726332 2719.566895
3.120000 5.000000 -1.120000 73.943047 54.692780 8458.874023
3.120000 5.000000 -1.080000 69.326653 114.598160 17938.921875
3.120000 5.000000 -1.040000 10.891420 163.228149 26762.052734
3.120000 5.000000 -1.000000 -74.536446 155.750549 29813.916016
3.120000 5.000000 -0.960000 -131.246307 88.840729 25118.269531
3.120000 5.000000 -0.920000 -123.879272 7.397100 15400.791016
3.120000 5.000000 -0.880000 -68.969940 -34.913589 5975.811523
3.120000 5.000000 -0.840000 -17.363258 -22.772972 820.091003
3.120000 5.000000 -0.800000 -5.857758 12.103451 180.806839
3.120000 5.040000 -1.200000 2.352852 32.110863 1036.643433
3.120000 5.040000 -1.160000 22.691681 36.908424 1877.144165
3.120000 5.040000 -1.120000 32.568794 72.872177 6371.080078
3.120000 5.040000 -1.080000 1.474670 117.671509 13848.758789
3.120000 5.040000 -1.040000 -66.693756 128.196838 20882.486328
3.120000 5.040000 -1.000000 -129.608124 81.966461 23516.765625
3.120000 5.040000 -0.960000 -142.105621 2.598627 20200.759766
3.120000 5.040000 -0.920000 -97.506332 -58.393658 12917.303711
3.120000 5.040000 -0.880000 -33.316208 -66.846886 5578.476074
3.120000 5.040000 -0.840000 4.220680 -33.804314 1160.545654
3.120000 5.040000 -0.800000 0.830530 0.278032 0.767082
3.120000 5.080000 -1.200000 -12.808889 23.004200 693.260864
3.120000 5.080000 -1.160000 -1.647718 32.605652 1065.843506
3.120000 5.080000 -1.120000 -8.992409 58.418915 3493.633057
3.120000 5.080000 -1.080000 -46.125278 73.946938 7595.690430
3.120000 5.080000 -1.040000 -93.511795 52.564106 11507.441406
3.120000 5.080000 -1.000000 -114.530556 -3.652634 13130.589844
3.120000 5.080000 -0.960000 -88.848404 -61.260574 11646.896484
3.120000 5.080000 -0.920000 -32.302185 -83.532951 8021.185059
3.120000 5.080000 -0.880000 16.935093 -62.203949 4156.128906
3.120000 5.080000 -0.840000 32.071190 -21.948841 1510.312866
3.120000 5.080000 -0.800000 17.980362 5.174843 350.072418
3.120000 5.120000 -1.200000 -19.382607 10.515318 486.257324
3.120000 5.120000 -1.160000 -16.467493 15.224092 502.951294
3.120000 5.120000 -1.120000 -26.068901 22.932001 1205.464233
3.120000 5.120000 -1.080000 -46.482170 17.455795 2465.296875
3.120000 5.120000 -1.040000 -60.320045 -8.678879 3713.830811
3.120000 5.120000 -1.000000 -49.853970 -43.392265 4368.306641
3.120000 5.120000 -0.960000 -14.907303 -63.322140 4231.920898
3.120000 5.120000 -0.920000 25.022545 -53.973946 3539.314453
3.120000 5.120000 -0.880000 46.870747 -22.132793 2686.727539
3.120000 5.120000 -0.840000 42.602745 11.147778 1939.266846
3.120000 5.120000 -0.800000 22.801245 29.018173 1361.951172
3.120000 5.160000 -1.200000 -18.817055 -0.687542 354.554260
3.120000 5.160000 -1.160000 -15.603295 -4.348061 262.368469
3.120000 5.160000 -1.120000 -13.640839 -6.851151 233.010742
3.120000 5.160000 -1.080000 -11.764092 -11.621490 273.452911
3.120000 5.160000 -1.040000 -5.438896 -18.516884 372.456604
3.120000 5.160000 -1.000000 7.949055 -22.189482 555.560547
3.120000 5.160000 -0.960000 24.827995 -16.172665 877.984375
3.120000 5.160000 -0.920000 36.795799 1.068035 1355.071533
3.120000 5.160000 -0.880000 36.535004 23.882240 1905.167969
3.120000 5.160000 -0.840000 23.007624 42.934429 2372.716064
3.120000 5.160000 -0.800000 1.701922 51.100163 2614.123047
3.120000 5.200000 -1.200000 -13.795994 -7.760685 250.557678
3.120000 5.200000 -1.160000 -3.891181 -14.144476 215.207489
3.120000 5.200000 -1.120000 9.848136 -12.507549 253.424561
3.120000 5.200000 -1.080000 20.440170 -2.081148 422.131744
3.120000 5.200000 -1.040000 22.982330 12.213039 677.345825
3.120000 5.200000 -1.000000 18.359585 24.079609 916.901917
3.120000 5.200000 -0.960000 11.381264 31.248653 1106.011475
3.120000 5.200000 -0.920000 5.208771 36.430885 1354.340698
3.120000 5.200000 -0.880000 -2.044755 42.768890 1833.359009
3.120000 5.200000 -0.840000 -14.681984 48.657707 2583.133057
3.120000 5.200000 -0.800000 -33.229946 47.738083 3383.153809
3.160000 4.800000 -1.200000 -9.353231 -32.529480 1145.650024
3.160000 4.800000 -1.160000 11.516344 -30.979515 1092.356567
3.160000 4.800000 -1.120000 27.787615 -14.154451 972.500061
3.160000 4.800000 -1.080000 28.559845 10.503112 925.980103
3.160000 4.800000 -1.040000 12.477007 29.222095 1009.606567
3.160000 4.800000 -1.000000 -10.823229 32.076233 1146.027100
3.160000 4.800000 -0.960000 -28.178051 19.976868 1193.077881
3.160000 4.800000 -0.920000 -32.580349 2.633327 1068.413574
3.160000 4.800000 -0.880000 -26.724339 -10.032495 814.841187
3.160000 4.800000 -0.840000 -18.290752 -14.884215 556.091492
3.160000 4.800000 -0.800000 -12.494143 -15.359131 392.006500
3.160000 4.840000 -1.200000 13.267467 -37.892624 1611.876709
3.160000 4.840000 -1.160000 30.447201 -28.575428 1743.587158
3.160000 4.840000 -1.120000 39.231358 -9.577917 1630.835815
3.160000 4.840000 -1.080000 34.751713 11.153248 1332.076416
3.160000 4.840000 -1.040000 19.144150 24.502302 966.861267
3.160000 4.840000 -1.000000 -0.004947 25.472969 648.872131
3.160000 4.840000 -0.960000 -14.222012 15.462742 441.362000
3.160000 4.840000 -0.920000 -18.541229 0.636682 344.182556
3.160000 4.840000 -0.880000 -13.271048 -11.799011 315.337341
3.160000 4.840000 -0.840000 -2.890996 -17.143967 302.273438
3.160000 4.840000 -0.800000 6.800121 -14.927343 269.067230
3.160000 4.880000 -1.200000 35.435669 -26.479782 1956.865479
3.160000 4.880000 -1.160000 45.823406 -13.766041 2289.288574
3.160000 4.880000 -1.120000 49.392677 3.113359 2449.329590
3.160000 4.880000 -1.080000 44.477764 20.589375 2402.193848
3.160000 4.880000 -1.040000 30.892412 33.928047 2105.453613
3.160000 4.880000 -1.000000 11.738240 37.774010 1564.662109
3.160000 4.880000 -0.960000 -5.638493 29.440653 898.544617
3.160000 4.880000 -0.920000 -12.777679 12.772537 326.406799
3.160000 4.880000 -0.880000 -6.447779 -2.308681 46.903854
3.160000 4.880000 -0.840000 7.478673 -6.332599 96.032356
3.160000 4.880000 -0.800000 17.649010 1.972397 315.377899
3.160000 4.920000 -1.200000 45.698105 -2.816249 2096.248047
3.160000 4.920000 -1.160000 49.964802 9.170745 2580.583984
3.160000 4.920000 -1.120000 51.444740 23.863436 3216.024902
3.160000 4.920000 -1.080000 46.182426 41.955681 3893.095703
3.160000 4.920000 -1.040000 29.434664 57.842136 4212.112305
3.160000 4.920000 -1.000000 3.755119 61.320641 3774.321777
3.160000 4.920000 -0.960000 -18.673664 47.263855 2582.577881
3.160000 4.920000 -0.920000 -24.702053 23.385244 1157.061035
3.160000 4.920000 -0.880000 -12.692203 6.131365 198.685638
3.160000 4.920000 -0.840000 4.376225 6.631035 63.121971
3.160000 4.920000 -0.800000 10.049578 20.227043 510.127289
3.160000 4.960000 -1.200000 39.016609 22.121140 2011.640625
3.160000 4.960000 -1.160000 39.209835 31.517982 2530.794434
3.160000 4.960000 -1.120000 38.632702 45.612667 3573.000977
3.160000 4.960000 -1.080000 28.655827 64.594177 4993.563965
3.160000 4.960000 -1.040000 3.817618 77.630135 6041.012207
3.160000 4.960000 -1.000000 -27.752399 71.497978 5882.156738
3.160000 4.960000 -0.960000 -47.784931 45.431313 4347.403809
3.160000 4.960000 -0.920000 -44.149643 15.501837 2189.497803
3.160000 4.960000 -0.880000 -23.589510 1.633813 559.134338
3.160000 4.960000 -0.840000 -6.510661 9.110122 125.383026
3.160000 4.960000 -0.800000 -7.739821 23.716854 622.394043
3.160000 5.000000 -1.200000 19.018623 37.205383 1745.948608
3.160000 5.000000 -1.160000 16.510761 43.374542 2153.956055
3.160000 5.000000 -1.120000 11.954641 55.804123 3257.013672
3.160000 5.000000 -1.080000 -4.888592 69.978256 4920.854980
3.160000 5.000000 -1.040000 -34.358826 71.380829 6275.751465
3.160000 5.000000 -1.000000 -61.399986 50.619370 6332.278809
3.160000 5.000000 -0.960000 -67.621262 16.241394 4836.417969
3.160000 5.000000 -0.920000 -49.609116 -10.205400 2565.214600
3.160000 5.000000 -0.880000 -23.762026 -13.605360 749.739685
3.160000 5.000000 -0.840000 -11.231417 0.482866 126.377884
3.160000 5.000000 -0.800000 -17.828648 12.024864 462.458069
3.160000 5.040000 -1.200000 -4.548377 36.855141 1378.989136
3.160000 5.040000 -1.160000 -8.550362 38.770752 1576.279907
3.160000 5.040000 -1.120000 -16.414938 45.625565 2351.142334
3.160000 5.040000 -1.080000 -34.902519 48.929695 3612.300781
3.160000 5.040000 -1.040000 -57.716003 36.628468 4672.781738
3.160000 5.040000 -1.000000 -68.512787 8.143787 4760.323242
3.160000 5.040000 -0.960000 -56.796310 -21.265102 3678.025391
3.160000 5.040000 -0.920000 -29.931990 -33.260506 2002.185303
3.160000 5.040000 -0.880000 -7.491115 -23.787659 621.969543
3.160000 5.040000 -0.840000 -2.975978 -6.671201 53.361366
3.160000 5.040000 -0.800000 -11.744886 0.633181 138.343277
3.160000 5.080000 -1.200000 -21.198893 23.351192 994.671265
3.160000 5.080000 -1.160000 -24.146240 20.209703 991.473022
3.160000 5.080000 -1.120000 -30.157982 19.339539 1283.521606
3.160000 5.080000 -1.080000 -40.793583 13.038273 1834.113037
3.160000 5.080000 -1.040000 -47.781738 -3.776630 2297.357422
3.160000 5.080000 -1.000000 -40.988663 -25.044172 2307.281006
3.160000 5.080000 -0.960000 -20.236340 -37.216995 1794.614136
3.160000 5.080000 -0.920000 2.432388 -32.083611 1035.274536
3.160000 5.080000 -0.880000 13.299656 -15.107696 405.123291
3.160000 5.080000 -0.840000 9.506615 -0.141671 90.395798
3.160000 5.080000 -0.800000 0.446312 3.967451 15.939862
3.160000 5.120000 -1.200000 -25.089018 5.027802 654.737610
3.160000 5.120000 -1.160000 -23.596962 -1.640979 559.509399
3.160000 5.120000 -1.120000 -22.049818 -6.627043 530.112183
3.160000 5.120000 -1.080000 -20.005638 -13.130638 572.639221
3.160000 5.120000 -1.040000 -13.461294 -20.869549 616.744507
3.160000 5.120000 -1.000000 -0.786016 -24.586777 605.127380
3.160000 5.120000 -0.960000 13.404667 -19.167095 547.062622
3.160000 5.120000 -0.920000 21.380091 -5.622960 488.725952
3.160000 5.120000 -0.880000 19.261003 8.967766 451.407104
3.160000 5.120000 -0.840000 10.306107 17.657299 417.996033
3.160000 5.120000 -0.800000 1.087021 19.311502 374.115723
3.160000 5.160000 -1.200000 -17.701675 -8.633841 387.892517
3.160000 5.160000 -1.160000 -10.439964 -14.616452 322.633514
3.160000 5.160000 -1.120000 -0.961412 -16.327795 267.521210
3.160000 5.160000 -1.080000 8.640851 -13.395776 254.111115
3.160000 5.160000 -1.040000 16.269066 -6.046824 301.246582
3.160000 5.160000 -1.000000 19.780758 4.455234 411.127502
3.160000 5.160000 -0.960000 17.942955 15.504252 562.331482
3.160000 5.160000 -0.920000 11.493396 24.198956 717.687622
3.160000 5.160000 -0.880000 2.696252 29.049213 851.126587
3.160000 5.160000 -0.840000 -6.489220 30.431866 968.208435
3.160000 5.160000 -0.800000 -15.551908 29.102564 1088.821045
3.160000 5.200000 -1.200000 -6.339046 -12.473190 195.763977
3.160000 5.200000 -1.160000 3.975897 -13.835806 207.237274
3.160000 5.200000 -1.120000 15.379028 -7.739727 296.417877
3.160000 5.200000 -1.080000 21.937809 5.742238 514.240723
3.160000 5.200000 -1.040000 19.189064 21.647226 836.822632
3.160000 5.200000 -1.000000 7.909037 32.994419 1151.184570
3.160000 5.200000 -0.960000 -6.202501 35.947304 1330.679688
3.160000 5.200000 -0.920000 -17.212662 32.443237 1348.839355
3.160000 5.200000 -0.880000 -23.743019 27.549459 1322.703613
3.160000 5.200000 -0.840000 -29.031837 23.974520 1417.625244
3.160000 5.200000 -0.800000 -36.143562 19.447636 1684.567627
3.200000 4.800000 -1.200000 -9.426335 -16.317389 355.112976
3.200000 4.800000 -1.160000 1.954046 -15.035309 229.878815
3.200000 4.800000 -1.120000 10.252344 -3.214926 115.446304
3.200000 4.800000 -1.080000 6.396598 13.338396 218.829285
3.200000 4.800000 -1.040000 -10.102888 22.590490 612.398621
3.200000 4.800000 -1.000000 -29.102072 16.591127 1122.196045
3.200000 4.800000 -0.960000 -37.916336 -1.048081 1438.747070
3.200000 4.800000 -0.920000 -32.159969 -18.193050 1365.250732
3.200000 4.800000 -0.880000 -18.797709 -24.996601 978.183960
3.200000 4.800000 -0.840000 -8.607525 -21.868456 552.318848
3.200000 4.800000 -0.800000 -5.947989 -17.038498 325.688995
3.200000 4.840000 -1.200000 6.053805 -24.870123 655.171570
3.200000 4.840000 -1.160000 17.397179 -14.929273 525.545044
3.200000 4.840000 -1.120000 17.642820 1.778284 314.431396
3.200000 4.840000 -1.080000 4.762803 13.770494 212.310806
3.200000 4.840000 -1.040000 -12.970490 12.243573 318.138672
3.200000 4.840000 -1.000000 -23.531343 -1.518364 556.029541
3.200000 4.840000 -0.960000 -20.887894 -17.534657 743.768311
3.200000 4.840000 -0.920000 -9.044852 -25.768757 745.838135
3.200000 4.840000 -0.880000 2.708295 -23.786703 573.142090
3.200000 4.840000 -0.840000 8.179400 -16.848518 350.775146
3.200000 4.840000 -0.800000 8.252661 -11.444643 199.086273
3.200000 4.880000 -1.200000 26.618784 -19.035006 1070.891113
3.200000 4.880000 -1.160000 30.193600 -1.530058 913.994507
3.200000 4.880000 -1.120000 19.902332 12.770356 559.184814
3.200000 4.880000 -1.080000 3.544541 14.576348 225.033691
3.200000 4.880000 -1.040000 -7.287760 4.545743 73.775230
3.200000 4.880000 -1.000000 -6.612394 -8.383373 114.004700
3.200000 4.880000 -0.960000 2.439694 -15.113045 234.356216
3.200000 4.880000 -0.920000 12.015626 -13.041690 314.460938
3.200000 4.880000 -0.880000 16.491323 -5.982231 307.750824
3.200000 4.880000 -0.840000 15.556701 0.811129 242.668869
3.200000 4.880000 -0.800000 12.048175 4.880865 168.981369
3.200000 4.920000 -1.200000 38.913067 2.249766 1519.288208
3.200000 4.920000 -1.160000 29.814676 19.821564 1281.809326
3.200000 4.920000 -1.120000 12.783633 24.459709 761.698608
3.200000 4.920000 -1.080000 0.678640 16.287577 265.745697
3.200000 4.920000 -1.040000 0.082639 4.892880 23.947107
3.200000 4.920000 -1.000000 7.400527 -0.219148 54.815826
3.200000 4.920000 -0.960000 14.319517 3.003017 214.066681
3.200000 4.920000 -0.920000 15.694201 9.996557 346.239105
3.200000 4.920000 -0.880000 12.095131 15.629051 390.559448
3.200000 4.920000 -0.840000 6.517001 18.166843 372.505524
3.200000 4.920000 -0.800000 0.655611 18.181778 331.006897
3.200000 4.960000 -1.200000 32.504173 28.368925 1861.317139
3.200000 4.960000 -1.160000 13.187366 36.468643 1503.868530
3.200000 4.960000 -1.120000 -2.560076 28.934557 843.762573
3.200000 4.960000 -1.080000 -5.421593 15.995382 285.245911
3.200000 4.960000 -1.040000 1.575394 9.547262 93.632080
3.200000 4.960000 -1.000000 8.397390 12.930381 237.710907
3.200000 4.960000 -0.960000 8.226140 20.537949 489.476715
3.200000 4.960000 -0.920000 1.981569 25.384439 648.296387
3.200000 4.960000 -0.880000 -5.595125 25.295967 671.191345
3.200000 4.960000 -0.840000 -11.732027 22.093281 625.753540
3.200000 4.960000 -0.800000 -16.515636 17.102379 565.257568
3.200000 5.000000 -1.200000 8.896931 43.424099 1964.807739
3.200000 5.000000 -1.160000 -11.530371 37.082535 1508.063843
3.200000 5.000000 -1.120000 -18.510857 21.086449 787.290161
3.200000 5.000000 -1.080000 -11.929055 9.795008 238.244537
3.200000 5.000000 -1.040000 -2.358076 10.281416 111.268036
3.200000 5.000000 -1.000000 0.149298 18.167171 330.068390
3.200000 5.000000 -0.960000 -5.804569 24.384876 628.315186
3.200000 5.000000 -0.920000 -14.695086 24.095772 796.551758
3.200000 5.000000 -0.880000 -21.285240 18.777256 805.646851
3.200000 5.000000 -0.840000 -24.489880 11.667955 735.895386
3.200000 5.000000 -0.800000 -25.010971 3.848367 640.358582
3.200000 5.040000 -1.200000 -18.280052 38.000309 1778.183716
3.200000 5.040000 -1.160000 -29.851370 20.463432 1309.856445
3.200000 5.040000 -1.120000 -25.193909 3.518169 647.110535
3.200000 5.040000 -1.080000 -12.442836 -1.724078 157.796600
3.200000 5.040000 -1.040000 -3.783728 4.463286 34.237518
3.200000 5.040000 -1.000000 -4.960862 13.345893 202.723007
3.200000 5.040000 -0.960000 -12.748117 16.881119 447.486664
3.200000 5.040000 -0.920000 -20.468884 13.455166 600.016663
3.200000 5.040000 -0.880000 -24.206827 6.227222 624.748779
3.200000 5.040000 -0.840000 -23.711887 -1.580209 564.750671
3.200000 5.040000 -0.800000 -19.593269 -8.384330 454.193207
3.200000 5.080000 -1.200000 -33.026356 16.554888 1364.804565
3.200000 5.080000 -1.160000 -31.394749 -2.997949 994.617920
3.200000 5.080000 -1.120000 -17.806252 -13.851541 508.927765
3.200000 5.080000 -1.080000 -3.253007 -11.486213 142.515152
3.200000 5.080000 -1.040000 3.063831 -1.075369 10.543477
3.200000 5.080000 -1.000000 -0.332336 8.443155 71.397324
3.200000 5.080000 -0.960000 -8.514311 11.386413 202.143890
3.200000 5.080000 -0.920000 -15.437448 7.701540 297.628510
3.200000 5.080000 -0.880000 -17.728411 0.728414 314.827118
3.200000 5.080000 -0.840000 -15.020565 -5.809146 259.363556
3.200000 5.080000 -0.800000 -8.811110 -9.032253 159.217255
3.200000 5.120000 -1.200000 -28.828636 -6.166539 869.116455
3.200000 5.120000 -1.160000 -17.490879 -18.941231 664.701050
3.200000 5.120000 -1.120000 -1.107200 -20.525230 422.510986
3.200000 5.120000 -1.080000 11.200245 -11.272277 252.509705
3.200000 5.120000 -1.040000 13.865969 2.529900 198.665482
3.200000 5.120000 -1.000000 7.373932 13.283907 230.837067
3.200000 5.120000 -0.960000 -3.157098 16.415958 279.450958
3.200000 5.120000 -0.920000 -11.544348 12.194498 281.977753
3.200000 5.120000 -0.880000 -13.918085 4.772094 216.485962
3.200000 5.120000 -0.840000 -10.552244 -0.543521 111.645279
3.200000 5.120000 -0.800000 -5.383032 -0.520880 29.248348
3.200000 5.160000 -1.200000 -12.681622 -16.719917 440.379150
3.200000 5.160000 -1.160000 0.421582 -19.758774 390.586884
3.200000 5.160000 -1.120000 13.579577 -13.627189 370.105194
3.200000 5.160000 -1.080000 20.588276 -0.009643 423.877197
3.200000 5.160000 -1.040000 17.686241 15.388332 549.603882
3.200000 5.160000 -1.000000 6.060234 25.493488 686.644409
3.200000 5.160000 -0.960000 -8.263134 25.970173 742.729248
3.200000 5.160000 -0.920000 -17.952045 18.309568 657.516235
3.200000 5.160000 -0.880000 -19.481977 8.897853 458.719238
3.200000 5.160000 -0.840000 -15.628172 4.123942 261.246674
3.200000 5.160000 -0.800000 -12.830680 5.245718 192.143906
3.200000 5.200000 -1.200000 1.808679 -12.642481 163.103638
3.200000 5.200000 -1.160000 10.260324 -9.480567 195.155396
3.200000 5.200000 -1.120000 17.247387 -0.259333 297.539612
3.200000 5.200000 -1.080000 17.804102 13.821993 508.033539
3.200000 5.200000 -1.040000 8.740664 27.095051 810.541016
3.200000 5.200000 -1.000000 -7.434040 32.343590 1101.372681
3.200000 5.200000 -0.960000 -22.904198 26.555555 1229.799805
3.200000 5.200000 -0.920000 -30.204201 14.091822 1110.873169
3.200000 5.200000 -0.880000 -28.389957 3.348983 817.205383
3.200000 5.200000 -0.840000 -23.502274 -0.554171 552.664001
3.200000 5.200000 -0.800000 -22.384537 -0.023454 501.068024
