#kx 	ky 	kz 	real 	imag 	intensity
2.800000 2.800000 0.983333 -38.879513 -25.110592 2142.158203
2.800000 2.800000 0.991667 4.048285 6.557684 59.391827
2.800000 2.800000 1.000000 -39.037346 -9.985927 1623.633179
2.800000 2.800000 1.008333 -20.726261 -35.676781 1702.410522
2.800000 2.800000 1.016667 15.173158 -45.622086 2311.599365
2.800000 2.900000 0.983333 -13.978603 -40.543461 1839.173584
2.800000 2.900000 0.991667 5.989395 9.818501 132.275803
2.800000 2.900000 1.000000 -33.399197 -4.853893 1139.066650
2.800000 2.900000 1.008333 -18.035816 -40.637260 1976.677612
2.800000 2.900000 1.016667 19.274591 -39.622646 1941.463989
2.800000 3.000000 0.983333 17.948183 -38.620392 1813.671875
2.800000 3.000000 0.991667 36.511734 -33.448444 2451.905273
2.800000 3.000000 1.000000 24.760145 33.960411 1766.374390
2.800000 3.000000 1.008333 -11.239888 -49.927540 2619.094238
2.800000 3.000000 1.016667 102.340950 18.893808 10830.645508
2.800000 3.100000 0.983333 26.479019 -8.012714 765.342041
2.800000 3.100000 0.991667 123.910439 69.086182 20126.697266
2.800000 3.100000 1.000000 -128.473083 131.300903 33745.261719
2.800000 3.100000 1.008333 -0.464336 -80.533890 6485.923340
2.800000 3.100000 1.016667 -55.775272 110.189888 15252.692383
2.800000 3.200000 0.983333 15.014164 10.111702 327.671631
2.800000 3.200000 0.991667 -25.523716 156.320892 25087.681641
2.800000 3.200000 1.000000 -180.952682 -104.495163 43663.113281
2.800000 3.200000 1.008333 86.157349 -57.045635 10677.292969
2.800000 3.200000 1.016667 -51.481743 -65.767296 6975.707031
2.900000 2.800000 0.983333 -44.894756 16.896133 2301.018555
2.900000 2.800000 0.991667 -60.043724 -75.309341 9276.746094
2.900000 2.800000 1.000000 26.631191 9.879524 806.825317
2.900000 2.800000 1.008333 -78.834549 -75.749619 11952.890625
2.900000 2.800000 1.016667 121.587456 -39.529114 16346.060547
2.900000 2.900000 0.983333 240.152267 -885.779846 842279.062500
2.900000 2.900000 0.991667 -55.242523 988.380554 979947.875000
2.900000 2.900000 1.000000 -1454.642822 -615.247375 2494515.000000
2.900000 2.900000 1.008333 73.279358 -1122.893799 1266260.375000
2.900000 2.900000 1.016667 353.089844 -764.845093 709660.437500
2.900000 3.000000 0.983333 1402.293091 140.701401 1986222.750000
2.900000 3.000000 0.991667 -1533.187988 159.830505 2376211.250000
2.900000 3.000000 1.000000 550.179199 -2292.733887 5559325.500000
2.900000 3.000000 1.008333 1601.285645 -255.711548 2629504.250000
2.900000 3.000000 1.016667 1380.969238 308.781616 2002422.125000
2.900000 3.100000 0.983333 132.963211 896.049133 820583.250000
2.900000 3.100000 0.991667 -300.238403 -808.133911 743223.562500
2.900000 3.100000 1.000000 1348.737549 38.499535 1820575.250000
2.900000 3.100000 1.008333 390.239197 907.935913 976634.250000
2.900000 3.100000 1.016667 -82.136841 934.635559 880290.062500
2.900000 3.200000 0.983333 17.346733 145.306625 21414.923828
2.900000 3.200000 0.991667 -235.825897 -17.430664 55917.683594
2.900000 3.200000 1.000000 78.844688 -186.284225 40918.296875
2.900000 3.200000 1.008333 35.256119 89.301422 9217.738281
2.900000 3.200000 1.016667 -33.422291 -70.391472 6072.008789
3.000000 2.800000 0.983333 -101.201958 -109.402969 22210.845703
3.000000 2.800000 0.991667 111.243317 -101.399597 22656.953125
3.000000 2.800000 1.000000 -26.782913 31.863068 1732.579590
3.000000 2.800000 1.008333 47.240559 -152.325073 25434.597656
3.000000 2.800000 1.016667 137.161301 60.440475 22466.273438
3.000000 2.900000 0.983333 1444.515869 84.034897 2093688.000000
3.000000 2.900000 0.991667 -1505.717529 179.548157 2299422.750000
3.000000 2.900000 1.000000 569.974304 -2375.606689 5968377.500000
3.000000 2.900000 1.008333 1727.081177 -204.810913 3024757.000000
3.000000 2.900000 1.016667 1313.174927 342.473724 1841716.625000
3.000000 3.000000 0.983333 132.240601 2185.791992 4795174.000000
3.000000 3.000000 0.991667 -611.059570 -2327.719238 5791671.000000
3.000000 3.000000 1.000000 3673.727051 311.788391 13593482.000000
3.000000 3.000000 1.008333 751.355713 2366.550293 6165096.000000
3.000000 3.000000 1.016667 -52.131348 2168.047363 4703147.000000
3.000000 3.100000 0.983333 -1347.123413 373.940704 1954573.125000
3.000000 3.100000 0.991667 1289.298340 -642.355896 2074911.375000
3.000000 3.100000 1.000000 180.010315 2205.408936 4896232.000000
3.000000 3.100000 1.008333 -1309.463623 716.259705 2227723.000000
3.000000 3.100000 1.016667 -1437.255737 201.448181 2106285.250000
3.000000 3.200000 0.983333 -178.478516 57.366196 35145.460938
3.000000 3.200000 0.991667 3.949287 -204.975739 42030.652344
3.000000 3.200000 1.000000 137.148117 10.616302 18922.310547
3.000000 3.200000 1.008333 -24.991020 29.075354 1469.927246
3.000000 3.200000 1.016667 49.491341 -104.618523 13394.427734
3.100000 2.800000 0.983333 110.619781 -121.589188 27020.667969
3.100000 2.800000 0.991667 61.586227 84.177490 10878.713867
3.100000 2.800000 1.000000 -30.952595 6.747045 1003.585693
3.100000 2.800000 1.008333 65.938774 -49.242619 6772.757324
3.100000 2.800000 1.016667 105.737320 125.516983 26934.894531
3.100000 2.900000 0.983333 127.967125 979.914795 976608.562500
3.100000 2.900000 0.991667 -291.567383 -940.571350 969686.000000
3.100000 2.900000 1.000000 1554.713867 122.970230 2432257.000000
3.100000 2.900000 1.008333 330.905853 1048.132812 1208081.000000
3.100000 2.900000 1.016667 -91.361588 927.059570 867786.375000
3.100000 3.000000 0.983333 -1426.631958 276.230560 2111582.000000
3.100000 3.000000 0.991667 1402.427124 -646.896729 2385277.250000
3.100000 3.000000 1.000000 152.890701 2338.092285 5490051.000000
3.100000 3.000000 1.008333 -1410.885620 669.666870 2439052.000000
3.100000 3.000000 1.016667 -1329.990845 184.372406 1802868.750000
3.100000 3.100000 0.983333 -318.591064 -877.969727 872331.062500
3.100000 3.100000 0.991667 556.772949 746.741211 867618.562500
3.100000 3.100000 1.000000 -1355.042236 286.505890 1918225.125000
3.100000 3.100000 1.008333 -503.381012 -751.524292 818181.187500
3.100000 3.100000 1.016667 -262.895599 -834.873718 766128.250000
3.100000 3.200000 0.983333 -6.183573 -88.081879 7796.654297
3.100000 3.200000 0.991667 110.880295 2.142925 12299.031250
3.100000 3.200000 1.000000 60.992798 90.775795 11960.366211
3.100000 3.200000 1.008333 -36.473160 50.460766 3876.580078
3.100000 3.200000 1.016667 85.220490 18.433540 7602.327148
3.200000 2.800000 0.983333 72.790497 69.063828 10068.269531
3.200000 2.800000 0.991667 -40.134037 -26.593866 2317.974609
3.200000 2.800000 1.000000 -16.464745 -25.597248 926.306885
3.200000 2.800000 1.008333 91.429085 -58.429214 11773.250000
3.200000 2.800000 1.016667 -9.603664 163.838257 26935.205078
3.200000 2.900000 0.983333 -99.564278 24.063343 10492.089844
3.200000 2.900000 0.991667 69.893578 -50.583675 7443.820312
3.200000 2.900000 1.000000 4.530832 45.261627 2069.143311
3.200000 2.900000 1.008333 24.288799 33.824306 1734.029541
3.200000 2.900000 1.016667 -74.017487 7.248294 5531.125977
3.200000 3.000000 0.983333 53.745968 -134.861404 21076.226562
3.200000 3.000000 0.991667 78.730286 29.496101 7068.478027
3.200000 3.000000 1.000000 -18.892830 -15.844591 607.990112
3.200000 3.000000 1.008333 64.806404 -14.734138 4416.964844
3.200000 3.000000 1.016667 25.296238 59.769005 4212.233398
3.200000 3.100000 0.983333 140.138443 52.146137 22358.003906
3.200000 3.100000 0.991667 42.863838 56.139118 4988.909180
3.200000 3.100000 1.000000 64.634674 49.655560 6643.315430
3.200000 3.100000 1.008333 14.993864 108.277359 11948.802734
3.200000 3.100000 1.016667 -63.464836 55.783287 7139.560547
3.200000 3.200000 0.983333 6.238096 93.260635 8736.459961
3.200000 3.200000 0.991667 -9.690356 38.403435 1568.726807
3.200000 3.200000 1.000000 -54.214310 92.549530 11504.606445
3.200000 3.200000 1.008333 -78.452377 -23.137701 6690.128418
3.200000 3.200000 1.016667 -23.655573 21.484735 1021.179993
