#kx 	ky 	kz 	real 	imag 	intensity
2.800000 2.800000 0.800000 -8.557804 -1.694217 76.106377
2.800000 2.800000 0.840000 -6.678539 -4.436233 64.283043
2.800000 2.800000 0.880000 -5.415493 -4.614534 50.621490
2.800000 2.800000 0.920000 -6.233829 -5.273464 66.670059
2.800000 2.800000 0.960000 -6.515346 -8.709873 118.311615
2.800000 2.800000 1.000000 -2.786069 -12.981977 176.293884
2.800000 2.800000 1.040000 4.671900 -13.471027 203.295227
2.800000 2.800000 1.080000 11.230707 -7.852487 187.790344
2.800000 2.800000 1.120000 12.163003 1.097392 149.142914
2.800000 2.800000 1.160000 7.132957 7.971810 114.428841
2.800000 2.800000 1.200000 0.056253 9.729952 94.675133
2.800000 2.840000 0.800000 -7.933849 -10.716600 177.791489
2.800000 2.840000 0.840000 -3.732362 -12.711440 175.511230
2.800000 2.840000 0.880000 -0.880538 -12.665556 161.191650
2.800000 2.840000 0.920000 1.064129 -12.846331 166.160583
2.800000 2.840000 0.960000 3.906973 -13.091898 186.662231
2.800000 2.840000 1.000000 7.578077 -11.463250 188.833359
2.800000 2.840000 1.040000 9.775957 -7.407434 150.439423
2.800000 2.840000 1.080000 8.847191 -3.096439 87.860725
2.800000 2.840000 1.120000 6.121611 -1.096380 38.676167
2.800000 2.840000 1.160000 4.469574 -1.196713 21.409214
2.800000 2.840000 1.200000 4.624633 -0.620033 21.771669
2.800000 2.880000 0.800000 0.105740 -18.000473 324.028198
2.800000 2.880000 0.840000 6.326438 -17.575445 348.920105
2.800000 2.880000 0.880000 10.739946 -15.230332 347.309479
2.800000 2.880000 0.920000 13.794366 -11.871835 331.224976
2.800000 2.880000 0.960000 15.086552 -7.442783 282.999054
2.800000 2.880000 1.000000 13.473803 -3.205272 191.817123
2.800000 2.880000 1.040000 9.714930 -1.879891 97.913849
2.800000 2.880000 1.080000 7.477241 -4.483075 76.007095
2.800000 2.880000 1.120000 10.145231 -7.702134 162.248581
2.800000 2.880000 1.160000 16.290270 -6.028484 301.715515
2.800000 2.880000 1.200000 19.465199 2.366961 384.496460
2.800000 2.920000 0.800000 12.563828 -17.479147 463.370331
2.800000 2.920000 0.840000 18.734426 -13.024485 520.615967
2.800000 2.920000 0.880000 22.002705 -6.964509 532.623413
2.800000 2.920000 0.920000 21.950237 -0.241771 481.871368
2.800000 2.920000 0.960000 17.880070 4.996571 344.662628
2.800000 2.920000 1.000000 11.563457 5.361479 162.458984
2.800000 2.920000 1.040000 8.267317 -0.031656 68.349525
2.800000 2.920000 1.080000 12.732721 -6.280843 201.571182
2.800000 2.920000 1.120000 23.203815 -5.286945 566.368835
2.800000 2.920000 1.160000 30.625580 6.519782 980.433716
2.800000 2.920000 1.200000 25.811796 22.880232 1189.753906
2.800000 2.960000 0.800000 21.954145 -7.265271 534.768677
2.800000 2.960000 0.840000 24.511719 0.689734 601.300049
2.800000 2.960000 0.880000 23.048275 8.440918 602.472046
2.800000 2.960000 0.920000 17.583761 13.970783 504.371460
2.800000 2.960000 0.960000 9.959545 14.175015 300.123596
2.800000 2.960000 1.000000 5.477601 7.955324 93.291290
2.800000 2.960000 1.040000 9.619913 0.068927 92.547478
2.800000 2.960000 1.080000 21.539623 -0.420642 464.132324
2.800000 2.960000 1.120000 31.748611 11.948698 1150.745728
2.800000 2.960000 1.160000 28.695297 31.876833 1839.552612
2.800000 2.960000 1.200000 9.596032 45.384094 2151.799805
2.800000 3.000000 0.800000 21.323881 7.733065 514.508179
2.800000 3.000000 0.840000 17.724041 15.379920 550.683594
2.800000 3.000000 0.880000 10.999127 19.657633 507.403320
2.800000 3.000000 0.920000 3.293952 18.812149 364.747070
2.800000 3.000000 0.960000 -1.117310 12.408791 155.226471
2.800000 3.000000 1.000000 2.431453 4.465063 25.848747
2.800000 3.000000 1.040000 13.689383 3.125242 197.166336
2.800000 3.000000 1.080000 24.347605 14.316586 797.770447
2.800000 3.000000 1.120000 22.756186 34.356548 1698.216431
2.800000 3.000000 1.160000 4.185212 49.981613 2515.677734
2.800000 3.000000 1.200000 -22.856953 48.089890 2835.077637
2.800000 3.040000 0.800000 9.793840 18.488192 437.732544
2.800000 3.040000 0.840000 1.429249 20.524593 423.301697
2.800000 3.040000 0.880000 -5.996400 17.117847 328.977509
2.800000 3.040000 0.920000 -8.912113 9.590732 171.407898
2.800000 3.040000 0.960000 -4.505936 2.076890 24.616928
2.800000 3.040000 1.000000 6.115105 1.135348 38.683525
2.800000 3.040000 1.040000 15.763294 11.359213 377.513184
2.800000 3.040000 1.080000 14.410785 29.624283 1085.268799
2.800000 3.040000 1.120000 -2.627666 44.455830 1983.225464
2.800000 3.040000 1.160000 -28.626854 43.497299 2711.511719
2.800000 3.040000 1.200000 -48.515472 23.905539 2925.225830
2.800000 3.080000 0.800000 -6.177512 18.254513 371.388885
2.800000 3.080000 0.840000 -13.764851 11.871559 330.405029
2.800000 3.080000 0.880000 -14.908385 1.915218 225.928009
2.800000 3.080000 0.920000 -8.130355 -6.092824 103.225174
2.800000 3.080000 0.960000 3.600969 -6.159246 50.903297
2.800000 3.080000 1.000000 12.780674 4.414808 182.836151
2.800000 3.080000 1.040000 10.930130 21.441433 579.202759
2.800000 3.080000 1.080000 -5.037229 34.408478 1209.317017
2.800000 3.080000 1.120000 -28.615459 32.818024 1895.867188
2.800000 3.080000 1.160000 -46.537682 14.438934 2374.238770
2.800000 3.080000 1.200000 -47.862640 -11.737884 2428.610107
2.800000 3.120000 0.800000 -17.342178 7.568339 358.030914
2.800000 3.120000 0.840000 -17.921091 -4.792193 344.130615
2.800000 3.120000 0.880000 -8.956013 -14.630766 294.269470
2.800000 3.120000 0.920000 5.380976 -14.842375 249.250992
2.800000 3.120000 0.960000 16.099794 -3.302649 270.110870
2.800000 3.120000 1.000000 14.602230 14.285548 417.302002
2.800000 3.120000 1.040000 -0.888351 26.726969 715.120056
2.800000 3.120000 1.080000 -22.744320 24.480667 1116.607178
2.800000 3.120000 1.120000 -38.127243 6.784564 1499.716919
2.800000 3.120000 1.160000 -37.686203 -17.061987 1711.361328
2.800000 3.120000 1.200000 -22.176186 -33.975750 1646.134766
2.800000 3.160000 0.800000 -18.433861 -6.478385 381.776703
2.800000 3.160000 0.840000 -9.609237 -18.431141 432.044373
2.800000 3.160000 0.880000 6.696592 -20.699303 473.305481
2.800000 3.160000 0.920000 20.514309 -9.514618 511.364838
2.800000 3.160000 0.960000 21.542311 9.435094 553.092163
2.800000 3.160000 1.000000 7.260691 23.694698 614.156372
2.800000 3.160000 1.040000 -14.027887 22.737978 713.797241
2.800000 3.160000 1.080000 -28.534872 6.076745 851.165771
2.800000 3.160000 1.120000 -26.958561 -16.048893 984.330994
2.800000 3.160000 1.160000 -11.081182 -30.265207 1038.775391
2.800000 3.160000 1.200000 8.311152 -29.722069 952.476624
2.800000 3.200000 0.800000 -11.460883 -16.072979 389.692505
2.800000 3.200000 0.840000 3.763526 -21.821903 490.359589
2.800000 3.200000 0.880000 20.100224 -13.866014 596.285339
2.800000 3.200000 0.920000 25.590034 4.769676 677.599670
2.800000 3.200000 0.960000 14.816477 21.827358 695.961548
2.800000 3.200000 1.000000 -5.559567 24.778492 644.882507
2.800000 3.200000 1.040000 -21.119343 11.042261 567.958191
2.800000 3.200000 1.080000 -20.885674 -9.569707 527.790649
2.800000 3.200000 1.120000 -5.806035 -22.658718 547.127502
2.800000 3.200000 1.160000 12.729783 -20.505615 582.527649
2.800000 3.200000 1.200000 22.584572 -7.093585 560.381836
2.840000 2.800000 0.800000 -4.312855 4.593671 39.702530
2.840000 2.800000 0.840000 -6.950380 1.079241 49.472546
2.840000 2.800000 0.880000 -7.625338 -3.555544 70.787666
2.840000 2.800000 0.920000 -5.595659 -8.355827 101.131248
2.840000 2.800000 0.960000 -0.709566 -11.496870 132.681503
2.840000 2.800000 1.000000 5.580006 -11.073009 153.748001
2.840000 2.800000 1.040000 10.505196 -6.703440 155.295242
2.840000 2.800000 1.080000 11.718802 -0.250397 137.393036
2.840000 2.800000 1.120000 8.960224 5.361750 109.033974
2.840000 2.800000 1.160000 3.962193 8.152419 82.160904
2.840000 2.800000 1.200000 -1.190977 7.963666 64.838402
2.840000 2.840000 0.800000 -5.094956 -3.386743 37.428604
2.840000 2.840000 0.840000 2.084377 -8.867154 82.971046
2.840000 2.840000 0.880000 11.848479 -6.329546 180.449615
2.840000 2.840000 0.920000 16.417892 3.800673 283.992279
2.840000 2.840000 0.960000 11.195217 14.498525 335.540100
2.840000 2.840000 1.000000 -0.693424 17.492092 306.454132
2.840000 2.840000 1.040000 -10.441830 10.404259 217.280396
2.840000 2.840000 1.080000 -10.927465 -0.875349 120.175735
2.840000 2.840000 1.120000 -2.949360 -7.183507 60.301502
2.840000 2.840000 1.160000 5.579507 -4.136578 48.242172
2.840000 2.840000 1.200000 6.832051 4.151400 63.911045
2.840000 2.880000 0.800000 1.884522 -9.560661 94.957664
2.840000 2.880000 0.840000 18.826832 -6.201705 392.910736
2.840000 2.880000 0.880000 28.523022 13.011677 982.866455
2.840000 2.880000 0.920000 18.343327 36.560043 1673.114380
2.840000 2.880000 0.960000 -9.350832 45.369865 2145.862793
2.840000 2.880000 1.000000 -36.164005 29.378424 2170.927246
2.840000 2.880000 1.040000 -42.035622 -1.900829 1770.606689
2.840000 2.880000 1.080000 -22.766865 -26.002363 1194.453003
2.840000 2.880000 1.120000 5.840389 -26.370840 729.531372
2.840000 2.880000 1.160000 21.659573 -6.233677 507.995819
2.840000 2.880000 1.200000 15.169546 15.284908 463.743530
2.840000 2.920000 0.800000 12.293820 -7.268526 203.969482
2.840000 2.920000 0.840000 28.296425 12.187975 949.234436
2.840000 2.920000 0.880000 21.627293 43.940910 2398.543457
2.840000 2.920000 0.920000 -12.949070 62.850758 4117.895996
2.840000 2.920000 0.960000 -55.420101 47.579956 5335.240234
2.840000 2.920000 1.000000 -73.832367 2.344906 5456.716797
2.840000 2.920000 1.040000 -51.800190 -42.646225 4501.960449
2.840000 2.920000 1.080000 -4.571213 -55.308376 3079.912598
2.840000 2.920000 1.120000 32.809860 -29.113232 1924.067139
2.840000 2.920000 1.160000 35.251701 11.868060 1383.533325
2.840000 2.920000 1.200000 7.740948 34.980042 1283.525513
2.840000 2.960000 0.800000 17.275826 3.778052 312.727814
2.840000 2.960000 0.840000 18.404570 34.299862 1515.208618
2.840000 2.960000 0.880000 -11.598242 60.715607 3820.904297
2.840000 2.960000 0.920000 -60.119606 54.162380 6547.930664
2.840000 2.960000 0.960000 -91.709167 7.528425 8467.248047
2.840000 2.960000 1.000000 -77.081863 -51.841324 8629.136719
2.840000 2.960000 1.040000 -21.497173 -81.352776 7080.402344
2.840000 2.960000 1.080000 36.160263 -59.346039 4829.517090
2.840000 2.960000 1.120000 55.252392 -4.609764 3074.076904
2.840000 2.960000 1.160000 27.472996 39.938828 2349.875488
2.840000 2.960000 1.200000 -18.483061 44.328163 2306.609619
2.840000 3.000000 0.800000 10.926609 15.883236 371.667969
2.840000 3.000000 0.840000 -7.595713 41.949196 1817.429810
2.840000 3.000000 0.880000 -49.838600 45.208855 4527.726562
2.840000 3.000000 0.920000 -87.250275 8.776257 7689.632812
2.840000 3.000000 0.960000 -84.921837 -51.467350 9860.606445
2.840000 3.000000 1.000000 -34.568817 -93.579834 9952.188477
2.840000 3.000000 1.040000 32.541656 -83.779663 8077.991211
2.840000 3.000000 1.080000 68.777794 -27.556225 5489.730469
2.840000 3.000000 1.120000 50.243889 33.000435 3613.477051
2.840000 3.000000 1.160000 -3.406495 54.776169 3012.032959
2.840000 3.000000 1.200000 -47.931282 29.201847 3150.155518
2.840000 3.040000 0.800000 -3.842464 19.096863 379.454681
2.840000 3.040000 0.840000 -32.121319 26.787697 1749.359863
2.840000 3.040000 0.880000 -64.713478 4.759016 4210.482910
2.840000 3.040000 0.920000 -71.422028 -43.576740 7000.038086
2.840000 3.040000 0.960000 -35.272232 -87.075134 8826.208984
2.840000 3.040000 1.000000 26.482656 -89.806213 8766.487305
2.840000 3.040000 1.040000 71.352509 -43.874893 7016.187012
2.840000 3.040000 1.080000 66.272087 19.754814 4782.242188
2.840000 3.040000 1.120000 16.670042 55.425148 3349.837402
2.840000 3.040000 1.160000 -38.015438 40.975048 3124.128174
2.840000 3.040000 1.200000 -58.628807 -5.392587 3466.416992
2.840000 3.080000 0.800000 -16.907328 9.660527 379.183502
2.840000 3.080000 0.840000 -37.735809 -1.682848 1426.823364
2.840000 3.080000 0.880000 -45.540802 -32.935089 3158.684570
2.840000 3.080000 0.920000 -23.748367 -66.681801 5010.447266
2.840000 3.080000 0.960000 22.228193 -74.949692 6111.548828
2.840000 3.080000 1.000000 63.075722 -43.941692 5909.418945
2.840000 3.080000 1.040000 67.524902 9.537727 4650.580566
2.840000 3.080000 1.080000 30.046112 48.344593 3239.968506
2.840000 3.080000 1.120000 -22.266954 45.227322 2541.327881
2.840000 3.080000 1.160000 -51.733788 5.681922 2708.668945
2.840000 3.080000 1.200000 -41.247040 -37.960541 3142.320801
2.840000 3.120000 0.800000 -19.090992 -6.511518 406.865845
2.840000 3.120000 0.840000 -21.842396 -24.060095 1055.978394
2.840000 3.120000 0.880000 -8.227634 -43.590927 1967.862915
2.840000 3.120000 0.920000 20.706837 -48.943153 2824.205566
2.840000 3.120000 0.960000 48.574512 -29.329370 3219.695068
2.840000 3.120000 1.000000 53.946442 7.750309 2970.285889
2.840000 3.120000 1.040000 28.920996 38.348244 2307.011719
2.840000 3.120000 1.080000 -11.365311 40.100010 1737.181030
2.840000 3.120000 1.120000 -39.039333 11.317055 1652.145264
2.840000 3.120000 1.160000 -35.809540 -26.871433 2004.396973
2.840000 3.120000 1.200000 -7.343231 -47.994781 2357.422119
2.840000 3.160000 0.800000 -9.650681 -18.770966 445.484802
2.840000 3.160000 0.840000 2.060965 -27.482092 759.512939
2.840000 3.160000 0.880000 19.833078 -26.181347 1078.813965
2.840000 3.160000 0.920000 34.071041 -11.140315 1284.942383
2.840000 3.160000 0.960000 33.833210 11.967672 1287.911377
2.840000 3.160000 1.000000 15.868852 29.316750 1111.292236
2.840000 3.160000 1.040000 -10.442327 28.214216 905.084229
2.840000 3.160000 1.080000 -28.177685 7.636476 852.297729
2.840000 3.160000 1.120000 -25.311193 -19.563530 1023.388184
2.840000 3.160000 1.160000 -4.184998 -35.841675 1302.139771
2.840000 3.160000 1.200000 20.489918 -32.253681 1460.136719
2.840000 3.200000 0.800000 3.703071 -20.590515 437.682037
2.840000 3.200000 0.840000 17.169443 -15.245273 527.208130
2.840000 3.200000 0.880000 23.680185 -0.734728 561.290955
2.840000 3.200000 0.920000 17.699959 15.081617 540.743713
2.840000 3.200000 0.960000 1.536531 22.139742 492.529114
2.840000 3.200000 1.000000 -15.285858 15.148417 463.131958
2.840000 3.200000 1.040000 -22.110851 -2.240057 493.907593
2.840000 3.200000 1.080000 -14.475167 -19.544155 591.504456
2.840000 3.200000 1.120000 2.870315 -26.568935 714.147034
2.840000 3.200000 1.160000 19.560841 -20.160608 789.076660
2.840000 3.200000 1.200000 26.934416 -5.600491 756.828247
2.880000 2.800000 0.800000 -7.008099 14.080046 247.361130
2.880000 2.800000 0.840000 -12.505323 5.394934 185.488434
2.880000 2.800000 0.880000 -10.562977 -4.658909 133.281906
2.880000 2.800000 0.920000 -2.645317 -10.241840 111.892998
2.880000 2.800000 0.960000 5.896973 -8.890223 113.810349
2.880000 2.800000 1.000000 10.243149 -3.142166 114.795303
2.880000 2.800000 1.040000 9.717688 2.296585 99.707748
2.880000 2.800000 1.080000 7.249907 4.881123 76.386505
2.880000 2.800000 1.120000 5.551521 5.718357 63.518997
2.880000 2.800000 1.160000 4.350306 6.957076 67.326057
2.880000 2.800000 1.200000 1.610365 8.418964 73.472237
2.880000 2.840000 0.800000 -10.293566 4.403192 125.345596
2.880000 2.840000 0.840000 3.160959 0.116516 10.005239
2.880000 2.840000 0.880000 14.831484 12.414766 374.099335
2.880000 2.840000 0.920000 9.466827 32.678867 1157.529175
2.880000 2.840000 0.960000 -13.704819 41.886566 1942.306396
2.880000 2.840000 1.000000 -38.010384 28.365692 2249.401855
2.880000 2.840000 1.040000 -43.664886 -0.016045 1906.622559
2.880000 2.840000 1.080000 -26.171936 -22.008144 1169.328613
2.880000 2.840000 1.120000 -0.633167 -22.191860 492.879578
2.880000 2.840000 1.160000 12.422565 -4.616470 175.631927
2.880000 2.840000 1.200000 5.766504 12.219426 182.566956
2.880000 2.880000 0.800000 -4.411095 -3.077733 28.930197
2.880000 2.880000 0.840000 17.795723 15.493340 556.731323
2.880000 2.880000 0.880000 12.225830 53.973995 3062.663086
2.880000 2.880000 0.920000 -30.998901 77.978821 7041.627930
2.880000 2.880000 0.960000 -85.722099 57.448193 10648.573242
2.880000 2.880000 1.000000 -109.080467 -2.357864 11904.107422
2.880000 2.880000 1.040000 -79.952278 -61.284000 10148.095703
2.880000 2.880000 1.080000 -19.433708 -78.275093 6504.659180
2.880000 2.880000 1.120000 27.426126 -47.176449 2977.809814
2.880000 2.880000 1.160000 31.411213 -0.102287 986.674744
2.880000 2.880000 1.200000 2.275026 23.845882 573.801819
2.880000 2.920000 0.800000 4.239768 -1.462891 20.115683
2.880000 2.920000 0.840000 11.054676 42.071209 1892.192383
2.880000 2.920000 0.880000 -32.747585 83.201935 7994.966309
2.880000 2.920000 0.920000 -108.244232 72.841911 17022.757812
2.880000 2.920000 0.960000 -157.797760 -1.640842 24902.824219
2.880000 2.920000 1.000000 -134.566467 -96.426826 27406.267578
2.880000 2.920000 1.040000 -47.780926 -144.708267 23223.500000
2.880000 2.920000 1.080000 41.838055 -114.709900 14908.784180
2.880000 2.920000 1.120000 74.306595 -36.980141 6889.000977
2.880000 2.920000 1.160000 40.798859 25.104546 2294.785156
2.880000 2.920000 1.200000 -14.835764 32.039894 1246.654663
2.880000 2.960000 0.800000 6.079792 7.199719 88.799835
2.880000 2.960000 0.840000 -19.923981 55.261555 3450.804443
2.880000 2.960000 0.880000 -94.189316 64.686752 13056.002930
2.880000 2.960000 0.920000 -163.553848 0.125172 26749.876953
2.880000 2.960000 0.960000 -161.640366 -110.742905 38391.597656
2.880000 2.960000 1.000000 -71.898560 -191.316544 41771.421875
2.880000 2.960000 1.040000 50.100258 -180.599991 35126.394531
2.880000 2.960000 1.080000 121.029526 -88.263016 22438.505859
2.880000 2.960000 1.120000 100.949310 13.635350 10376.686523
2.880000 2.960000 1.160000 23.991016 54.655884 3562.834473
2.880000 2.960000 1.200000 -38.573509 24.181505 2072.660889
2.880000 3.000000 0.800000 -2.155603 13.212979 179.229446
2.880000 3.000000 0.840000 -54.524437 37.939854 4412.346680
2.880000 3.000000 0.880000 -124.793892 0.313728 15573.614258
2.880000 3.000000 0.920000 -146.177490 -98.330215 31036.691406
2.880000 3.000000 0.960000 -77.699188 -194.464676 43853.675781
2.880000 3.000000 1.000000 49.470947 -211.539658 47196.402344
2.880000 3.000000 1.040000 150.502686 -129.195984 39342.660156
2.880000 3.000000 1.080000 157.915710 -5.284403 24965.296875
2.880000 3.000000 1.120000 79.041893 73.044441 11583.111328
2.880000 3.000000 1.160000 -14.447104 63.493156 4240.099609
2.880000 3.000000 1.200000 -52.980728 -1.660589 2809.715088
2.880000 3.040000 0.800000 -13.558865 8.390354 254.240845
2.880000 3.040000 0.840000 -65.598816 -2.060062 4307.448242
2.880000 3.040000 0.880000 -97.959686 -68.241325 14252.978516
2.880000 3.040000 0.920000 -61.428535 -154.402893 27613.718750
2.880000 3.040000 0.960000 41.793877 -191.316986 38348.914062
2.880000 3.040000 1.000000 148.142639 -137.088165 40739.406250
2.880000 3.040000 1.040000 182.143280 -20.354326 33590.472656
2.880000 3.040000 1.080000 122.003464 79.223724 21161.242188
2.880000 3.040000 1.120000 18.734879 97.962570 9947.661133
2.880000 3.040000 1.160000 -49.844784 40.080292 4090.932129
2.880000 3.040000 1.200000 -45.801815 -33.165588 3197.762451
2.880000 3.080000 0.800000 -17.084541 -5.693977 324.302948
2.880000 3.080000 0.840000 -43.841724 -37.429913 3323.095215
2.880000 3.080000 0.880000 -32.462879 -94.820450 10044.756836
2.880000 3.080000 0.920000 31.996792 -132.905487 18687.664062
2.880000 3.080000 0.960000 116.571411 -108.234604 25303.623047
2.880000 3.080000 1.000000 160.793640 -22.623363 26366.410156
2.880000 3.080000 1.040000 128.160706 70.543076 21401.492188
2.880000 3.080000 1.080000 40.701180 108.337265 13393.548828
2.880000 3.080000 1.120000 -38.132359 71.348465 6544.680176
2.880000 3.080000 1.160000 -57.396393 -1.979058 3298.262695
2.880000 3.080000 1.200000 -18.881083 -52.282692 3089.975342
2.880000 3.120000 0.800000 -7.931383 -18.650028 410.730377
2.880000 3.120000 0.840000 -5.974558 -45.117447 2071.279297
2.880000 3.120000 0.880000 24.565193 -68.358170 5276.288086
2.880000 3.120000 0.920000 73.629417 -60.428963 9072.950195
2.880000 3.120000 0.960000 107.468765 -12.141441 11696.950195
2.880000 3.120000 1.000000 95.264008 51.752373 11753.539062
2.880000 3.120000 1.040000 38.627052 88.326920 9293.693359
2.880000 3.120000 1.080000 -25.485703 71.981476 5830.854004
2.880000 3.120000 1.120000 -54.027802 17.047573 3209.623047
2.880000 3.120000 1.160000 -33.193295 -34.458431 2289.178223
2.880000 3.120000 1.200000 12.692146 -48.705154 2533.282715
2.880000 3.160000 0.800000 7.876123 -20.712696 491.049103
2.880000 3.160000 0.840000 20.862358 -25.553211 1088.204590
2.880000 3.160000 0.880000 39.328800 -19.133678 1912.852173
2.880000 3.160000 0.920000 51.692772 2.694050 2679.400391
2.880000 3.160000 0.960000 44.891304 31.724411 3021.667480
2.880000 3.160000 1.000000 16.897926 49.779587 2763.547363
2.880000 3.160000 1.040000 -17.653790 42.215027 2093.764893
2.880000 3.160000 1.080000 -36.447227 11.492180 1460.470581
2.880000 3.160000 1.120000 -26.975189 -22.598614 1238.358154
2.880000 3.160000 1.160000 2.967913 -37.868668 1442.844482
2.880000 3.160000 1.200000 31.790112 -27.040770 1741.814453
2.880000 3.200000 0.800000 19.176456 -11.491982 499.802124
2.880000 3.200000 0.840000 22.893387 0.406776 524.272644
2.880000 3.200000 0.880000 17.453995 12.184450 453.102783
2.880000 3.200000 0.920000 5.409939 17.520332 336.229462
2.880000 3.200000 0.960000 -7.317371 13.679520 240.673187
2.880000 3.200000 1.000000 -14.728065 2.369915 222.532410
2.880000 3.200000 1.040000 -13.282192 -11.500118 308.669342
2.880000 3.200000 1.080000 -3.132058 -21.878708 488.487640
2.880000 3.200000 1.120000 11.811806 -23.938898 712.589600
2.880000 3.200000 1.160000 25.226686 -16.322935 902.823853
2.880000 3.200000 1.200000 31.220222 -2.252595 979.776428
2.920000 2.800000 0.800000 -17.592094 20.293133 721.293030
2.920000 2.800000 0.840000 -21.302864 4.971157 478.524414
2.920000 2.800000 0.880000 -13.227657 -7.527428 231.633087
2.920000 2.800000 0.920000 -0.303314 -9.675060 93.698792
2.920000 2.800000 0.960000 7.848946 -2.862694 69.800964
2.920000 2.800000 1.000000 7.597298 4.830734 81.054924
2.920000 2.800000 1.040000 3.545486 7.119202 63.253510
2.920000 2.800000 1.080000 2.336571 5.236668 32.882252
2.920000 2.800000 1.120000 5.087284 5.089005 51.778427
2.920000 2.800000 1.160000 6.776686 9.488956 135.963760
2.920000 2.800000 1.200000 2.900213 14.434125 216.755203
2.920000 2.840000 0.800000 -21.735273 6.310822 512.248596
2.920000 2.840000 0.840000 -5.185604 8.993633 107.775925
2.920000 2.840000 0.880000 -2.066589 29.946026 901.035278
2.920000 2.840000 0.920000 -24.727821 47.304001 2849.133545
2.920000 2.840000 0.960000 -59.302944 37.320206 4909.636719
2.920000 2.840000 1.000000 -76.055679 -0.700836 5784.957520
2.920000 2.840000 1.040000 -57.367676 -40.675278 4945.528320
2.920000 2.840000 1.080000 -15.691177 -52.671791 3020.530762
2.920000 2.840000 1.120000 17.164997 -30.534126 1226.969971
2.920000 2.840000 1.160000 19.270079 3.199743 381.574280
2.920000 2.840000 1.200000 -2.555405 19.602425 390.785156
2.920000 2.880000 0.800000 -15.154749 -4.003826 245.697037
2.920000 2.880000 0.840000 -3.831818 31.757324 1023.210449
2.920000 2.880000 0.880000 -40.281773 70.181473 6548.060059
2.920000 2.880000 0.920000 -109.638916 62.020519 15867.237305
2.920000 2.880000 0.960000 -156.637756 -7.891502 24597.662109
2.920000 2.880000 1.000000 -134.453781 -98.645020 27808.658203
2.920000 2.880000 1.040000 -50.743561 -145.321945 23693.375000
2.920000 2.880000 1.080000 35.878021 -116.641663 14892.509766
2.920000 2.880000 1.120000 67.359451 -42.349953 6330.814453
2.920000 2.880000 1.160000 35.996098 16.081100 1554.320801
2.920000 2.880000 1.200000 -14.782179 21.610777 685.538452
2.920000 2.920000 0.800000 -6.321350 -4.656467 61.642159
2.920000 2.920000 0.840000 -30.354446 49.561359 3377.720703
2.920000 2.920000 0.880000 -112.961563 62.178654 16626.500000
2.920000 2.920000 0.920000 -192.668304 -11.182045 37246.113281
2.920000 2.920000 0.960000 -190.504730 -139.772247 55828.332031
2.920000 2.920000 1.000000 -85.959869 -234.041595 62164.566406
2.920000 2.920000 1.040000 56.397980 -222.600601 52731.757812
2.920000 2.920000 1.080000 139.923843 -117.036034 33276.117188
2.920000 2.920000 1.120000 119.524620 -0.938797 14287.015625
2.920000 2.920000 1.160000 35.895206 45.927055 3397.760254
2.920000 2.920000 1.200000 -29.733814 14.182143 1085.232910
2.920000 2.960000 0.800000 -4.074898 0.067065 16.609289
2.920000 2.960000 0.840000 -69.343399 36.557606 6144.965332
2.920000 2.960000 0.880000 -163.191040 -10.361732 26738.681641
2.920000 2.960000 0.920000 -193.527023 -141.839767 57571.226562
2.920000 2.960000 0.960000 -102.619148 -272.404724 84735.023438
2.920000 2.960000 1.000000 68.678864 -297.943848 93487.328125
2.920000 2.960000 1.040000 206.696152 -190.436462 78989.343750
2.920000 2.960000 1.080000 221.677582 -26.784988 49858.386719
2.920000 2.960000 1.120000 124.002335 78.370682 21518.542969
2.920000 2.960000 1.160000 7.689968 71.449188 5164.122070
2.920000 2.960000 1.200000 -39.100426 -3.668279 1542.299561
2.920000 3.000000 0.800000 -8.516754 0.749023 73.096138
2.920000 3.000000 0.840000 -87.922119 -7.991081 7794.156250
2.920000 3.000000 0.880000 -142.060379 -106.046066 31426.917969
2.920000 3.000000 0.920000 -90.590866 -240.161713 65884.351562
2.920000 3.000000 0.960000 66.621750 -302.083984 95693.195312
2.920000 3.000000 1.000000 233.121017 -224.622437 104800.648438
2.920000 3.000000 1.040000 292.907623 -49.179493 88213.500000
2.920000 3.000000 1.080000 211.432678 104.722610 55670.601562
2.920000 3.000000 1.120000 63.712639 141.915131 24199.205078
2.920000 3.000000 1.160000 -36.496540 68.690781 6050.420898
2.920000 3.000000 1.200000 -35.932941 -26.098932 1972.330566
2.920000 3.040000 0.800000 -11.203676 -6.710155 170.548553
2.920000 3.040000 0.840000 -66.130592 -55.349194 7436.788574
2.920000 3.040000 0.880000 -55.990112 -158.188416 28158.466797
2.920000 3.040000 0.920000 52.841511 -234.196808 57640.371094
2.920000 3.040000 0.960000 205.585892 -200.983582 82659.953125
2.920000 3.040000 1.000000 294.461761 -55.930965 89836.000000
2.920000 3.040000 1.040000 251.140518 110.598701 75303.632812
2.920000 3.040000 1.080000 109.015556 188.829849 47541.101562
2.920000 3.040000 1.120000 -25.938900 142.392105 20948.337891
2.920000 3.040000 1.160000 -68.002304 32.885910 5705.796387
2.920000 3.040000 1.200000 -19.278490 -43.598137 2272.457764
2.920000 3.080000 0.800000 -4.471371 -16.317926 286.267883
2.920000 3.080000 0.840000 -16.770809 -71.863235 5445.584961
2.920000 3.080000 0.880000 36.371052 -133.291748 19089.542969
2.920000 3.080000 0.920000 141.509201 -133.789948 37924.601562
2.920000 3.080000 0.960000 227.158127 -43.459251 53489.523438
2.920000 3.080000 1.000000 221.261566 92.583138 57528.316406
2.920000 3.080000 1.040000 117.696869 184.648407 47947.585938
2.920000 3.080000 1.080000 -13.544262 173.652527 30338.646484
2.920000 3.080000 1.120000 -85.056229 80.807671 13764.441406
2.920000 3.080000 1.160000 -64.762695 -14.963831 4418.122559
2.920000 3.080000 1.200000 4.980177 -48.265388 2354.349854
2.920000 3.120000 0.800000 9.911252 -17.973675 421.285889
2.920000 3.120000 0.840000 25.448229 -48.910110 3039.811279
2.920000 3.120000 0.880000 75.627647 -59.135349 9216.530273
2.920000 3.120000 0.920000 130.184067 -19.229500 17317.664062
2.920000 3.120000 0.960000 141.222855 61.154770 23683.800781
2.920000 3.120000 1.000000 86.381409 132.355270 24979.666016
2.920000 3.120000 1.040000 -5.671623 143.461517 20613.375000
2.920000 3.120000 1.080000 -75.104645 86.740372 13164.599609
2.920000 3.120000 1.120000 -80.143127 5.269100 6450.684082
2.920000 3.120000 1.160000 -30.204884 -44.207893 2866.672852
2.920000 3.120000 1.200000 27.076389 -38.045536 2180.593750
2.920000 3.160000 0.800000 21.904074 -7.988659 543.607117
2.920000 3.160000 0.840000 34.859108 -9.160624 1299.074341
2.920000 3.160000 0.880000 51.494267 3.802151 2666.115723
2.920000 3.160000 0.920000 56.241425 32.661057 4229.842773
2.920000 3.160000 0.960000 36.061104 62.983212 5267.288086
2.920000 3.160000 1.000000 -4.672493 72.261795 5243.599121
2.920000 3.160000 1.040000 -42.900230 48.907337 4232.357422
2.920000 3.160000 1.080000 -53.466854 4.786156 2881.611816
2.920000 3.160000 1.120000 -29.917028 -32.078129 1924.034912
2.920000 3.160000 1.160000 9.785009 -39.435261 1650.886230
2.920000 3.160000 1.200000 38.292408 -17.819347 1783.837646
2.920000 3.200000 0.800000 23.014084 6.907579 577.362732
2.920000 3.200000 0.840000 15.621214 15.995131 499.866516
2.920000 3.200000 0.880000 4.296698 17.479980 324.011322
2.920000 3.200000 0.920000 -4.469097 11.788422 158.939713
2.920000 3.200000 0.960000 -7.762009 3.239599 70.743782
2.920000 3.200000 1.000000 -6.631546 -4.797192 66.990448
2.920000 3.200000 1.040000 -2.494884 -11.713226 143.424118
2.920000 3.200000 1.080000 5.145617 -17.129860 319.909454
2.920000 3.200000 1.120000 16.697617 -18.273428 612.728577
2.920000 3.200000 1.160000 28.967218 -11.498451 971.314087
2.920000 3.200000 1.200000 35.396729 3.100302 1262.540161
2.960000 2.800000 0.800000 -31.598953 17.928261 1319.916382
2.960000 2.800000 0.840000 -29.454004 -1.567783 869.996338
2.960000 2.800000 0.880000 -15.191872 -12.304420 382.191711
2.960000 2.800000 0.920000 -0.552467 -9.397316 88.614769
2.960000 2.800000 0.960000 4.733791 0.452858 22.613861
2.960000 2.800000 1.000000 1.462315 6.701294 47.045704
2.960000 2.800000 1.040000 -1.784073 5.817398 37.025036
2.960000 2.800000 1.080000 0.838852 3.678661 14.236221
2.960000 2.800000 1.120000 5.930607 7.401688 89.957077
2.960000 2.800000 1.160000 5.441217 16.191380 291.767609
2.960000 2.800000 1.200000 -3.152426 21.765667 483.682037
2.960000 2.840000 0.800000 -33.543678 -0.889143 1125.968872
2.960000 2.840000 0.840000 -21.248657 8.742428 527.935486
2.960000 2.840000 0.880000 -31.782341 27.435287 1762.812256
2.960000 2.840000 0.920000 -63.694389 26.737015 4771.843262
2.960000 2.840000 0.960000 -88.704559 -7.330612 7922.236816
2.960000 2.840000 1.000000 -77.699066 -56.094322 9183.717773
2.960000 2.840000 1.040000 -30.809288 -82.460114 7748.882812
2.960000 2.840000 1.080000 19.653801 -65.319481 4652.906738
2.960000 2.840000 1.120000 37.938217 -19.937553 1836.814453
2.960000 2.840000 1.160000 17.234612 16.401695 566.047424
2.960000 2.840000 1.200000 -16.266556 19.184250 632.636230
2.960000 2.880000 0.800000 -23.887583 -13.911633 764.150146
2.960000 2.880000 0.840000 -35.604500 24.862814 1885.839966
2.960000 2.880000 0.880000 -94.887703 35.987801 10298.797852
2.960000 2.880000 0.920000 -155.491394 -19.252777 24548.244141
2.960000 2.880000 0.960000 -153.401978 -119.632179 37844.023438
2.960000 2.880000 1.000000 -69.688644 -194.159378 42554.371094
2.960000 2.880000 1.040000 45.049706 -184.161346 35944.878906
2.960000 2.880000 1.080000 112.360611 -97.876877 22204.789062
2.960000 2.880000 1.120000 94.972633 -3.225113 9030.202148
2.960000 2.880000 1.160000 26.262833 34.307724 1866.756348
2.960000 2.880000 1.200000 -26.596687 7.420044 762.440857
2.960000 2.920000 0.800000 -12.060131 -16.686649 423.891052
2.960000 2.920000 0.840000 -68.697556 19.120983 5084.965820
2.960000 2.920000 0.880000 -156.213684 -23.451927 24952.707031
2.960000 2.920000 0.920000 -184.780426 -148.593536 56223.843750
2.960000 2.920000 0.960000 -96.336945 -274.221008 84477.968750
2.960000 2.920000 1.000000 70.525269 -298.359131 93991.984375
2.960000 2.920000 1.040000 205.048096 -193.120667 79340.312500
2.960000 2.920000 1.080000 219.725769 -33.644104 49411.339844
2.960000 2.920000 1.120000 125.429276 68.309441 20398.683594
2.960000 2.920000 1.160000 14.490299 61.705040 4017.480713
2.960000 2.920000 1.200000 -28.124201 -8.879557 869.817139
2.960000 2.960000 0.800000 -5.308458 -14.169788 228.962631
2.960000 2.960000 0.840000 -91.084702 -19.966679 8695.090820
2.960000 2.960000 0.880000 -151.969360 -127.047379 39235.722656
2.960000 2.960000 0.920000 -94.979279 -276.951355 85723.117188
2.960000 2.960000 0.960000 81.843117 -346.896667 127035.593750
2.960000 2.960000 1.000000 269.983276 -260.079193 140532.156250
2.960000 2.960000 1.040000 338.574768 -62.954437 118596.132812
2.960000 2.960000 1.080000 249.254974 110.064789 74242.296875
2.960000 2.960000 1.120000 86.903702 153.266373 31042.833984
2.960000 2.960000 1.160000 -21.968880 75.675919 6209.476562
2.960000 2.960000 1.200000 -20.880213 -22.800373 955.840271
2.960000 3.000000 0.800000 -2.387533 -13.413998 185.635651
2.960000 3.000000 0.840000 -74.770309 -71.169083 10655.636719
2.960000 3.000000 0.880000 -65.128571 -202.725250 45339.257812
2.960000 3.000000 0.920000 73.404579 -302.715088 97024.656250
2.960000 3.000000 0.960000 271.209015 -262.444153 142431.250000
2.960000 3.000000 1.000000 388.618469 -77.036514 156958.937500
2.960000 3.000000 1.040000 337.018982 137.585541 132511.578125
2.960000 3.000000 1.080000 159.136902 241.018646 83414.539062
2.960000 3.000000 1.120000 -10.268677 187.941711 35427.531250
2.960000 3.000000 1.160000 -64.465012 57.370781 7447.144531
2.960000 3.000000 1.200000 -9.129728 -30.941231 1040.711670
2.960000 3.040000 0.800000 2.836355 -15.132668 237.042526
2.960000 3.040000 0.840000 -22.348194 -96.662254 9843.033203
2.960000 3.040000 0.880000 52.390900 -192.682358 39871.296875
2.960000 3.040000 0.920000 209.916656 -199.445587 83843.546875
2.960000 3.040000 0.960000 342.615326 -68.498169 122077.257812
2.960000 3.040000 1.000000 340.624237 134.431747 134096.765625
2.960000 3.040000 1.040000 192.930725 275.901367 113343.828125
2.960000 3.040000 1.080000 1.882324 268.127625 71895.968750
2.960000 3.040000 1.120000 -105.425377 141.882935 31245.277344
2.960000 3.040000 1.160000 -84.054962 10.818550 7182.277832
2.960000 3.040000 1.200000 3.883775 -33.947067 1167.487061
2.960000 3.080000 0.800000 12.581291 -13.431784 338.701721
2.960000 3.080000 0.840000 32.149803 -76.501694 6886.119141
2.960000 3.080000 0.880000 122.643723 -106.048615 26287.791016
2.960000 3.080000 0.920000 228.955902 -41.679565 54157.992188
2.960000 3.080000 0.960000 259.803772 102.899315 78086.265625
2.960000 3.080000 1.000000 170.192276 237.671753 85453.273438
2.960000 3.080000 1.040000 9.044189 268.908417 72393.531250
2.960000 3.080000 1.080000 -117.897186 180.532242 46491.636719
2.960000 3.080000 1.120000 -137.301392 46.477535 21011.833984
2.960000 3.080000 1.160000 -65.435242 -36.977310 5649.092285
2.960000 3.080000 1.200000 17.755405 -32.374920 1363.389893
2.960000 3.120000 0.800000 21.353165 -3.628881 469.126434
2.960000 3.120000 0.840000 52.909267 -27.341385 3546.941895
2.960000 3.120000 0.880000 109.213120 -9.843487 12024.400391
2.960000 3.120000 0.920000 141.433441 61.986526 23845.748047
2.960000 3.120000 0.960000 105.790054 150.284897 33777.085938
2.960000 3.120000 1.000000 8.305527 191.411987 36707.531250
2.960000 3.120000 1.040000 -92.684624 150.475281 31233.250000
2.960000 3.120000 1.080000 -132.886719 53.960503 20570.617188
2.960000 3.120000 1.120000 -95.303925 -31.854286 10097.533203
2.960000 3.120000 1.160000 -20.858774 -56.744877 3655.069336
2.960000 3.120000 1.200000 31.544367 -24.257347 1583.465942
2.960000 3.160000 0.800000 21.537966 11.030811 585.562744
2.960000 3.160000 0.840000 33.622723 13.326736 1308.089355
2.960000 3.160000 0.880000 44.325504 32.232655 3003.694336
2.960000 3.160000 0.920000 35.872536 62.695328 5217.542969
2.960000 3.160000 0.960000 1.078186 83.473328 6968.958984
2.960000 3.160000 1.000000 -45.083649 73.251366 7398.297852
2.960000 3.160000 1.040000 -73.652145 30.894409 6379.103027
2.960000 3.160000 1.080000 -64.659500 -20.010017 4581.251953
2.960000 3.160000 1.120000 -24.371593 -48.467911 2943.113037
2.960000 3.160000 1.160000 19.520290 -40.413940 2014.328369
2.960000 3.160000 1.200000 40.462868 -8.211994 1704.680542
2.960000 3.200000 0.800000 12.043831 21.589714 611.169617
2.960000 3.200000 0.840000 -0.005867 21.310810 454.150665
2.960000 3.200000 0.880000 -7.940895 12.651661 223.122345
2.960000 3.200000 0.920000 -7.626968 2.477570 64.308998
2.960000 3.200000 0.960000 -2.549454 -3.074894 15.954687
2.960000 3.200000 1.000000 1.415657 -4.510101 22.345098
2.960000 3.200000 1.040000 3.319223 -6.722229 56.205605
2.960000 3.200000 1.080000 7.916790 -11.469185 194.217773
2.960000 3.200000 1.120000 18.894733 -13.614479 542.364990
2.960000 3.200000 1.160000 32.321930 -6.050014 1081.309814
2.960000 3.200000 1.200000 38.315323 11.665918 1604.157593
3.000000 2.800000 0.800000 -41.924870 6.730240 1802.990845
3.000000 2.800000 0.840000 -32.949280 -12.736526 1247.874146
3.000000 2.800000 0.880000 -14.931957 -19.306400 595.700439
3.000000 2.800000 0.920000 -0.926147 -12.471886 156.405670
3.000000 2.800000 0.960000 2.303402 -1.902054 8.923470
3.000000 2.800000 1.000000 -0.855095 3.229836 11.163024
3.000000 2.800000 1.040000 -1.826935 3.070873 12.767954
3.000000 2.800000 1.080000 1.673889 4.817657 26.011728
3.000000 2.800000 1.120000 3.441460 12.577053 170.025909
3.000000 2.800000 1.160000 -2.953793 21.398727 466.630432
3.000000 2.800000 1.200000 -15.324224 22.477009 740.047729
3.000000 2.840000 0.800000 -39.179596 -15.384060 1771.710083
3.000000 2.840000 0.840000 -35.042530 -5.678570 1260.225098
3.000000 2.840000 0.880000 -52.107632 -0.417061 2715.379150
3.000000 2.840000 0.920000 -74.544510 -21.126076 6003.194824
3.000000 2.840000 0.960000 -72.544296 -63.515739 9296.923828
3.000000 2.840000 1.000000 -33.296768 -96.431114 10407.634766
3.000000 2.840000 1.040000 22.013443 -89.867477 8560.754883
3.000000 2.840000 1.080000 54.655483 -44.925705 5005.541016
3.000000 2.840000 1.120000 43.507114 5.098862 1918.867432
3.000000 2.840000 1.160000 4.148872 24.781027 631.312439
3.000000 2.840000 1.200000 -27.137972 8.115843 802.336426
3.000000 2.880000 0.800000 -24.510635 -29.573599 1475.369019
3.000000 2.880000 0.840000 -54.172523 -7.454140 2990.226562
3.000000 2.880000 0.880000 -107.173546 -33.848999 12631.923828
3.000000 2.880000 0.920000 -123.642273 -115.331848 28588.847656
3.000000 2.880000 0.960000 -62.139061 -198.200790 43144.816406
3.000000 2.880000 1.000000 52.881691 -212.205475 47827.636719
3.000000 2.880000 1.040000 145.289551 -136.812302 39826.656250
3.000000 2.880000 1.080000 153.419144 -23.892899 24108.304688
3.000000 2.880000 1.120000 84.527550 47.550285 9405.936523
3.000000 2.880000 1.160000 4.487350 40.935238 1695.830078
3.000000 2.880000 1.200000 -25.364265 -11.504683 775.703674
3.000000 2.920000 0.800000 -7.271959 -32.126713 1085.007080
3.000000 2.920000 0.840000 -72.242432 -34.934952 6439.419434
3.000000 2.920000 0.880000 -119.679077 -120.686676 28888.355469
3.000000 2.920000 0.920000 -70.740967 -242.832230 63971.777344
3.000000 2.920000 0.960000 77.834930 -298.770325 95321.976562
3.000000 2.920000 1.000000 235.401154 -223.351837 105299.750000
3.000000 2.920000 1.040000 291.531616 -55.644981 88087.046875
3.000000 2.920000 1.080000 214.166382 90.382706 54036.273438
3.000000 2.920000 1.120000 76.182907 125.462433 21544.658203
3.000000 2.920000 1.160000 -14.623970 58.660545 3654.920166
3.000000 2.920000 1.200000 -11.459103 -23.634182 689.885620
3.000000 2.960000 0.800000 5.785666 -26.961525 760.397766
3.000000 2.960000 0.840000 -61.803989 -78.887421 10042.958008
3.000000 2.960000 0.880000 -52.096779 -203.699860 44207.707031
3.000000 2.960000 0.920000 82.635872 -299.140930 96313.984375
3.000000 2.960000 0.960000 275.255249 -258.274170 142471.000000
3.000000 2.960000 1.000000 389.079041 -76.007874 157159.703125
3.000000 2.960000 1.040000 337.674713 133.884018 131949.140625
3.000000 2.960000 1.080000 163.941284 234.262512 81755.671875
3.000000 2.960000 1.120000 0.308441 182.446945 33286.980469
3.000000 2.960000 1.160000 -50.311237 57.656139 5855.451172
3.000000 2.960000 1.200000 3.409547 -23.223436 550.953003
3.000000 3.000000 0.800000 14.134361 -19.181595 567.713745
3.000000 3.000000 0.840000 -15.482082 -107.053482 11700.143555
3.000000 3.000000 0.880000 66.487183 -213.835052 50145.976562
3.000000 3.000000 0.920000 242.525070 -221.677261 107959.218750
3.000000 3.000000 0.960000 391.576538 -74.878082 158938.921875
3.000000 3.000000 1.000000 389.805420 152.777222 175289.140625
3.000000 3.000000 1.040000 225.385880 311.443115 147795.609375
3.000000 3.000000 1.080000 13.698204 303.929138 92560.562500
3.000000 3.000000 1.120000 -104.165634 166.670792 38629.632812
3.000000 3.000000 1.160000 -81.253014 26.897999 7325.554688
3.000000 3.000000 1.200000 10.409984 -17.020130 398.052612
3.000000 3.040000 0.800000 19.771954 -10.024912 491.429016
3.000000 3.040000 0.840000 41.605537 -93.087708 10396.341797
3.000000 3.040000 0.880000 158.821777 -134.563782 43331.769531
3.000000 3.040000 0.920000 299.306885 -52.625370 92354.039062
3.000000 3.040000 0.960000 342.118591 135.737045 135469.671875
3.000000 3.040000 1.000000 227.817856 312.443848 149522.125000
3.000000 3.040000 1.040000 20.653992 355.489288 126799.218750
3.000000 3.040000 1.080000 -142.337036 245.512512 80536.226562
3.000000 3.040000 1.120000 -168.829025 79.129105 34764.656250
3.000000 3.040000 1.160000 -83.128052 -21.833202 7386.961914
3.000000 3.040000 1.200000 11.891726 -14.587774 354.216309
3.000000 3.080000 0.800000 22.137985 1.584831 492.602081
3.000000 3.080000 0.840000 71.563156 -43.012863 6971.391602
3.000000 3.080000 0.880000 165.926880 -20.022079 27932.611328
3.000000 3.080000 0.920000 223.503342 94.215225 58830.250000
3.000000 3.080000 0.960000 171.301239 237.924011 85951.953125
3.000000 3.080000 1.000000 18.923874 307.689575 95030.984375
3.000000 3.080000 1.040000 -139.980789 248.424377 81309.296875
3.000000 3.080000 1.080000 -205.055756 103.549194 52770.296875
3.000000 3.080000 1.120000 -153.144821 -23.681885 24014.167969
3.000000 3.080000 1.160000 -49.957664 -59.935318 6088.010742
3.000000 3.080000 1.200000 17.006369 -16.576738 564.004883
3.000000 3.120000 0.800000 18.271566 14.169442 534.623230
3.000000 3.120000 0.840000 57.452980 8.340158 3370.403320
3.000000 3.120000 0.880000 97.660065 52.428841 12286.271484
3.000000 3.120000 0.920000 88.017433 132.301636 25250.791016
3.000000 3.120000 0.960000 9.696350 191.063934 36599.445312
3.000000 3.120000 1.000000 -98.304718 175.822418 40577.339844
3.000000 3.120000 1.040000 -166.592514 86.792702 35286.039062
3.000000 3.120000 1.080000 -153.232819 -19.415352 23857.251953
3.000000 3.120000 1.120000 -77.953598 -76.998863 12005.587891
3.000000 3.120000 1.160000 -1.292763 -64.216431 4125.421387
3.000000 3.120000 1.200000 29.144867 -13.883663 1042.179443
3.000000 3.160000 0.800000 7.703321 22.571312 568.805298
3.000000 3.160000 0.840000 17.680838 28.312208 1114.193115
3.000000 3.160000 0.880000 18.892776 49.139019 2771.580322
3.000000 3.160000 0.920000 -2.718948 71.593582 5133.033691
3.000000 3.160000 0.960000 -43.325157 72.928635 7195.655273
3.000000 3.160000 1.000000 -79.327209 41.384171 8005.455566
3.000000 3.160000 1.040000 -84.739838 -10.293243 7286.790527
3.000000 3.160000 1.080000 -53.174812 -52.287170 5561.508789
3.000000 3.160000 1.120000 -4.093716 -60.716011 3703.192627
3.000000 3.160000 1.160000 32.651070 -35.732311 2342.890625
3.000000 3.160000 1.200000 39.843121 0.988953 1588.452271
3.000000 3.200000 0.800000 -4.603756 22.674107 535.309692
3.000000 3.200000 0.840000 -12.962429 14.269653 371.647583
3.000000 3.200000 0.880000 -12.607292 2.227783 163.906830
3.000000 3.200000 0.920000 -4.682411 -4.954288 46.469948
3.000000 3.200000 0.960000 3.132111 -4.357155 28.794914
3.000000 3.200000 1.000000 5.272684 -1.342026 29.602230
3.000000 3.200000 1.040000 4.615448 -2.808380 29.189360
3.000000 3.200000 1.080000 9.062653 -8.331779 151.550232
3.000000 3.200000 1.120000 21.621468 -9.322258 554.392334
3.000000 3.200000 1.160000 34.914513 2.039680 1223.183472
3.000000 3.200000 1.200000 36.780895 23.197079 1890.938721
3.040000 2.800000 0.800000 -43.602127 -8.299934 1970.034424
3.040000 2.800000 0.840000 -29.550068 -24.624378 1479.566528
3.040000 2.800000 0.880000 -10.107544 -26.856064 823.410645
3.040000 2.800000 0.920000 3.085573 -17.315384 309.343262
3.040000 2.800000 0.960000 5.869659 -5.526031 64.989922
3.040000 2.800000 1.000000 3.046265 1.552036 11.688544
3.040000 2.800000 1.040000 0.922020 4.934277 25.197206
3.040000 2.800000 1.080000 -0.105755 9.452438 89.359772
3.040000 2.800000 1.120000 -4.646868 15.841599 272.549622
3.040000 2.800000 1.160000 -14.807478 18.804493 572.870361
3.040000 2.800000 1.200000 -25.608061 13.345453 833.873901
3.040000 2.840000 0.800000 -35.115715 -31.340290 2215.327148
3.040000 2.840000 0.840000 -34.943981 -28.649502 2041.875732
3.040000 2.840000 0.880000 -44.526814 -36.955276 3348.329590
3.040000 2.840000 0.920000 -44.621258 -62.624908 5912.935547
3.040000 2.840000 0.960000 -18.474319 -88.929932 8249.833008
3.040000 2.840000 1.000000 26.934280 -89.383698 8714.900391
3.040000 2.840000 1.040000 62.416142 -54.539131 6870.291504
3.040000 2.840000 1.080000 61.943630 -4.702209 3859.124268
3.040000 2.840000 1.120000 27.496674 26.127251 1438.700317
3.040000 2.840000 1.160000 -12.047436 20.462563 563.857178
3.040000 2.840000 1.200000 -27.430635 -8.044741 817.157593
3.040000 2.880000 0.800000 -14.460360 -44.138016 2157.266357
3.040000 2.880000 0.840000 -42.381966 -46.079567 3919.557373
3.040000 2.880000 0.880000 -62.775288 -91.949730 12395.490234
3.040000 2.880000 0.920000 -30.439613 -157.638870 25776.583984
3.040000 2.880000 0.960000 57.684380 -184.770752 37467.718750
3.040000 2.880000 1.000000 149.227478 -135.174423 40540.964844
3.040000 2.880000 1.040000 178.896729 -32.009392 33028.640625
3.040000 2.880000 1.080000 127.704910 56.045593 19449.652344
3.040000 2.880000 1.120000 40.530174 74.652962 7215.759766
3.040000 2.880000 1.160000 -15.734802 29.792095 1135.152954
3.040000 2.880000 1.200000 -11.787024 -24.004091 715.130371
3.040000 2.920000 0.800000 8.575161 -42.415581 1872.614990
3.040000 2.920000 0.840000 -33.162598 -76.180565 6903.236328
3.040000 2.920000 0.880000 -22.403255 -160.899323 26390.498047
3.040000 2.920000 0.920000 76.136475 -224.497040 56195.683594
3.040000 2.920000 0.960000 214.740204 -189.973633 82203.335938
3.040000 2.920000 1.000000 294.422241 -53.859619 89585.312500
3.040000 2.920000 1.040000 252.648071 100.258377 73882.789062
3.040000 2.920000 1.080000 122.093765 171.743408 44402.687500
3.040000 2.920000 1.120000 1.413750 130.277802 16974.302734
3.040000 2.920000 1.160000 -33.506351 36.275337 2438.575684
3.040000 2.920000 1.200000 9.113386 -22.455254 587.292236
3.040000 2.960000 0.800000 25.369528 -29.225952 1497.769165
3.040000 2.960000 0.840000 3.160889 -98.109039 9635.375000
3.040000 2.960000 0.880000 72.751114 -183.653244 39021.242188
3.040000 2.960000 0.920000 220.668930 -186.480072 83469.593750
3.040000 2.960000 0.960000 344.736023 -59.164162 122343.320312
3.040000 2.960000 1.000000 340.016235 135.271912 133909.531250
3.040000 2.960000 1.040000 197.493454 269.001404 111365.421875
3.040000 2.960000 1.080000 16.907982 260.152191 67965.046875
3.040000 2.960000 1.120000 -81.269394 142.039764 26780.009766
3.040000 2.960000 1.160000 -59.117447 24.983509 4119.048340
3.040000 2.960000 1.200000 18.725363 -7.934883 413.601593
3.040000 3.000000 0.800000 32.064964 -10.905581 1147.093628
3.040000 3.000000 0.840000 52.402493 -88.075142 10503.251953
3.040000 3.000000 0.880000 165.297302 -126.378853 43294.812500
3.040000 3.000000 0.920000 301.054901 -44.905907 92650.593750
3.040000 3.000000 0.960000 341.134216 140.026978 135980.109375
3.040000 3.000000 1.000000 227.693359 312.394897 149434.843750
3.040000 3.000000 1.040000 24.895590 353.107971 125305.031250
3.040000 3.000000 1.080000 -132.570374 245.199463 77697.679688
3.040000 3.000000 1.120000 -156.253693 85.301926 31691.634766
3.040000 3.000000 1.160000 -73.490532 -7.967991 5464.347168
3.040000 3.000000 1.200000 13.236071 3.258682 185.812576
3.040000 3.040000 0.800000 28.869110 6.659492 877.774353
3.040000 3.040000 0.840000 83.440552 -44.005440 8898.804688
3.040000 3.040000 0.880000 190.776352 -18.141922 36724.746094
3.040000 3.040000 0.920000 256.634277 112.516663 78521.148438
3.040000 3.040000 0.960000 196.859268 276.860657 115405.390625
3.040000 3.040000 1.000000 23.249702 356.220276 127433.429688
3.040000 3.040000 1.040000 -156.213638 289.032104 107942.257812
3.040000 3.040000 1.080000 -228.292328 127.196129 68296.242188
3.040000 3.040000 1.120000 -170.339249 -11.471478 29147.054688
3.040000 3.040000 1.160000 -60.000114 -47.437660 5850.345215
3.040000 3.040000 1.200000 5.164127 0.736206 27.210211
3.040000 3.080000 0.800000 18.177486 19.094124 695.006592
3.040000 3.080000 0.840000 75.146225 8.328207 5716.313965
3.040000 3.080000 0.880000 135.026428 70.469315 23198.060547
3.040000 3.080000 0.920000 123.397385 184.961578 49437.699219
3.040000 3.080000 0.960000 13.734627 269.395569 72762.609375
3.040000 3.080000 1.000000 -136.927124 249.256073 80877.625000
3.040000 3.080000 1.040000 -230.716080 127.651764 69524.882812
3.040000 3.080000 1.080000 -212.460938 -14.184181 45340.839844
3.040000 3.080000 1.120000 -114.378685 -87.341728 20711.060547
3.040000 3.080000 1.160000 -20.804457 -68.625809 5142.326660
3.040000 3.080000 1.200000 9.091684 -8.557056 155.881927
3.040000 3.120000 0.800000 4.043501 23.598034 573.217102
3.040000 3.120000 0.840000 36.278835 36.188858 2625.787354
3.040000 3.120000 0.880000 46.171341 88.153572 9902.844727
3.040000 3.120000 0.920000 0.745667 144.266083 20813.259766
3.040000 3.120000 0.960000 -87.398529 151.587494 30617.269531
3.040000 3.120000 1.000000 -163.131989 88.205223 34392.207031
3.040000 3.120000 1.040000 -173.774353 -12.674652 30358.171875
3.040000 3.120000 1.080000 -114.489777 -88.474762 20935.693359
3.040000 3.120000 1.120000 -30.959797 -99.257401 10810.540039
3.040000 3.120000 1.160000 21.952614 -57.154266 3748.527344
3.040000 3.120000 1.200000 24.751213 -7.989421 676.453430
3.040000 3.160000 0.800000 -8.199751 20.085320 470.656006
3.040000 3.160000 0.840000 -2.288422 28.230186 802.180298
3.040000 3.160000 0.880000 -10.442841 44.501415 2089.428955
3.040000 3.160000 0.920000 -37.184380 51.390717 4023.684082
3.040000 3.160000 0.960000 -68.633850 33.207047 5813.313477
3.040000 3.160000 1.000000 -81.381104 -7.828751 6684.173340
3.040000 3.160000 1.040000 -61.902046 -50.216774 6353.587891
3.040000 3.160000 1.080000 -18.847778 -69.083923 5127.827148
3.040000 3.160000 1.120000 23.227547 -55.413349 3610.158203
3.040000 3.160000 1.160000 42.828205 -21.675575 2304.085693
3.040000 3.160000 1.200000 36.148521 9.919974 1405.121460
3.040000 3.200000 0.800000 -14.243582 12.350344 355.410614
3.040000 3.200000 0.840000 -15.726183 2.396030 253.053802
3.040000 3.200000 0.880000 -9.343815 -6.395126 128.204514
3.040000 3.200000 0.920000 0.651966 -8.036026 65.002769
3.040000 3.200000 0.960000 6.887884 -3.377716 58.851906
3.040000 3.200000 1.000000 6.880997 0.657547 47.780483
3.040000 3.200000 1.040000 6.083923 -1.021984 38.058575
3.040000 3.200000 1.080000 11.831741 -5.031601 165.307098
3.040000 3.200000 1.120000 24.065228 -2.070297 583.421326
3.040000 3.200000 1.160000 33.142502 13.005405 1267.565918
3.040000 3.200000 1.200000 28.145590 33.876465 1939.789062
3.080000 2.800000 0.800000 -36.887306 -20.419064 1777.611572
3.080000 2.800000 0.840000 -20.218174 -32.505680 1465.393799
3.080000 2.800000 0.880000 -0.531088 -30.786709 948.103455
3.080000 2.800000 0.920000 11.920319 -18.109703 470.055328
3.080000 2.800000 0.960000 13.318405 -3.200655 187.624100
3.080000 2.800000 1.000000 7.297249 7.005959 102.333298
3.080000 2.800000 1.040000 -0.488045 11.537304 133.347565
3.080000 2.800000 1.080000 -7.675528 12.914185 225.689896
3.080000 2.800000 1.120000 -15.042048 12.225742 375.731995
3.080000 2.800000 1.160000 -22.443651 7.969961 567.237732
3.080000 2.800000 1.200000 -26.809319 -0.501583 718.991150
3.080000 2.840000 0.800000 -22.741812 -42.057178 2285.996338
3.080000 2.840000 0.840000 -18.128239 -46.248592 2467.565430
3.080000 2.840000 0.880000 -12.313892 -56.214508 3311.702637
3.080000 2.840000 0.920000 4.815063 -67.537979 4584.563477
3.080000 2.840000 0.960000 33.572571 -65.948380 5476.306641
3.080000 2.840000 1.000000 58.912380 -41.986870 5233.565430
3.080000 2.840000 1.040000 61.707993 -4.066498 3824.412842
3.080000 2.840000 1.080000 37.206131 25.118313 2015.225830
3.080000 2.840000 1.120000 1.789616 27.447891 756.589417
3.080000 2.840000 1.160000 -20.126347 5.618891 436.641754
3.080000 2.840000 1.200000 -17.180779 -19.574089 678.324097
3.080000 2.880000 0.800000 3.358521 -50.339092 2545.303711
3.080000 2.880000 0.840000 -5.702721 -64.496986 4192.382324
3.080000 2.880000 0.880000 7.355930 -98.373550 9731.464844
3.080000 2.880000 0.920000 58.156891 -119.955505 17771.546875
3.080000 2.880000 0.960000 123.816994 -94.368622 24236.083984
3.080000 2.880000 1.000000 157.128937 -21.667854 25158.998047
3.080000 2.880000 1.040000 128.987289 55.953491 19768.513672
3.080000 2.880000 1.080000 57.696083 88.412407 11145.591797
3.080000 2.880000 1.120000 -5.420086 61.713547 3837.939209
3.080000 2.880000 1.160000 -21.250458 8.647159 526.355347
3.080000 2.880000 1.200000 4.977909 -23.778511 590.197205
3.080000 2.920000 0.800000 29.437506 -40.406548 2499.255859
3.080000 2.920000 0.840000 23.104597 -75.698280 6264.051758
3.080000 2.920000 0.880000 68.191887 -119.286438 18879.386719
3.080000 2.920000 0.920000 156.927490 -113.038910 37404.031250
3.080000 2.920000 0.960000 228.056137 -29.443558 52876.523438
3.080000 2.920000 1.000000 218.644577 92.011513 56271.566406
3.080000 2.920000 1.040000 124.945625 172.406204 45335.308594
3.080000 2.920000 1.080000 10.517414 162.094116 26385.117188
3.080000 2.920000 1.120000 -48.963219 84.043137 9460.645508
3.080000 2.920000 1.160000 -31.000511 9.452507 1050.381592
3.080000 2.920000 1.200000 21.195127 -8.950729 529.348999
3.080000 2.960000 0.800000 43.686821 -16.940474 2195.518066
3.080000 2.960000 0.840000 59.992165 -64.435226 7750.958008
3.080000 2.960000 0.880000 139.123520 -85.211578 26616.367188
3.080000 2.960000 0.920000 232.604599 -22.100883 54593.347656
3.080000 2.960000 0.960000 256.296204 112.989868 78454.453125
3.080000 2.960000 1.000000 169.558167 236.312805 84593.718750
3.080000 2.960000 1.040000 20.221180 262.275330 69197.250000
3.080000 2.960000 1.080000 -93.082069 180.359650 41193.875000
3.080000 2.960000 1.120000 -106.908043 63.158894 15418.375977
3.080000 2.960000 1.160000 -43.938118 -1.989117 1934.514771
3.080000 2.960000 1.200000 18.318296 10.655134 449.091888
3.080000 3.000000 0.800000 40.844376 8.984228 1748.979370
3.080000 3.000000 0.840000 83.708557 -27.690590 7773.891602
3.080000 3.000000 0.880000 169.249649 -3.167286 28655.474609
3.080000 3.000000 0.920000 220.244659 106.695930 59891.734375
3.080000 3.000000 0.960000 166.958176 243.048676 86947.695312
3.080000 3.000000 1.000000 19.927950 307.041443 94671.570312
3.080000 3.000000 1.040000 -129.679810 248.292206 78465.875000
3.080000 3.000000 1.080000 -187.442642 112.314636 47749.320312
3.080000 3.000000 1.120000 -136.861618 -0.923271 18731.953125
3.080000 3.000000 1.160000 -46.103897 -26.327225 2818.692139
3.080000 3.000000 1.200000 2.420128 16.437025 276.032806
3.080000 3.040000 0.800000 24.357906 26.242203 1281.960815
3.080000 3.040000 0.840000 76.815369 17.341465 6201.327637
3.080000 3.040000 0.880000 132.828644 78.209991 23760.251953
3.080000 3.040000 0.920000 119.573547 189.609192 50249.476562
3.080000 3.040000 0.960000 11.122238 270.933380 73528.601562
3.080000 3.040000 1.000000 -135.934387 249.677109 80816.820312
3.080000 3.040000 1.040000 -225.647339 130.612000 67976.218750
3.080000 3.040000 1.080000 -206.057526 -5.116383 42485.878906
3.080000 3.040000 1.120000 -112.083435 -71.544647 17681.332031
3.080000 3.040000 1.160000 -27.589771 -50.278515 3289.124512
3.080000 3.040000 1.200000 -7.185400 4.919321 75.829697
3.080000 3.080000 0.800000 3.729067 29.383804 877.313904
3.080000 3.080000 0.840000 42.582016 44.596531 3802.078613
3.080000 3.080000 0.880000 54.595127 108.274422 14703.978516
3.080000 3.080000 0.920000 -1.072670 176.907135 31297.285156
3.080000 3.080000 0.960000 -108.146179 185.519562 46113.101562
3.080000 3.080000 1.000000 -198.479645 108.922195 51258.210938
3.080000 3.080000 1.040000 -209.516144 -10.097435 43998.972656
3.080000 3.080000 1.080000 -139.423325 -95.685104 28594.503906
3.080000 3.080000 1.120000 -46.354195 -104.003822 12965.505859
3.080000 3.080000 1.160000 5.959625 -55.822762 3151.697754
3.080000 3.080000 1.200000 1.637146 -8.255860 70.839478
3.080000 3.120000 0.800000 -11.166300 20.898888 561.449768
3.080000 3.120000 0.840000 4.148401 40.770966 1679.480835
3.080000 3.120000 0.880000 -10.971943 77.592751 6141.018066
3.080000 3.120000 0.920000 -63.899315 94.344772 12984.058594
3.080000 3.120000 0.960000 -124.253517 61.499016 19221.066406
3.080000 3.120000 1.000000 -146.890656 -12.058556 21722.273438
3.080000 3.120000 1.040000 -111.738770 -82.675797 19320.839844
3.080000 3.120000 1.080000 -42.010803 -108.231506 13478.965820
3.080000 3.120000 1.120000 16.657959 -82.565994 7094.631348
3.080000 3.120000 1.160000 35.117500 -36.058865 2533.480469
3.080000 3.120000 1.200000 20.442610 -4.725325 440.229004
3.080000 3.160000 0.800000 -15.660141 8.913935 324.698242
3.080000 3.160000 0.840000 -14.911182 16.400272 491.312286
3.080000 3.160000 0.880000 -27.130749 23.002569 1265.195679
3.080000 3.160000 0.920000 -47.105785 15.187401 2449.612305
3.080000 3.160000 0.960000 -58.814423 -10.615761 3571.830566
3.080000 3.160000 1.000000 -48.748398 -42.489845 4181.792969
3.080000 3.160000 1.040000 -18.113457 -61.443920 4103.452637
3.080000 3.160000 1.080000 17.437920 -56.304756 3474.306641
3.080000 3.160000 1.120000 39.927887 -31.665283 2596.926270
3.080000 3.160000 1.160000 41.751740 -2.745408 1750.744995
3.080000 3.160000 1.200000 28.418602 16.755165 1088.352539
3.080000 3.200000 0.800000 -12.513906 1.522701 158.916473
3.080000 3.200000 0.840000 -10.315939 -4.992683 131.345490
3.080000 3.200000 0.880000 -3.165120 -9.259499 95.756294
3.080000 3.200000 0.920000 5.241333 -7.715851 87.005928
3.080000 3.200000 0.960000 9.702248 -1.981682 98.060669
3.080000 3.200000 1.000000 9.325058 2.460056 93.008583
3.080000 3.200000 1.040000 8.931870 2.542558 86.242889
3.080000 3.200000 1.080000 13.556122 1.966621 187.636032
3.080000 3.200000 1.120000 21.501299 7.880436 524.407104
3.080000 3.200000 1.160000 24.137032 22.416924 1085.114746
3.080000 3.200000 1.200000 13.977398 38.075478 1645.109619
3.120000 2.800000 0.800000 -26.508802 -25.505833 1353.264160
3.120000 2.800000 0.840000 -9.192135 -33.426804 1201.846558
3.120000 2.800000 0.880000 9.625267 -27.705788 860.256409
3.120000 2.800000 0.920000 19.605957 -11.285388 511.753540
3.120000 2.800000 0.960000 16.371773 6.289942 307.598297
3.120000 2.800000 1.000000 3.966442 16.174942 277.361420
3.120000 2.800000 1.040000 -9.471849 15.979286 345.053528
3.120000 2.800000 1.080000 -18.130705 9.431293 417.671753
3.120000 2.800000 1.120000 -21.286512 1.594477 455.657959
3.120000 2.800000 1.160000 -21.120674 -5.050642 471.591858
3.120000 2.800000 1.200000 -19.240173 -10.558924 481.675140
3.120000 2.840000 0.800000 -7.660786 -43.626938 1961.997314
3.120000 2.840000 0.840000 5.383272 -47.265251 2262.983643
3.120000 2.840000 0.880000 20.930252 -46.022514 2556.147217
3.120000 2.840000 0.920000 37.016640 -36.636360 2712.454590
3.120000 2.840000 0.960000 47.336266 -17.602524 2550.570801
3.120000 2.840000 1.000000 44.420620 6.066765 2009.997192
3.120000 2.840000 1.040000 26.715855 23.343479 1258.654907
3.120000 2.840000 1.080000 2.554054 24.608421 612.097595
3.120000 2.840000 1.120000 -14.424921 10.011070 308.299866
3.120000 2.840000 1.160000 -15.559008 -9.611428 334.462280
3.120000 2.840000 1.200000 -3.989441 -21.164982 463.872101
3.120000 2.880000 0.800000 21.350822 -44.722420 2455.952393
3.120000 2.880000 0.840000 30.792427 -51.292404 3579.084229
3.120000 2.880000 0.880000 53.464424 -55.437923 5931.807617
3.120000 2.880000 0.920000 84.620468 -40.424286 8794.746094
3.120000 2.880000 0.960000 103.060379 -0.543587 10621.737305
3.120000 2.880000 1.000000 88.993286 47.123760 10140.454102
3.120000 2.880000 1.040000 45.007267 73.330887 7403.073242
3.120000 2.880000 1.080000 -2.155323 61.822254 3826.636719
3.120000 2.880000 1.120000 -23.102959 24.757137 1146.662598
3.120000 2.880000 1.160000 -10.831219 -7.707218 176.716507
3.120000 2.880000 1.200000 15.030339 -14.185278 427.133209
3.120000 2.920000 0.800000 45.225647 -25.246838 2682.761963
3.120000 2.920000 0.840000 58.222366 -36.843857 4747.313477
3.120000 2.920000 0.880000 94.300995 -35.312244 10139.632812
3.120000 2.920000 0.920000 132.050842 2.832485 17445.449219
3.120000 2.920000 0.960000 134.345184 70.250900 22983.818359
3.120000 2.920000 1.000000 84.666618 127.072060 23315.744141
3.120000 2.920000 1.040000 8.243660 133.698975 17943.373047
3.120000 2.920000 1.080000 -46.220638 87.583801 9807.269531
3.120000 2.920000 1.120000 -48.661522 26.787397 3085.508301
3.120000 2.920000 1.160000 -12.746104 -4.395163 181.780640
3.120000 2.920000 1.200000 20.368324 5.881196 449.457092
3.120000 2.960000 0.800000 50.409771 5.567994 2572.147461
3.120000 2.960000 0.840000 72.362381 -4.798880 5259.343262
3.120000 2.960000 0.880000 114.164612 15.757484 13281.856445
3.120000 2.960000 0.920000 135.299347 80.169495 24733.062500
3.120000 2.960000 0.960000 98.334793 156.001129 34006.082031
3.120000 2.960000 1.000000 10.358459 188.267883 35552.093750
3.120000 2.960000 1.040000 -75.899689 149.626740 28148.925781
3.120000 2.960000 1.080000 -106.385757 68.118454 15958.052734
3.120000 2.960000 1.120000 -73.279160 3.076187 5379.298340
3.120000 2.960000 1.160000 -18.890270 -7.958992 420.187866
3.120000 2.960000 1.200000 6.991919 20.927544 486.849030
3.120000 3.000000 0.800000 34.479847 31.243458 2165.013428
3.120000 3.000000 0.840000 62.222290 30.839645 4822.697266
3.120000 3.000000 0.880000 92.059135 71.825897 13633.843750
3.120000 3.000000 0.920000 78.046387 143.356384 26642.291016
3.120000 3.000000 0.960000 3.217490 193.862473 37593.011719
3.120000 3.000000 1.000000 -95.168045 176.139603 40082.117188
3.120000 3.000000 1.040000 -153.396805 94.247421 32413.156250
3.120000 3.000000 1.080000 -137.671112 3.586605 18966.199219
3.120000 3.000000 1.120000 -73.569962 -38.000408 6856.570312
3.120000 3.000000 1.160000 -19.457825 -20.216204 787.301819
3.120000 3.000000 1.200000 -11.501062 17.202030 428.184265
3.120000 3.040000 0.800000 7.899122 39.098225 1591.067261
3.120000 3.040000 0.840000 31.606129 50.949059 3594.753906
3.120000 3.040000 0.880000 36.793655 97.872017 10932.705078
3.120000 3.040000 0.920000 -8.351048 148.256042 22049.593750
3.120000 3.040000 0.960000 -92.054161 152.338745 31681.062500
3.120000 3.040000 1.000000 -161.525864 90.729691 34322.484375
3.120000 3.040000 1.040000 -168.305801 -2.362890 28332.427734
3.120000 3.040000 1.080000 -112.600487 -67.031403 17172.078125
3.120000 3.040000 1.120000 -42.144859 -70.394913 6731.632812
3.120000 3.040000 1.160000 -7.003025 -32.263725 1089.990356
3.120000 3.040000 1.200000 -16.087631 -0.110773 258.824158
3.120000 3.080000 0.800000 -13.560903 28.631161 1003.641418
3.120000 3.080000 0.840000 -1.674116 45.866337 2106.523682
3.120000 3.080000 0.880000 -17.344477 79.435715 6610.863770
3.120000 3.080000 0.920000 -68.711937 94.116585 13579.261719
3.120000 3.080000 0.960000 -126.588120 61.195755 19769.472656
3.120000 3.080000 1.000000 -147.170990 -10.040649 21760.115234
3.120000 3.080000 1.040000 -112.301186 -76.285194 18430.988281
3.120000 3.080000 1.080000 -47.004326 -97.583641 11731.974609
3.120000 3.080000 1.120000 3.553370 -71.604736 5139.864746
3.120000 3.080000 1.160000 14.301582 -31.483500 1195.745972
3.120000 3.080000 1.200000 -1.964939 -11.581667 137.996002
3.120000 3.120000 0.800000 -20.062202 10.805860 519.258545
3.120000 3.120000 0.840000 -19.154701 23.414499 915.141357
3.120000 3.120000 0.880000 -38.807739 35.152061 2741.708008
3.120000 3.120000 0.920000 -70.784744 24.208336 5596.523438
3.120000 3.120000 0.960000 -89.355911 -14.375187 8191.125000
3.120000 3.120000 1.000000 -74.497986 -60.328049 9189.422852
3.120000 3.120000 1.040000 -31.475471 -84.442528 8121.246094
3.120000 3.120000 1.080000 13.098106 -73.938202 5638.418457
3.120000 3.120000 1.120000 34.645451 -42.131424 2975.364258
3.120000 3.120000 1.160000 30.190660 -13.968838 1106.604370
3.120000 3.120000 1.200000 16.012573 -3.366480 267.735687
3.120000 3.160000 0.800000 -13.879885 -1.134855 193.939102
3.120000 3.160000 0.840000 -16.261753 2.008444 268.478455
3.120000 3.160000 0.880000 -24.559986 -0.578030 603.527039
3.120000 3.160000 0.920000 -30.359598 -13.266129 1097.695312
3.120000 3.160000 0.960000 -24.606773 -30.755417 1551.388916
3.120000 3.160000 1.000000 -6.391800 -41.880718 1794.849609
3.120000 3.160000 1.040000 15.816986 -39.018520 1772.621948
3.120000 3.160000 1.080000 31.189928 -23.895113 1543.788086
3.120000 3.160000 1.120000 34.618446 -4.933750 1222.778687
3.120000 3.160000 1.160000 28.482466 10.040736 912.067261
3.120000 3.160000 1.200000 18.230339 18.275444 666.337158
3.120000 3.200000 0.800000 -5.846860 -1.848834 37.603958
3.120000 3.200000 0.840000 -4.408737 -5.416797 48.778648
3.120000 3.200000 0.880000 1.107729 -8.024349 65.617249
3.120000 3.200000 0.920000 8.322075 -5.848450 103.461288
3.120000 3.200000 0.960000 12.381294 0.715355 153.808182
3.120000 3.200000 1.000000 11.402023 7.045381 179.643524
3.120000 3.200000 1.040000 8.779892 9.577244 168.810104
3.120000 3.200000 1.080000 9.055090 10.278755 187.647461
3.120000 3.200000 1.120000 11.729288 14.537033 348.901550
3.120000 3.200000 1.160000 10.576350 24.092739 692.319275
3.120000 3.200000 1.200000 0.356962 33.033199 1091.319702
3.160000 2.800000 0.800000 -18.138084 -24.141098 911.782715
3.160000 2.800000 0.840000 -1.861651 -28.477026 814.406738
3.160000 2.800000 0.880000 14.163937 -19.371346 575.866089
3.160000 2.800000 0.920000 19.186432 -0.994064 369.107330
3.160000 2.800000 0.960000 9.727948 15.211533 326.023682
3.160000 2.800000 1.000000 -7.420692 19.504536 435.493591
3.160000 2.800000 1.040000 -20.975855 11.260731 566.790527
3.160000 2.800000 1.080000 -24.261230 -1.725569 591.584900
3.160000 2.800000 1.120000 -19.291471 -10.802387 488.852417
3.160000 2.800000 1.160000 -12.873440 -13.344183 343.792664
3.160000 2.800000 1.200000 -9.500295 -12.889782 256.402100
3.160000 2.840000 0.800000 3.416305 -37.166901 1393.049683
3.160000 2.840000 0.840000 20.329554 -33.303188 1522.393066
3.160000 2.840000 0.880000 32.345680 -19.051388 1409.198486
3.160000 2.840000 0.920000 33.209839 -0.052490 1102.896240
3.160000 2.840000 0.960000 22.423193 15.033163 728.795593
3.160000 2.840000 1.000000 5.672382 19.697956 420.185364
3.160000 2.840000 1.040000 -8.726601 13.278826 252.480774
3.160000 2.840000 1.080000 -14.766270 0.765713 218.629044
3.160000 2.840000 1.120000 -11.724483 -10.772694 253.514404
3.160000 2.840000 1.160000 -3.552925 -16.474667 284.037933
3.160000 2.840000 1.200000 4.427221 -15.863955 271.265350
3.160000 2.880000 0.800000 31.322811 -30.437361 1907.551392
3.160000 2.880000 0.840000 43.612854 -20.033417 2303.418945
3.160000 2.880000 0.880000 50.562931 -3.610937 2569.648926
3.160000 2.880000 0.920000 48.429173 16.017918 2601.958496
3.160000 2.880000 0.960000 35.138496 32.717056 2305.119629
3.160000 2.880000 1.000000 13.868790 38.803459 1698.051758
3.160000 2.880000 1.040000 -6.230103 30.424068 964.438110
3.160000 2.880000 1.080000 -15.025066 12.136045 373.036194
3.160000 2.880000 1.120000 -9.087556 -4.801748 105.640457
3.160000 2.880000 1.160000 5.006119 -10.507526 135.469330
3.160000 2.880000 1.200000 15.789665 -4.182690 266.808411
3.160000 2.920000 0.800000 47.902260 -4.046164 2310.997803
3.160000 2.920000 0.840000 53.097065 8.401345 2889.880859
3.160000 2.920000 0.880000 55.346252 25.079851 3692.206787
3.160000 2.920000 0.920000 48.755104 46.022377 4495.119141
3.160000 2.920000 0.960000 28.230787 63.183319 4789.109375
3.160000 2.920000 1.000000 -1.502378 64.610306 4176.749023
3.160000 2.920000 1.040000 -25.466560 46.106842 2774.386475
3.160000 2.920000 1.080000 -29.786268 18.190592 1218.119385
3.160000 2.920000 1.120000 -14.645417 -0.795837 215.121613
3.160000 2.920000 1.160000 4.847224 -0.329464 23.604126
3.160000 2.920000 1.200000 12.123963 13.150434 319.924438
3.160000 2.960000 0.800000 41.205711 27.425602 2450.074219
3.160000 2.960000 0.840000 40.436867 37.499199 3041.330078
3.160000 2.960000 0.880000 38.137993 53.231697 4288.120117
3.160000 2.960000 0.920000 24.191355 73.080284 5925.949707
3.160000 2.960000 0.960000 -5.570176 83.625488 7024.249023
3.160000 2.960000 1.000000 -39.526993 71.491226 6673.378906
3.160000 2.960000 1.040000 -57.190865 39.118881 4801.082031
3.160000 2.960000 1.080000 -47.959740 6.365281 2340.653564
3.160000 2.960000 1.120000 -22.497381 -6.128122 543.686035
3.160000 2.960000 1.160000 -3.600539 4.148004 30.169817
3.160000 2.960000 1.200000 -4.841134 19.989826 423.029724
3.160000 3.000000 0.800000 15.013567 44.906532 2242.003906
3.160000 3.000000 0.840000 11.521627 50.535679 2686.602539
3.160000 3.000000 0.880000 4.730360 63.488602 4053.178711
3.160000 3.000000 0.920000 -16.413696 76.427887 6110.630859
3.160000 3.000000 0.960000 -49.463520 72.699333 7731.833008
3.160000 3.000000 1.000000 -75.617722 44.674767 7713.875000
3.160000 3.000000 1.040000 -76.053314 5.527064 5814.654785
3.160000 3.000000 1.080000 -51.274757 -20.219799 3037.941162
3.160000 3.000000 1.120000 -22.284634 -19.232616 866.498413
3.160000 3.000000 1.160000 -10.983892 -1.765998 123.764648
3.160000 3.000000 1.200000 -19.627285 9.469316 474.898254
3.160000 3.040000 0.800000 -13.500974 39.357147 1731.261230
3.160000 3.040000 0.840000 -16.733704 41.119217 1970.806885
3.160000 3.040000 0.880000 -26.563686 48.844810 3091.444824
3.160000 3.040000 0.920000 -49.108124 50.156078 4927.240234
3.160000 3.040000 0.960000 -73.920563 31.936447 6484.186035
3.160000 3.040000 1.000000 -81.589081 -2.852772 6664.916504
3.160000 3.040000 1.040000 -63.371738 -34.254303 5189.334473
3.160000 3.040000 1.080000 -31.753788 -43.115967 2867.289551
3.160000 3.040000 1.120000 -9.550956 -29.473358 959.899597
3.160000 3.040000 1.160000 -8.234773 -11.888651 209.151505
3.160000 3.040000 1.200000 -18.124649 -8.193563 395.637360
3.160000 3.080000 0.800000 -27.205257 18.427896 1079.713379
3.160000 3.080000 0.840000 -28.983374 18.148966 1169.420898
3.160000 3.080000 0.880000 -38.422272 19.370991 1851.506348
3.160000 3.080000 0.920000 -53.921009 10.467985 3017.053711
3.160000 3.080000 0.960000 -62.234123 -12.682983 4033.944336
3.160000 3.080000 1.000000 -51.732521 -39.202011 4213.051270
3.160000 3.080000 1.040000 -25.729485 -52.037186 3369.875000
3.160000 3.080000 1.080000 -0.841846 -44.461189 1977.506104
3.160000 3.080000 1.120000 8.594175 -26.590237 780.900574
3.160000 3.080000 1.160000 3.679261 -14.792765 232.362839
3.160000 3.080000 1.200000 -2.099813 -15.360036 240.339920
3.160000 3.120000 0.800000 -22.174519 -0.712927 492.217560
3.160000 3.120000 0.840000 -22.948923 -1.765179 529.768921
3.160000 3.120000 0.880000 -28.195238 -5.526583 825.514526
3.160000 3.120000 0.920000 -31.904552 -16.996113 1306.768311
3.160000 3.120000 0.960000 -25.813526 -32.321106 1710.992065
3.160000 3.120000 1.000000 -9.054953 -41.235519 1782.360229
3.160000 3.120000 1.040000 9.596327 -37.089333 1467.708008
3.160000 3.120000 1.080000 19.720741 -23.590015 945.396484
3.160000 3.120000 1.120000 18.940052 -10.895617 477.440063
3.160000 3.120000 1.160000 13.927693 -5.450390 223.687378
3.160000 3.120000 1.200000 12.184371 -4.659261 170.167603
3.160000 3.160000 0.800000 -9.173427 -6.049323 120.746063
3.160000 3.160000 0.840000 -9.675510 -8.017139 157.890030
3.160000 3.160000 0.880000 -9.010100 -13.032547 251.029175
3.160000 3.160000 0.920000 -3.530279 -18.686668 361.654449
3.160000 3.160000 0.960000 6.195419 -19.952723 436.494354
3.160000 3.160000 1.000000 15.170361 -14.561247 442.169739
3.160000 3.160000 1.040000 18.778036 -5.540035 383.306641
3.160000 3.160000 1.080000 17.161489 1.998732 298.511658
3.160000 3.160000 1.120000 14.189648 6.103031 238.593079
3.160000 3.160000 1.160000 12.427470 9.112919 237.487305
3.160000 3.160000 1.200000 10.228146 13.564700 288.616028
3.160000 3.200000 0.800000 -2.599020 0.200774 6.795215
3.160000 3.200000 0.840000 -2.455307 -3.606660 19.036528
3.160000 3.200000 0.880000 2.934589 -6.358953 49.048096
3.160000 3.200000 0.920000 10.255100 -3.073183 114.611542
3.160000 3.200000 0.960000 13.086315 5.566918 202.242233
3.160000 3.200000 1.000000 8.883228 13.360471 257.413940
3.160000 3.200000 1.040000 1.951056 15.163477 233.737656
3.160000 3.200000 1.080000 -1.375091 12.572436 159.957031
3.160000 3.200000 1.120000 -0.106592 11.905270 141.746811
3.160000 3.200000 1.160000 0.105047 16.436520 270.170227
3.160000 3.200000 1.200000 -6.315189 21.791666 514.758301
3.200000 2.800000 0.800000 -14.878362 -20.444695 639.351196
3.200000 2.800000 0.840000 -1.118417 -22.753756 518.984253
3.200000 2.800000 0.880000 10.796166 -12.836533 281.333771
3.200000 2.800000 0.920000 10.948949 3.540898 132.417435
3.200000 2.800000 0.960000 -1.713125 14.322054 208.056030
3.200000 2.800000 1.000000 -17.769394 11.548759 449.125214
3.200000 2.800000 1.040000 -25.501749 -1.695894 653.215271
3.200000 2.800000 1.080000 -21.013309 -14.594032 654.544922
3.200000 2.800000 1.120000 -10.612145 -18.710518 462.701111
3.200000 2.800000 1.160000 -3.606320 -14.883892 234.535797
3.200000 2.800000 1.200000 -3.261059 -10.564661 122.246567
3.200000 2.840000 0.800000 6.673270 -28.278091 844.182983
3.200000 2.840000 0.840000 19.434044 -17.773979 693.596436
3.200000 2.840000 0.880000 20.419830 -0.389770 417.121399
3.200000 2.840000 0.920000 8.185431 12.122045 213.945251
3.200000 2.840000 0.960000 -8.722241 11.425941 206.629639
3.200000 2.840000 1.000000 -18.782986 -0.788128 353.421692
3.200000 2.840000 1.040000 -16.703629 -14.913738 501.430786
3.200000 2.840000 1.080000 -6.591626 -21.902031 523.148499
3.200000 2.840000 1.120000 3.074676 -20.045017 411.256348
3.200000 2.840000 1.160000 7.163091 -14.392332 258.449097
3.200000 2.840000 1.200000 7.012575 -10.532328 160.106125
3.200000 2.880000 0.800000 29.956535 -15.917081 1150.747437
3.200000 2.880000 0.840000 30.761694 3.380484 957.709473
3.200000 2.880000 0.880000 17.408630 17.136328 596.714111
3.200000 2.880000 0.920000 -0.714725 16.830524 283.777374
3.200000 2.880000 0.960000 -11.673193 4.543070 156.902924
3.200000 2.880000 1.000000 -10.182198 -9.871612 201.125854
3.200000 2.880000 1.040000 -0.236434 -17.301182 299.386810
3.200000 2.880000 1.080000 9.944998 -15.646534 343.717010
3.200000 2.880000 1.120000 14.922742 -9.145576 306.329803
3.200000 2.880000 1.160000 14.771406 -3.082953 227.699036
3.200000 2.880000 1.200000 12.592379 0.374731 158.708420
3.200000 2.920000 0.800000 37.280251 12.100930 1536.249634
3.200000 2.920000 0.840000 22.075594 28.107536 1277.365479
3.200000 2.920000 0.880000 1.177333 27.969467 783.677185
3.200000 2.920000 0.920000 -11.426849 14.082530 328.890564
3.200000 2.920000 0.960000 -9.719229 -1.946933 98.253960
3.200000 2.920000 1.000000 1.341355 -9.629798 94.532242
3.200000 2.920000 1.040000 12.097529 -6.895781 193.902008
3.200000 2.920000 1.080000 16.443535 1.074786 271.544983
3.200000 2.920000 1.120000 14.609241 8.182987 280.391205
3.200000 2.920000 1.160000 10.023036 11.830347 240.418365
3.200000 2.920000 1.200000 5.312966 12.487980 184.177261
3.200000 2.960000 0.800000 21.062023 37.698818 1864.809814
3.200000 2.960000 0.840000 -3.006339 39.142849 1541.200684
3.200000 2.960000 0.880000 -18.976572 23.733925 923.409485
3.200000 2.960000 0.920000 -18.190741 4.417388 350.416351
3.200000 2.960000 0.960000 -5.418195 -5.491295 59.511162
3.200000 2.960000 1.000000 7.495705 -2.398297 61.937416
3.200000 2.960000 1.040000 12.196845 7.557609 205.880478
3.200000 2.960000 1.080000 8.529670 16.106712 332.181458
3.200000 2.960000 1.120000 1.244284 19.316025 374.657074
3.200000 2.960000 1.160000 -5.537791 17.795050 347.330933
3.200000 2.960000 1.200000 -10.106823 13.315612 279.453369
3.200000 3.000000 0.800000 -8.478099 43.314777 1948.048096
3.200000 3.000000 0.840000 -28.117027 28.604095 1608.761475
3.200000 3.000000 0.880000 -30.333307 6.405483 961.139771
3.200000 3.000000 0.920000 -17.227472 -7.673860 355.673920
3.200000 3.000000 0.960000 -1.246950 -6.733325 46.892559
3.200000 3.000000 1.000000 6.288897 4.186299 57.075317
3.200000 3.000000 1.040000 2.953784 14.997424 233.647568
3.200000 3.000000 1.080000 -6.174468 19.159626 405.215332
3.200000 3.000000 1.120000 -14.892012 16.303123 487.563843
3.200000 3.000000 1.160000 -19.829176 9.184081 477.543579
3.200000 3.000000 1.200000 -19.882700 0.613666 395.698334
3.200000 3.040000 0.800000 -31.100321 26.633738 1676.585938
3.200000 3.040000 0.840000 -37.154907 4.736526 1402.921875
3.200000 3.040000 0.880000 -26.473764 -12.911080 867.556213
3.200000 3.040000 0.920000 -8.986966 -16.349070 348.057648
3.200000 3.040000 0.960000 2.738897 -7.114754 58.121284
3.200000 3.040000 1.000000 2.929437 5.414368 37.896980
3.200000 3.040000 1.040000 -5.460365 12.452099 184.870346
3.200000 3.040000 1.080000 -15.503492 11.038624 362.209503
3.200000 3.040000 1.120000 -21.637115 3.303719 479.079315
3.200000 3.040000 1.160000 -21.392601 -6.652328 501.896820
3.200000 3.040000 1.200000 -14.792168 -14.554110 430.630341
3.200000 3.080000 0.800000 -33.440956 2.232769 1123.282715
3.200000 3.080000 0.840000 -27.261951 -15.248104 975.718689
3.200000 3.080000 0.880000 -11.968361 -22.712448 659.096924
3.200000 3.080000 0.920000 2.160214 -17.818542 322.166992
3.200000 3.080000 0.960000 7.463727 -6.184915 93.960403
3.200000 3.080000 1.000000 3.071033 3.862108 24.347118
3.200000 3.080000 1.040000 -6.312365 6.718782 84.987984
3.200000 3.080000 1.080000 -14.287659 1.706457 207.049179
3.200000 3.080000 1.120000 -16.078110 -7.772840 318.922668
3.200000 3.080000 1.160000 -10.309717 -16.211575 369.105408
3.200000 3.080000 1.200000 0.352133 -18.409155 339.020966
3.200000 3.120000 0.800000 -19.564121 -11.702613 519.705994
3.200000 3.120000 0.840000 -10.011396 -19.829496 493.436981
3.200000 3.120000 0.880000 2.035087 -19.871471 399.016937
3.200000 3.120000 0.920000 10.621641 -12.553709 270.414856
3.200000 3.120000 0.960000 11.966898 -2.261182 148.319595
3.200000 3.120000 1.000000 6.206626 5.263432 66.225929
3.200000 3.120000 1.040000 -2.528492 5.857713 40.706070
3.200000 3.120000 1.080000 -8.121994 -0.457839 66.176407
3.200000 3.120000 1.120000 -6.227360 -8.898731 117.967422
3.200000 3.120000 1.160000 2.292703 -12.680335 166.047379
3.200000 3.120000 1.200000 11.315640 -7.986530 191.828384
3.200000 3.160000 0.800000 -5.497686 -9.115384 113.314781
3.200000 3.160000 0.840000 -0.005292 -11.940100 142.566010
3.200000 3.160000 0.880000 7.305128 -10.940473 173.058838
3.200000 3.160000 0.920000 13.099051 -4.756152 194.206116
3.200000 3.160000 0.960000 13.211614 4.400507 193.911209
3.200000 3.160000 1.000000 6.672194 10.922847 163.826752
3.200000 3.160000 1.040000 -2.016318 10.169305 107.480301
3.200000 3.160000 1.080000 -5.894670 3.304913 45.669579
3.200000 3.160000 1.120000 -1.941968 -2.833895 11.802201
3.200000 3.160000 1.160000 5.517179 -1.763675 33.549820
3.200000 3.160000 1.200000 8.464067 6.248924 110.689484
3.200000 3.200000 0.800000 -3.468393 0.444489 12.227324
3.200000 3.200000 0.840000 -1.881032 -4.093740 20.296993
3.200000 3.200000 0.880000 4.630988 -5.233018 48.830521
3.200000 3.200000 0.920000 10.565560 0.681304 112.095238
3.200000 3.200000 0.960000 9.439447 10.242941 194.020996
3.200000 3.200000 1.000000 1.011944 15.608940 244.663040
3.200000 3.200000 1.040000 -7.755287 12.525900 217.042633
3.200000 3.200000 1.080000 -9.684960 5.068444 119.487579
3.200000 3.200000 1.120000 -4.996769 1.450048 27.070343
3.200000 3.200000 1.160000 -1.048249 5.172439 27.852951
3.200000 3.200000 1.200000 -4.246201 11.197355 143.410995
