#kx 	ky 	kz 	real 	imag 	intensity
2.800000 0.800000 8.800000 -19.851643 -4.717566 416.343140
2.800000 0.800000 8.840000 -17.535236 -8.723558 383.584991
2.800000 0.800000 8.880000 -14.292219 -14.176765 405.248230
2.800000 0.800000 8.920000 -7.056622 -19.497921 429.964813
2.800000 0.800000 8.960000 3.970747 -20.265175 426.444122
2.800000 0.800000 9.000000 14.111532 -13.864414 391.357330
2.800000 0.800000 9.040000 17.994711 -2.922056 332.348053
2.800000 0.800000 9.080000 14.625668 6.497337 256.125549
2.800000 0.800000 9.120000 8.256195 10.355724 175.405792
2.800000 0.800000 9.160000 3.887644 10.046953 116.055046
2.800000 0.800000 9.200000 2.215039 9.904276 103.001083
2.800000 0.840000 8.800000 -14.144508 -15.251621 432.679077
2.800000 0.840000 8.840000 -10.957054 -14.041836 317.230194
2.800000 0.840000 8.880000 -8.811158 -15.060224 304.446838
2.800000 0.840000 8.920000 -4.129221 -16.445526 287.505798
2.800000 0.840000 8.960000 2.078101 -14.219204 206.504272
2.800000 0.840000 9.000000 5.202371 -8.072128 92.223915
2.800000 0.840000 9.040000 2.877195 -2.638338 15.239081
2.800000 0.840000 9.080000 -1.393261 -2.414236 7.769712
2.800000 0.840000 9.120000 -1.646906 -6.046197 39.268795
2.800000 0.840000 9.160000 3.465359 -7.090599 62.285309
2.800000 0.840000 9.200000 8.137754 -1.223816 67.720772
2.800000 0.880000 8.800000 -1.862293 -21.094048 448.426971
2.800000 0.880000 8.840000 -1.270830 -15.446236 240.201202
2.800000 0.880000 8.880000 -2.915742 -13.812205 199.278564
2.800000 0.880000 8.920000 -3.167159 -14.294810 214.372498
2.800000 0.880000 8.960000 -2.674197 -14.369596 213.636612
2.800000 0.880000 9.000000 -3.228906 -14.958119 234.171158
2.800000 0.880000 9.040000 -3.165445 -18.496426 352.137817
2.800000 0.880000 9.080000 1.927544 -23.574450 559.470154
2.800000 0.880000 9.120000 13.021348 -23.711216 731.777222
2.800000 0.880000 9.160000 23.477854 -13.521843 734.049805
2.800000 0.880000 9.200000 23.326130 3.704147 557.829041
2.800000 0.920000 8.800000 12.983710 -17.658140 480.386658
2.800000 0.920000 8.840000 8.870913 -10.214886 183.036987
2.800000 0.920000 8.880000 2.567784 -9.224931 91.692863
2.800000 0.920000 8.920000 -1.723598 -13.011289 172.264420
2.800000 0.920000 8.960000 -2.647199 -19.416035 383.990051
2.800000 0.920000 9.000000 1.007908 -27.172520 739.361694
2.800000 0.920000 9.040000 11.236208 -33.310329 1235.830322
2.800000 0.920000 9.080000 27.183371 -31.728909 1745.659180
2.800000 0.920000 9.120000 41.436073 -17.508606 2023.499390
2.800000 0.920000 9.160000 42.915565 6.019080 1877.975098
2.800000 0.920000 9.200000 26.343624 25.880058 1363.763916
2.800000 0.960000 8.800000 22.935417 -4.456229 545.891357
2.800000 0.960000 8.840000 14.022701 1.644318 199.339935
2.800000 0.960000 8.880000 4.678192 -1.142457 23.190689
2.800000 0.960000 8.920000 0.419976 -10.415204 108.652855
2.800000 0.960000 8.960000 4.291173 -21.835224 495.191162
2.800000 0.960000 9.000000 17.092386 -29.776169 1178.769897
2.800000 0.960000 9.040000 35.865555 -27.650795 2050.904541
2.800000 0.960000 9.080000 52.088802 -11.289082 2840.686768
2.800000 0.960000 9.120000 54.334965 15.522296 3193.229980
2.800000 0.960000 9.160000 36.488010 39.547676 2895.393555
2.800000 0.960000 9.200000 5.281281 45.307934 2080.700684
2.800000 1.000000 8.800000 21.877092 12.679683 639.381531
2.800000 1.000000 8.840000 9.727628 14.991718 319.378357
2.800000 1.000000 8.880000 0.662576 7.161756 51.729748
2.800000 1.000000 8.920000 0.956679 -5.842060 35.044899
2.800000 1.000000 8.960000 12.383721 -16.101486 412.614380
2.800000 1.000000 9.000000 31.038324 -15.625458 1207.532471
2.800000 1.000000 9.040000 47.476547 -0.298754 2254.111816
2.800000 1.000000 9.080000 50.232071 25.875732 3192.814453
2.800000 1.000000 9.120000 33.076694 50.134155 3607.501465
2.800000 1.000000 9.160000 1.644873 57.228073 3277.757812
2.800000 1.000000 9.200000 -27.347565 40.283333 2370.636230
2.800000 1.040000 8.800000 10.201225 24.879887 723.073792
2.800000 1.040000 8.840000 -2.780525 22.241190 502.401855
2.800000 1.040000 8.880000 -8.275249 10.601061 180.862244
2.800000 1.040000 8.920000 -1.728819 -1.468252 5.144579
2.800000 1.040000 8.960000 13.847847 -4.319778 210.423355
2.800000 1.040000 9.000000 28.842552 7.047109 881.554565
2.800000 1.040000 9.040000 31.941677 29.005829 1861.608887
2.800000 1.040000 9.080000 17.257946 49.789032 2776.784424
2.800000 1.040000 9.120000 -10.335998 55.707848 3210.197021
2.800000 1.040000 9.160000 -36.323883 40.368549 2949.044189
2.800000 1.040000 9.200000 -45.091057 10.532636 2144.139893
2.800000 1.080000 8.800000 -5.217034 26.899672 750.809814
2.800000 1.080000 8.840000 -16.540890 19.433973 651.280396
2.800000 1.080000 8.880000 -16.840269 6.938427 331.736450
2.800000 1.080000 8.920000 -6.376180 0.219336 40.703781
2.800000 1.080000 8.960000 6.089169 6.067162 73.888420
2.800000 1.080000 9.000000 9.310962 21.944916 568.273315
2.800000 1.080000 9.040000 -2.271412 37.104992 1381.939697
2.800000 1.080000 9.080000 -23.917688 39.719337 2149.681641
2.800000 1.080000 9.120000 -43.024632 25.301010 2491.260010
2.800000 1.080000 9.160000 -47.369350 0.482510 2244.088379
2.800000 1.080000 9.200000 -33.556168 -20.873583 1561.722778
2.800000 1.120000 8.800000 -16.874887 20.672958 712.133057
2.800000 1.120000 8.840000 -24.460804 9.553529 689.600830
2.800000 1.120000 8.880000 -20.164738 -0.719211 407.133911
2.800000 1.120000 8.920000 -10.512101 -0.840592 111.210869
2.800000 1.120000 8.960000 -6.914676 8.904251 127.098434
2.800000 1.120000 9.000000 -15.602549 18.671030 592.046875
2.800000 1.120000 9.040000 -31.835985 17.417171 1316.887817
2.800000 1.120000 9.080000 -43.521507 2.457273 1900.159790
2.800000 1.120000 9.120000 -41.007957 -17.997097 2005.548096
2.800000 1.120000 9.160000 -24.773609 -31.217022 1588.234131
2.800000 1.120000 9.200000 -4.846237 -29.645895 902.365112
2.800000 1.160000 8.800000 -22.568325 12.053679 654.620483
2.800000 1.160000 8.840000 -25.055738 -0.802063 628.433350
2.800000 1.160000 8.880000 -18.309526 -7.067342 385.186096
2.800000 1.160000 8.920000 -13.412428 -3.063818 189.280197
2.800000 1.160000 8.960000 -18.873249 3.125684 365.969421
2.800000 1.160000 9.000000 -31.422995 -0.243984 987.464111
2.800000 1.160000 9.040000 -38.472988 -16.287659 1745.458618
2.800000 1.160000 9.080000 -30.158382 -35.256130 2152.522705
2.800000 1.160000 9.120000 -9.381445 -42.787567 1918.787354
2.800000 1.160000 9.160000 9.946739 -32.930809 1183.375854
2.800000 1.160000 9.200000 14.810214 -13.622004 404.901428
2.800000 1.200000 8.800000 -25.244865 4.326862 656.024963
2.800000 1.200000 8.840000 -22.224016 -7.942514 556.990417
2.800000 1.200000 8.880000 -15.343678 -10.155478 338.562195
2.800000 1.200000 8.920000 -16.033297 -6.255691 296.200256
2.800000 1.200000 8.960000 -25.292870 -8.626005 714.137207
2.800000 1.200000 9.000000 -31.320230 -23.823896 1548.534912
2.800000 1.200000 9.040000 -21.551540 -43.429832 2350.619385
2.800000 1.200000 9.080000 2.867780 -50.552254 2563.754395
2.800000 1.200000 9.120000 25.560629 -36.405479 1978.704590
2.800000 1.200000 9.160000 29.041067 -10.419352 951.946472
2.800000 1.200000 9.200000 11.147341 6.822861 170.814636
2.840000 0.800000 8.800000 -22.413078 -13.158761 675.499023
2.840000 0.800000 8.840000 -13.897054 -15.151760 422.703918
2.840000 0.800000 8.880000 -7.341193 -14.710451 270.290497
2.840000 0.800000 8.920000 -1.756503 -13.838080 194.577759
2.840000 0.800000 8.960000 4.472964 -11.945446 162.701080
2.840000 0.800000 9.000000 10.776527 -6.958751 164.557755
2.840000 0.800000 9.040000 14.179883 1.615259 203.678131
2.840000 0.800000 9.080000 12.052947 11.048773 267.348907
2.840000 0.800000 9.120000 4.978079 17.143690 318.687378
2.840000 0.800000 9.160000 -3.395521 17.643036 322.806274
2.840000 0.800000 9.200000 -9.348404 13.754342 276.574585
2.840000 0.840000 8.800000 -6.893620 -25.554268 700.542603
2.840000 0.840000 8.840000 2.204280 -18.178450 335.314880
2.840000 0.840000 8.880000 4.567421 -9.156629 104.705185
2.840000 0.840000 8.920000 1.684613 -2.856593 10.998045
2.840000 0.840000 8.960000 -2.857736 -1.236768 9.696247
2.840000 0.840000 9.000000 -5.557905 -3.407097 42.498611
2.840000 0.840000 9.040000 -4.657574 -6.624981 65.583366
2.840000 0.840000 9.080000 -0.734388 -7.871759 62.503922
2.840000 0.840000 9.120000 3.708675 -5.396522 42.876717
2.840000 0.840000 9.160000 5.505896 0.243799 30.374325
2.840000 0.840000 9.200000 2.679429 6.126606 44.714638
2.840000 0.880000 8.800000 15.178219 -23.589973 786.865234
2.840000 0.880000 8.840000 18.517502 -6.981987 391.646027
2.840000 0.880000 8.880000 9.816439 7.055513 146.142731
2.840000 0.880000 8.920000 -6.241695 10.341192 145.899017
2.840000 0.880000 8.960000 -19.656338 0.127394 386.387848
2.840000 0.880000 9.000000 -20.785385 -17.796095 748.733215
2.840000 0.880000 9.040000 -7.234573 -31.664021 1054.949219
2.840000 0.880000 9.080000 13.447010 -31.367401 1164.735962
2.840000 0.880000 9.120000 28.237070 -15.862047 1048.936646
2.840000 0.880000 9.160000 27.639889 5.527634 794.518188
2.840000 0.880000 9.200000 12.507201 19.508652 537.017578
2.840000 0.920000 8.800000 30.573151 -5.248342 962.262634
2.840000 0.920000 8.840000 22.244404 15.562445 737.003174
2.840000 0.920000 8.880000 -0.213469 25.115744 630.846191
2.840000 0.920000 8.920000 -24.684095 14.256721 812.558655
2.840000 0.920000 8.960000 -34.020329 -13.747688 1346.381714
2.840000 0.920000 9.000000 -18.341074 -42.076050 2106.788818
2.840000 0.920000 9.040000 15.470192 -50.646446 2804.389404
2.840000 0.920000 9.080000 46.417122 -31.262535 3131.895508
2.840000 0.920000 9.120000 54.016445 4.891983 2941.707764
2.840000 0.920000 9.160000 33.660362 34.654182 2333.932373
2.840000 0.920000 9.200000 0.048056 39.890865 1591.283447
2.840000 0.960000 8.800000 28.177940 19.636784 1179.599609
2.840000 0.960000 8.840000 7.011992 35.688454 1322.833862
2.840000 0.960000 8.880000 -23.075630 30.909771 1487.898682
2.840000 0.960000 8.920000 -42.387234 2.145919 1801.282593
2.840000 0.960000 8.960000 -33.352749 -35.661293 2384.133789
2.840000 0.960000 9.000000 3.867560 -56.632504 3222.198486
2.840000 0.960000 9.040000 47.438637 -42.869751 4088.239746
2.840000 0.960000 9.080000 67.932144 -0.176669 4614.807617
2.840000 0.960000 9.120000 50.667454 44.065956 4508.999512
2.840000 0.960000 9.160000 7.707794 60.857903 3763.094482
2.840000 0.960000 9.200000 -31.244591 41.404591 2690.564453
2.840000 1.000000 8.800000 8.651575 35.383629 1326.850952
2.840000 1.000000 8.840000 -19.400608 38.667812 1871.583252
2.840000 1.000000 8.880000 -44.516479 17.368439 2283.379639
2.840000 1.000000 8.920000 -46.105240 -20.317085 2538.477051
2.840000 1.000000 8.960000 -16.261940 -50.219315 2786.430176
2.840000 1.000000 9.000000 29.781498 -48.373402 3226.923828
2.840000 1.000000 9.040000 61.347721 -11.121016 3887.219971
2.840000 1.000000 9.080000 54.913643 38.693733 4512.712891
2.840000 1.000000 9.120000 13.578285 67.241951 4705.849609
2.840000 1.000000 9.160000 -33.986267 55.518803 4237.403809
2.840000 1.000000 9.200000 -55.377815 13.939591 3261.014648
2.840000 1.040000 8.800000 -15.134106 32.696774 1298.120117
2.840000 1.040000 8.840000 -39.742630 21.737206 2051.982910
2.840000 1.040000 8.880000 -49.530651 -7.685217 2512.347900
2.840000 1.040000 8.920000 -32.475037 -38.234436 2516.500000
2.840000 1.040000 8.960000 5.041256 -47.020264 2236.319580
2.840000 1.040000 9.000000 39.025795 -23.496653 2075.105469
2.840000 1.040000 9.040000 44.329086 19.402035 2341.506836
2.840000 1.040000 9.080000 14.931122 52.375988 2966.182617
2.840000 1.040000 9.120000 -29.365326 51.593636 3524.225586
2.840000 1.040000 9.160000 -57.086212 17.730324 3573.200195
2.840000 1.040000 9.200000 -49.303444 -24.227213 3017.787354
2.840000 1.080000 8.800000 -28.530384 16.065058 1072.068848
2.840000 1.080000 8.840000 -41.567505 -2.776606 1735.567017
2.840000 1.080000 8.880000 -35.693001 -27.146233 2010.908325
2.840000 1.080000 8.920000 -11.933022 -39.923683 1736.297485
2.840000 1.080000 8.960000 14.781148 -30.082968 1123.467285
2.840000 1.080000 9.000000 25.171436 -2.478302 639.743164
2.840000 1.080000 9.040000 10.373314 23.817291 674.869019
2.840000 1.080000 9.080000 -19.873081 29.087343 1241.012939
2.840000 1.080000 9.120000 -43.377598 8.499554 1953.858398
2.840000 1.080000 9.160000 -42.222145 -23.286219 2324.957520
2.840000 1.080000 9.200000 -16.790417 -42.996292 2130.599121
2.840000 1.120000 8.800000 -27.070560 -1.129498 734.091003
2.840000 1.120000 8.840000 -27.728432 -18.289158 1103.359131
2.840000 1.120000 8.880000 -15.521198 -29.503002 1111.334717
2.840000 1.120000 8.920000 -0.004370 -27.324566 746.631897
2.840000 1.120000 8.960000 7.202220 -14.588793 264.704834
2.840000 1.120000 9.000000 1.215441 -2.085232 5.825488
2.840000 1.120000 9.040000 -12.474461 -0.258777 155.679138
2.840000 1.120000 9.080000 -22.219240 -11.220696 619.598694
2.840000 1.120000 9.120000 -19.049313 -27.058502 1095.038818
2.840000 1.120000 9.160000 -3.536508 -35.668732 1284.765259
2.840000 1.120000 9.200000 14.453753 -29.739079 1093.323730
2.840000 1.160000 8.800000 -18.520723 -9.215773 427.947632
2.840000 1.160000 8.840000 -12.513806 -18.662390 504.880127
2.840000 1.160000 8.880000 -4.737858 -18.811686 376.326813
2.840000 1.160000 8.920000 -3.501204 -14.195101 213.759308
2.840000 1.160000 8.960000 -8.650911 -13.758440 264.132935
2.840000 1.160000 9.000000 -12.272598 -21.408173 608.926514
2.840000 1.160000 9.040000 -6.960882 -31.981014 1071.239136
2.840000 1.160000 9.080000 6.730320 -36.148804 1352.033203
2.840000 1.160000 9.120000 20.555637 -29.021278 1264.768799
2.840000 1.160000 9.160000 25.700087 -14.357605 866.635254
2.840000 1.160000 9.200000 19.761059 -1.129058 391.774231
2.840000 1.200000 8.800000 -13.273533 -10.071055 277.612823
2.840000 1.200000 8.840000 -7.145962 -12.269242 201.599075
2.840000 1.200000 8.880000 -7.612826 -9.703365 152.110413
2.840000 1.200000 8.920000 -14.615082 -13.298872 390.460632
2.840000 1.200000 8.960000 -17.068939 -27.721531 1059.832031
2.840000 1.200000 9.000000 -4.507669 -44.071587 1962.623779
2.840000 1.200000 9.040000 20.349709 -46.947464 2618.175049
2.840000 1.200000 9.080000 41.539158 -29.583776 2600.701416
2.840000 1.200000 9.120000 43.392746 -1.944128 1886.710083
2.840000 1.200000 9.160000 24.843670 16.797779 899.373291
2.840000 1.200000 9.200000 0.762819 14.434783 208.944855
2.880000 0.800000 8.800000 -17.603016 -25.965271 984.061523
2.880000 0.800000 8.840000 -5.829808 -20.488468 453.763977
2.880000 0.800000 8.880000 -1.937314 -12.843017 168.696259
2.880000 0.800000 8.920000 -2.431261 -9.376190 93.823975
2.880000 0.800000 8.960000 -0.776712 -9.843075 97.489403
2.880000 0.800000 9.000000 5.195683 -8.401455 97.579567
2.880000 0.800000 9.040000 10.704016 -0.680700 115.039307
2.880000 0.800000 9.080000 9.161745 10.661148 197.597656
2.880000 0.800000 9.120000 -0.424065 17.941116 322.063507
2.880000 0.800000 9.160000 -11.762177 15.989443 394.011078
2.880000 0.800000 9.200000 -17.065372 7.252113 343.820068
2.880000 0.840000 8.800000 9.056089 -30.537714 1014.564758
2.880000 0.840000 8.840000 16.843475 -11.376400 413.125122
2.880000 0.840000 8.880000 8.940903 5.928836 115.090843
2.880000 0.840000 8.920000 -7.478260 10.188901 159.738083
2.880000 0.840000 8.960000 -19.096310 0.297779 364.757721
2.880000 0.840000 9.000000 -17.290428 -13.939310 493.263245
2.880000 0.840000 9.040000 -4.841866 -20.387154 439.079712
2.880000 0.840000 9.080000 7.523561 -14.632259 270.707001
2.880000 0.840000 9.120000 10.903507 -2.389132 124.594414
2.880000 0.840000 9.160000 4.966586 6.964594 73.172546
2.880000 0.840000 9.200000 -3.833195 8.625261 89.088516
2.880000 0.880000 8.800000 33.136726 -12.192066 1246.689087
2.880000 0.880000 8.840000 26.362961 17.881516 1014.754272
2.880000 0.880000 8.880000 -2.545025 34.437881 1192.444824
2.880000 0.880000 8.920000 -35.825634 22.868317 1806.436035
2.880000 0.880000 8.960000 -49.141441 -11.334902 2543.361328
2.880000 0.880000 9.000000 -31.405394 -44.480560 2964.819092
2.880000 0.880000 9.040000 5.216072 -52.922874 2828.038086
2.880000 0.880000 9.080000 34.893280 -31.926332 2236.831787
2.880000 0.880000 9.120000 38.934860 1.619640 1518.546631
2.880000 0.880000 9.160000 19.274677 24.322287 963.086792
2.880000 0.880000 9.200000 -6.211306 24.807350 653.984924
2.880000 0.920000 8.800000 35.918217 20.398529 1706.218262
2.880000 0.920000 8.840000 7.297136 49.192245 2473.125244
2.880000 0.920000 8.880000 -39.929134 47.075905 3810.476562
2.880000 0.920000 8.920000 -73.580734 6.054359 5450.779785
2.880000 0.920000 8.960000 -64.879959 -50.787247 6788.753906
2.880000 0.920000 9.000000 -14.657286 -83.872330 7249.403809
2.880000 0.920000 9.040000 43.998814 -68.768242 6664.966797
2.880000 0.920000 9.080000 71.240196 -16.844673 5358.908691
2.880000 0.920000 9.120000 52.134361 34.226608 3889.452393
2.880000 0.920000 9.160000 6.528022 51.463112 2691.066895
2.880000 0.920000 9.200000 -30.293238 31.141865 1887.495972
2.880000 0.960000 8.800000 12.445983 45.255161 2202.932129
2.880000 0.960000 8.840000 -33.503593 56.407585 4304.306641
2.880000 0.960000 8.880000 -80.670715 24.296314 7098.075195
2.880000 0.960000 8.920000 -89.979385 -40.671715 9750.477539
2.880000 0.960000 8.960000 -44.365021 -96.529922 11286.281250
2.880000 0.960000 9.000000 31.303974 -101.053406 11191.729492
2.880000 0.960000 9.040000 86.078247 -47.946136 9708.296875
2.880000 0.960000 9.080000 83.353989 25.653351 7605.981445
2.880000 0.960000 9.120000 30.272495 68.792061 5648.771484
2.880000 0.960000 9.160000 -30.095461 57.379471 4198.140137
2.880000 0.960000 9.200000 -55.649311 10.077754 3198.406738
2.880000 1.000000 8.800000 -22.059950 44.234047 2443.292236
2.880000 1.000000 8.840000 -68.468651 29.089388 5534.148438
2.880000 1.000000 8.880000 -92.800491 -25.481268 9261.226562
2.880000 1.000000 8.920000 -65.527061 -89.190872 12248.807617
2.880000 1.000000 8.960000 6.257999 -115.203857 13311.090820
2.880000 1.000000 9.000000 77.577606 -78.763298 12221.942383
2.880000 1.000000 9.040000 99.020065 -1.460747 9807.107422
2.880000 1.000000 9.080000 57.323723 63.330315 7296.738281
2.880000 1.000000 9.120000 -13.430784 73.005020 5510.118652
2.880000 1.000000 9.160000 -60.551376 28.969969 4505.728516
2.880000 1.000000 9.200000 -55.372162 -28.211187 3861.947510
2.880000 1.040000 8.800000 -43.593704 18.628180 2247.420166
2.880000 1.040000 8.840000 -71.857910 -15.619576 5407.530273
2.880000 1.040000 8.880000 -64.195168 -69.265503 8918.729492
2.880000 1.040000 8.920000 -13.006632 -105.353004 11268.428711
2.880000 1.040000 8.960000 54.277328 -92.048561 11418.965820
2.880000 1.040000 9.000000 92.313576 -31.680052 9525.421875
2.880000 1.040000 9.040000 73.834961 36.657635 6795.383789
2.880000 1.040000 9.080000 13.376833 66.503235 4601.619629
2.880000 1.040000 9.120000 -43.536926 41.172680 3590.653564
2.880000 1.040000 9.160000 -57.208462 -13.846325 3464.528809
2.880000 1.040000 9.200000 -24.425224 -53.758850 3486.605469
2.880000 1.080000 8.800000 -39.278725 -11.840471 1683.015015
2.880000 1.080000 8.840000 -42.716728 -46.486374 3985.701660
2.880000 1.080000 8.880000 -15.357754 -77.568924 6252.798828
2.880000 1.080000 8.920000 31.439850 -79.876389 7368.701660
2.880000 1.080000 8.960000 68.403221 -45.778519 6774.673340
2.880000 1.080000 9.000000 69.600571 5.462296 4874.076172
2.880000 1.080000 9.040000 33.868626 40.190746 2762.379883
2.880000 1.080000 9.080000 -12.607258 36.224709 1471.172485
2.880000 1.080000 9.120000 -36.288673 0.587368 1317.212769
2.880000 1.080000 9.160000 -22.644356 -36.430580 1839.953979
2.880000 1.080000 9.200000 13.448316 -46.024761 2299.135742
2.880000 1.120000 8.800000 -17.339165 -26.432957 999.347778
2.880000 1.120000 8.840000 -5.508286 -45.384132 2090.060791
2.880000 1.120000 8.880000 18.367090 -50.502151 2887.817383
2.880000 1.120000 8.920000 40.094612 -36.895912 2968.886230
2.880000 1.120000 8.960000 46.436211 -12.060341 2301.773682
2.880000 1.120000 9.000000 34.262741 9.023928 1255.366699
2.880000 1.120000 9.040000 12.838684 14.187372 366.113342
2.880000 1.120000 9.080000 -2.663561 2.622398 13.971529
2.880000 1.120000 9.120000 -2.050624 -14.595255 217.226532
2.880000 1.120000 9.160000 12.476364 -22.729336 672.282349
2.880000 1.120000 9.200000 28.076580 -14.440238 996.814819
2.880000 1.160000 8.800000 2.207588 -20.882999 440.973114
2.880000 1.160000 8.840000 12.760439 -22.009932 647.265869
2.880000 1.160000 8.880000 18.402145 -16.097517 597.769043
2.880000 1.160000 8.920000 17.427872 -11.131935 427.650696
2.880000 1.160000 8.960000 15.451412 -11.344765 367.449829
2.880000 1.160000 9.000000 17.894711 -13.531610 503.325134
2.880000 1.160000 9.040000 23.925175 -11.793072 711.490540
2.880000 1.160000 9.080000 27.948666 -4.418980 800.655334
2.880000 1.160000 9.120000 25.936605 4.590408 693.779358
2.880000 1.160000 9.160000 19.150942 10.158057 469.944702
2.880000 1.160000 9.200000 11.784548 10.883511 257.326355
2.880000 1.200000 8.800000 6.758663 -8.480740 117.602470
2.880000 1.200000 8.840000 6.485046 -2.077946 46.373680
2.880000 1.200000 8.880000 -2.519859 -2.738674 13.850027
2.880000 1.200000 8.920000 -7.168665 -16.357231 318.948792
2.880000 1.200000 8.960000 4.884487 -32.602024 1086.750244
2.880000 1.200000 9.000000 30.219597 -33.739685 2051.590332
2.880000 1.200000 9.040000 50.237057 -12.807333 2687.789795
2.880000 1.200000 9.080000 47.894176 17.657848 2605.651611
2.880000 1.200000 9.120000 24.013504 35.877102 1863.814697
2.880000 1.200000 9.160000 -3.141644 30.208096 922.398987
2.880000 1.200000 9.200000 -14.411829 8.639345 282.339111
2.920000 0.800000 8.800000 -2.097623 -34.119270 1168.524658
2.920000 0.800000 8.840000 5.701281 -19.877478 427.618713
2.920000 0.800000 8.880000 1.549515 -9.479186 92.255959
2.920000 0.800000 8.920000 -4.705601 -9.674362 115.735962
2.920000 0.800000 8.960000 -2.932926 -15.220558 240.267441
2.920000 0.800000 9.000000 6.669035 -15.027370 270.297913
2.920000 0.800000 9.040000 14.021765 -4.396940 215.942978
2.920000 0.800000 9.080000 10.157549 9.659147 196.474915
2.920000 0.800000 9.120000 -3.004206 15.679874 254.883713
2.920000 0.800000 9.160000 -14.525612 9.659134 304.292267
2.920000 0.800000 9.200000 -15.694636 -1.122668 247.582001
2.920000 0.840000 8.800000 27.065823 -22.216158 1226.116455
2.920000 0.840000 8.840000 22.634024 5.482941 542.361633
2.920000 0.840000 8.880000 -1.035862 19.504684 381.505707
2.920000 0.840000 8.920000 -25.489632 9.424397 738.540588
2.920000 0.840000 8.960000 -31.162855 -15.479942 1210.752197
2.920000 0.840000 9.000000 -14.512575 -34.036247 1369.081055
2.920000 0.840000 9.040000 9.569466 -31.841021 1105.425293
2.920000 0.840000 9.080000 22.035866 -12.883026 651.551758
2.920000 0.840000 9.120000 16.271269 6.354362 305.132111
2.920000 0.840000 9.160000 1.301772 13.043520 171.828018
2.920000 0.840000 9.200000 -9.532305 7.936263 153.849106
2.920000 0.880000 8.800000 38.644947 11.573163 1627.369995
2.920000 0.880000 8.840000 10.050846 43.270699 1973.372925
2.920000 0.880000 8.880000 -37.862774 42.100342 3206.028320
2.920000 0.880000 8.920000 -70.464828 1.753239 4968.365723
2.920000 0.880000 8.960000 -60.403297 -51.639820 6315.229492
2.920000 0.880000 9.000000 -12.753929 -79.145836 6426.726074
2.920000 0.880000 9.040000 37.961060 -61.673779 5244.697266
2.920000 0.880000 9.080000 56.880089 -15.286169 3469.011475
2.920000 0.880000 9.120000 36.886063 24.563776 1963.960693
2.920000 0.880000 9.160000 0.422085 33.785995 1141.671631
2.920000 0.880000 9.200000 -23.855547 16.371841 837.124268
2.920000 0.920000 8.800000 18.921185 45.213882 2402.306396
2.920000 0.920000 8.840000 -35.335815 60.883423 4955.411133
2.920000 0.920000 8.880000 -91.972160 24.316526 9050.171875
2.920000 0.920000 8.920000 -103.548279 -51.099617 13333.416992
2.920000 0.920000 8.960000 -51.458874 -114.695427 15803.056641
2.920000 0.920000 9.000000 32.869278 -118.825974 15200.001953
2.920000 0.920000 9.040000 91.187531 -60.207832 11940.149414
2.920000 0.920000 9.080000 86.504906 16.873320 7767.807617
2.920000 0.920000 9.120000 31.893253 58.730377 4466.437012
2.920000 0.920000 9.160000 -25.257263 45.878895 2742.802246
2.920000 0.920000 9.200000 -46.046345 2.856976 2128.428223
2.920000 0.960000 8.800000 -21.630684 52.419891 3215.731445
2.920000 0.960000 8.840000 -84.805969 34.639313 8391.934570
2.920000 0.960000 8.880000 -119.624367 -38.203270 15769.479492
2.920000 0.960000 8.920000 -84.414322 -124.547615 22637.886719
2.920000 0.960000 8.960000 10.719164 -160.269150 25801.101562
2.920000 0.960000 9.000000 104.469299 -113.383011 23769.542969
2.920000 0.960000 9.040000 132.683197 -14.738822 17822.062500
2.920000 0.960000 9.080000 81.714783 66.049515 11039.843750
2.920000 0.960000 9.120000 -2.295418 78.377335 6148.275391
2.920000 0.960000 9.160000 -55.616417 29.205482 3946.145996
2.920000 0.960000 9.200000 -49.771034 -30.649576 3416.552246
2.920000 1.000000 8.800000 -54.131622 25.600445 3585.615234
2.920000 1.000000 8.840000 -99.163483 -24.363533 10426.978516
2.920000 1.000000 8.880000 -89.784599 -107.764160 19674.388672
2.920000 1.000000 8.920000 -11.113947 -165.878235 27639.107422
2.920000 1.000000 8.960000 94.220383 -147.098206 30515.363281
2.920000 1.000000 9.000000 154.844482 -54.927124 26993.802734
2.920000 1.000000 9.040000 129.306900 49.581749 19178.623047
2.920000 1.000000 9.080000 41.486595 96.594276 11051.591797
2.920000 1.000000 9.120000 -40.485718 64.199715 5760.696777
2.920000 1.000000 9.160000 -62.004040 -8.042303 3909.179688
2.920000 1.000000 9.200000 -23.398106 -58.340843 3951.125488
2.920000 1.040000 8.800000 -54.820091 -16.037800 3262.453369
2.920000 1.040000 8.840000 -64.169022 -75.614723 9835.250000
2.920000 1.040000 8.880000 -16.681278 -134.301239 18315.087891
2.920000 1.040000 8.920000 71.132217 -141.482635 25077.128906
2.920000 1.040000 8.960000 143.699051 -78.260422 26774.111328
2.920000 1.040000 9.000000 149.088959 20.386929 22643.144531
2.920000 1.040000 9.040000 83.389320 89.911163 15037.795898
2.920000 1.040000 9.080000 -4.371578 88.003151 7763.665527
2.920000 1.040000 9.120000 -52.635155 27.954138 3551.893311
2.920000 1.040000 9.160000 -36.825726 -35.919174 2646.321289
2.920000 1.040000 9.200000 15.720994 -55.824875 3363.566406
2.920000 1.080000 8.800000 -25.258654 -42.215492 2420.147461
2.920000 1.080000 8.840000 -5.081596 -83.520462 7001.490234
2.920000 1.080000 8.880000 49.339256 -100.371941 12508.888672
2.920000 1.080000 8.920000 107.688614 -69.646942 16447.535156
2.920000 1.080000 8.960000 129.644333 -1.723358 16810.623047
2.920000 1.080000 9.000000 97.240746 63.094582 13436.689453
2.920000 1.080000 9.040000 31.461586 84.536636 8136.274414
2.920000 1.080000 9.080000 -23.080868 54.177940 3467.975586
2.920000 1.080000 9.120000 -33.280571 1.317528 1109.332275
2.920000 1.080000 9.160000 -2.294367 -32.126286 1037.362427
2.920000 1.080000 9.200000 36.733803 -25.267555 1987.821655
2.920000 1.120000 8.800000 9.925775 -37.254475 1486.416870
2.920000 1.120000 8.840000 35.289536 -48.338745 3581.985596
2.920000 1.120000 8.880000 65.892647 -36.864090 5700.801758
2.920000 1.120000 8.920000 82.828773 -4.669189 6882.407227
2.920000 1.120000 8.960000 74.314804 32.420162 6573.756836
2.920000 1.120000 9.000000 44.210087 54.601219 4935.825195
2.920000 1.120000 9.040000 9.888348 51.414772 2741.258301
2.920000 1.120000 9.080000 -9.540854 28.842495 922.917419
2.920000 1.120000 9.120000 -6.347246 4.758238 62.928360
2.920000 1.120000 9.160000 11.022249 -4.153390 138.740631
2.920000 1.120000 9.200000 25.102291 5.763594 663.343994
2.920000 1.160000 8.800000 25.589806 -11.822372 794.606628
2.920000 1.160000 8.840000 34.266342 -3.748165 1188.230957
2.920000 1.160000 8.880000 34.667603 6.502510 1244.125244
2.920000 1.160000 8.920000 30.769749 12.552498 1104.342651
2.920000 1.160000 8.960000 28.277515 15.629144 1043.887939
2.920000 1.160000 9.000000 27.052151 20.578655 1155.299927
2.920000 1.160000 9.040000 22.115313 27.914318 1268.296143
2.920000 1.160000 9.080000 11.261330 32.107662 1157.719482
2.920000 1.160000 9.120000 -0.586357 28.175549 794.205322
2.920000 1.160000 9.160000 -6.035259 18.434139 376.241852
2.920000 1.160000 9.200000 -3.606606 10.807463 129.808853
2.920000 1.200000 8.800000 17.318605 9.573051 391.577393
2.920000 1.200000 8.840000 6.368934 15.861958 292.165009
2.920000 1.200000 8.880000 -5.253403 6.189037 65.902420
2.920000 1.200000 8.920000 -0.287590 -11.865940 140.883240
2.920000 1.200000 8.960000 22.359310 -17.464535 804.948730
2.920000 1.200000 9.000000 43.190384 1.491467 1867.633789
2.920000 1.200000 9.040000 40.249931 33.509125 2742.918457
2.920000 1.200000 9.080000 11.664991 52.556995 2898.309814
2.920000 1.200000 9.120000 -21.120502 42.721573 2271.208496
2.920000 1.200000 9.160000 -33.318043 13.357243 1288.507812
2.920000 1.200000 9.200000 -19.680120 -10.595993 499.582214
2.960000 0.800000 8.800000 17.062410 -28.551476 1106.312622
2.960000 0.800000 8.840000 14.630819 -11.007565 335.227356
2.960000 0.800000 8.880000 2.734543 -5.469429 37.392380
2.960000 0.800000 8.920000 -3.644857 -12.806805 177.299240
2.960000 0.800000 8.960000 3.236433 -20.617500 435.555817
2.960000 0.800000 9.000000 16.157244 -16.531429 534.344666
2.960000 0.800000 9.040000 20.981655 -1.195362 441.658752
2.960000 0.800000 9.080000 11.687611 12.748614 299.127380
2.960000 0.800000 9.120000 -3.691780 14.207552 215.483780
2.960000 0.800000 9.160000 -12.108996 4.816648 169.827896
2.960000 0.800000 9.200000 -9.142551 -3.901178 98.805443
2.960000 0.840000 8.800000 34.502769 -1.816425 1193.740601
2.960000 0.840000 8.840000 13.291550 21.943085 658.164246
2.960000 0.840000 8.880000 -19.161678 19.865456 761.806274
2.960000 0.840000 8.920000 -36.833080 -7.470444 1412.483276
2.960000 0.840000 8.960000 -25.150257 -37.683830 2052.606445
2.960000 0.840000 9.000000 5.687164 -46.210983 2167.798828
2.960000 0.840000 9.040000 30.480659 -27.789806 1701.343994
2.960000 0.840000 9.080000 31.868670 0.746893 1016.169983
2.960000 0.840000 9.120000 13.826721 17.785063 507.486694
2.960000 0.840000 9.160000 -5.846447 15.950087 288.586212
2.960000 0.840000 9.200000 -14.042169 4.776367 219.996185
2.960000 0.880000 8.800000 23.760004 33.419502 1681.400879
2.960000 0.880000 8.840000 -23.314541 47.326820 2783.395752
2.960000 0.880000 8.880000 -70.299507 15.963219 5196.844727
2.960000 0.880000 8.920000 -77.329903 -45.682602 8066.814453
2.960000 0.880000 8.960000 -32.920120 -93.527809 9831.185547
2.960000 0.880000 9.000000 32.840858 -91.336800 9420.933594
2.960000 0.880000 9.040000 72.948868 -42.235600 7105.382812
2.960000 0.880000 9.080000 63.225098 15.166548 4227.437500
2.960000 0.880000 9.120000 19.851967 41.486694 2115.246338
2.960000 0.880000 9.160000 -19.694401 28.281460 1187.710327
2.960000 0.880000 9.200000 -31.081802 -1.599592 968.637146
2.960000 0.920000 8.800000 -13.813293 49.313587 2622.636963
2.960000 0.920000 8.840000 -76.814926 32.183140 6936.287109
2.960000 0.920000 8.880000 -110.690781 -39.532608 13815.276367
2.960000 0.920000 8.920000 -75.142517 -122.701614 20702.083984
2.960000 0.920000 8.960000 16.877350 -154.412964 24128.208984
2.960000 0.920000 9.000000 103.875412 -106.905037 22218.789062
2.960000 0.920000 9.040000 126.252670 -13.877592 16132.324219
2.960000 0.920000 9.080000 76.157043 57.994576 9163.266602
2.960000 0.920000 9.120000 0.389545 65.583878 4301.396973
2.960000 0.920000 9.160000 -43.980251 21.002174 2375.353760
2.960000 0.920000 9.200000 -37.183437 -27.988276 2165.951660
2.960000 0.960000 8.800000 -52.614090 29.325111 3628.204590
2.960000 0.960000 8.840000 -104.261421 -26.493567 11572.353516
2.960000 0.960000 8.880000 -93.794243 -120.849487 23401.958984
2.960000 0.960000 8.920000 -4.648781 -185.652237 34488.363281
2.960000 0.960000 8.960000 112.947327 -162.862000 39281.128906
2.960000 0.960000 9.000000 178.117752 -59.216732 35232.554688
2.960000 0.960000 9.040000 147.393738 54.734142 24720.740234
2.960000 0.960000 9.080000 51.362255 103.177475 13283.672852
2.960000 0.960000 9.120000 -34.324684 67.090935 5679.377441
2.960000 0.960000 9.160000 -54.790813 -6.834579 3048.744629
2.960000 0.960000 9.200000 -16.552776 -54.439041 3237.603516
2.960000 1.000000 8.800000 -62.474354 -14.849550 4123.554199
2.960000 1.000000 8.840000 -76.287399 -91.599770 14210.285156
2.960000 1.000000 8.880000 -14.843115 -168.884216 28742.197266
2.960000 1.000000 8.920000 100.442123 -178.046143 41789.050781
2.960000 1.000000 8.960000 194.709122 -94.093628 46765.250000
2.960000 1.000000 9.000000 199.547623 34.847321 41033.589844
2.960000 1.000000 9.040000 112.635368 123.216278 27868.976562
2.960000 1.000000 9.080000 0.495007 118.664886 14081.600586
2.960000 1.000000 9.120000 -58.805138 42.836655 5293.023438
2.960000 1.000000 9.160000 -39.334900 -33.760864 2687.030273
2.960000 1.000000 9.200000 20.104351 -55.743240 3511.493652
2.960000 1.040000 8.800000 -34.828457 -50.983147 3812.302734
2.960000 1.040000 8.840000 -7.195564 -115.098251 13299.383789
2.960000 1.040000 8.880000 77.075073 -143.567123 26552.085938
2.960000 1.040000 8.920000 169.913574 -95.416611 37974.953125
2.960000 1.040000 8.960000 203.895447 13.630774 41759.148438
2.960000 1.040000 9.000000 149.357635 116.530289 35887.011719
2.960000 1.040000 9.040000 42.573662 147.633713 23608.230469
2.960000 1.040000 9.080000 -43.033260 96.354866 11136.121094
2.960000 1.040000 9.120000 -57.274300 12.972048 3448.619385
2.960000 1.040000 9.160000 -10.417009 -37.332726 1502.246460
2.960000 1.040000 9.200000 44.081329 -28.192642 2737.988770
2.960000 1.080000 8.800000 9.267096 -53.154232 2911.251465
2.960000 1.080000 8.840000 54.568218 -80.532303 9463.142578
2.960000 1.080000 8.880000 119.447769 -62.502617 18174.347656
2.960000 1.080000 8.920000 158.917236 5.958099 25290.185547
2.960000 1.080000 8.960000 138.608780 89.527031 27227.484375
2.960000 1.080000 9.000000 65.323616 136.713074 22957.640625
2.960000 1.080000 9.040000 -15.502499 120.363739 14727.756836
2.960000 1.080000 9.080000 -55.108368 59.105988 6530.450195
2.960000 1.080000 9.120000 -38.995029 0.683456 1521.079468
2.960000 1.080000 9.160000 5.593025 -17.429089 335.055054
2.960000 1.080000 9.200000 36.728569 4.909258 1373.088623
2.960000 1.120000 8.800000 37.393448 -23.248341 1938.755249
2.960000 1.120000 8.840000 68.246735 -17.485889 4963.373047
2.960000 1.120000 8.880000 91.169983 13.959068 8506.821289
2.960000 1.120000 8.920000 87.639854 58.574219 11111.683594
2.960000 1.120000 8.960000 54.363918 93.098625 11622.790039
2.960000 1.120000 9.000000 6.714348 98.893234 9824.954102
2.960000 1.120000 9.040000 -31.116194 74.681992 6545.617188
2.960000 1.120000 9.080000 -42.263016 37.135437 3165.203125
2.960000 1.120000 9.120000 -27.890995 8.891338 856.963501
2.960000 1.120000 9.160000 -4.722021 2.988264 31.227205
2.960000 1.120000 9.200000 8.157429 15.278271 299.969177
2.960000 1.160000 8.800000 33.324631 12.706983 1271.998413
2.960000 1.160000 8.840000 34.824753 26.205750 1899.504761
2.960000 1.160000 8.880000 28.017109 37.033821 2156.462402
2.960000 1.160000 8.920000 19.168671 42.534054 2176.583740
2.960000 1.160000 8.960000 11.075882 46.369057 2272.764404
2.960000 1.160000 9.000000 0.401928 50.386497 2538.960693
2.960000 1.160000 9.040000 -15.490466 49.780724 2718.074951
2.960000 1.160000 9.080000 -31.407352 38.413559 2462.023438
2.960000 1.160000 9.120000 -37.107800 18.258774 1710.371582
2.960000 1.160000 9.160000 -28.174473 0.777590 794.405579
2.960000 1.160000 9.200000 -12.641037 -3.210353 170.102188
2.960000 1.200000 8.800000 8.346909 28.931286 906.690186
2.960000 1.200000 8.840000 -8.755648 26.797121 794.747070
2.960000 1.200000 8.880000 -14.923180 9.399403 311.050049
2.960000 1.200000 8.920000 -0.451141 -4.118072 17.162043
2.960000 1.200000 8.960000 20.576782 5.065674 449.065002
2.960000 1.200000 9.000000 22.781042 32.966347 1605.755859
2.960000 1.200000 9.040000 -3.501459 53.552807 2880.163330
2.960000 1.200000 9.080000 -39.622093 43.994400 3505.417480
2.960000 1.200000 9.120000 -55.284946 8.587219 3130.165527
2.960000 1.200000 9.160000 -38.186253 -24.260620 2046.767578
2.960000 1.200000 9.200000 -5.914263 -29.610138 911.738770
3.000000 0.800000 8.800000 26.833336 -10.026440 820.557373
3.000000 0.800000 8.840000 14.551807 1.823196 215.079147
3.000000 0.800000 8.880000 1.505169 -2.044090 6.443839
3.000000 0.800000 8.920000 1.195059 -13.660034 188.024689
3.000000 0.800000 8.960000 13.141483 -17.676083 485.142487
3.000000 0.800000 9.000000 23.956261 -7.371696 628.244324
3.000000 0.800000 9.040000 21.705200 8.924350 550.759766
3.000000 0.800000 9.080000 7.922625 17.319073 362.718262
3.000000 0.800000 9.120000 -5.209477 12.837509 191.940292
3.000000 0.800000 9.160000 -8.426074 3.246377 81.537689
3.000000 0.800000 9.200000 -4.333991 -0.885599 19.567762
3.000000 0.840000 8.800000 24.090460 18.042082 905.867004
3.000000 0.840000 8.840000 -5.939350 25.511301 686.102356
3.000000 0.840000 8.880000 -31.515919 5.211449 1020.412292
3.000000 0.840000 8.920000 -30.678917 -28.334743 1744.053589
3.000000 0.840000 8.960000 -3.154160 -48.086681 2322.277588
3.000000 0.840000 9.000000 28.979504 -38.594116 2329.317383
3.000000 0.840000 9.040000 41.331753 -8.948456 1788.388672
3.000000 0.840000 9.080000 27.982609 17.249897 1080.585327
3.000000 0.840000 9.120000 3.514312 23.624763 570.479858
3.000000 0.840000 9.160000 -13.308589 12.873370 342.842224
3.000000 0.840000 9.200000 -16.154066 -0.726759 261.482025
3.000000 0.880000 8.800000 -3.602032 36.403027 1338.154907
3.000000 0.880000 8.840000 -49.550270 22.697582 2970.409424
3.000000 0.880000 8.880000 -71.680908 -29.320477 5997.843262
3.000000 0.880000 8.920000 -43.721046 -85.720146 9259.473633
3.000000 0.880000 8.960000 20.634628 -102.714661 10976.089844
3.000000 0.880000 9.000000 76.326851 -65.540878 10121.394531
3.000000 0.880000 9.040000 85.058418 -2.044304 7239.113770
3.000000 0.880000 9.080000 46.966835 42.093700 3977.763184
3.000000 0.880000 9.120000 -3.281689 42.229256 1794.079590
3.000000 0.880000 9.160000 -29.723114 11.178547 1008.423401
3.000000 0.880000 9.200000 -24.216597 -19.108421 951.575317
3.000000 0.920000 8.800000 -39.370121 25.446266 2197.519043
3.000000 0.920000 8.840000 -82.256088 -22.160275 7257.141602
3.000000 0.920000 8.880000 -71.786263 -100.911545 15336.407227
3.000000 0.920000 8.920000 3.828876 -152.481964 23265.410156
3.000000 0.920000 8.960000 99.982880 -130.038971 26906.710938
3.000000 0.920000 9.000000 149.484543 -42.892086 24185.359375
3.000000 0.920000 9.040000 119.909660 48.416161 16722.451172
3.000000 0.920000 9.080000 40.438759 83.440628 8597.631836
3.000000 0.920000 9.120000 -26.551590 51.221642 3328.643555
3.000000 0.920000 9.160000 -40.231289 -7.451387 1674.079834
3.000000 0.920000 9.200000 -10.283266 -42.706936 1929.627930
3.000000 0.960000 8.800000 -54.913155 -12.057053 3160.827148
3.000000 0.960000 8.840000 -67.887665 -85.888809 11985.623047
3.000000 0.960000 8.880000 -7.644032 -159.780945 25588.382812
3.000000 0.960000 8.920000 103.823723 -166.478180 38494.351562
3.000000 0.960000 8.960000 192.510773 -83.302055 43999.632812
3.000000 0.960000 9.000000 193.265656 40.508530 38992.554688
3.000000 0.960000 9.040000 107.315933 121.847412 26363.501953
3.000000 0.960000 9.080000 1.249819 113.475380 12878.224609
3.000000 0.960000 9.120000 -51.648502 40.368568 4297.189453
3.000000 0.960000 9.160000 -31.468613 -29.360142 1852.291504
3.000000 0.960000 9.200000 21.566072 -47.272568 2699.791016
3.000000 1.000000 8.800000 -35.014942 -49.825195 3708.596191
3.000000 1.000000 8.840000 -5.126492 -121.022064 14672.621094
3.000000 1.000000 8.880000 89.279037 -152.636688 31268.705078
3.000000 1.000000 8.920000 192.989090 -97.107521 46674.660156
3.000000 1.000000 8.960000 228.456482 26.560358 52897.816406
3.000000 1.000000 9.000000 163.470810 140.369873 46426.406250
3.000000 1.000000 9.040000 42.386711 170.621933 30908.476562
3.000000 1.000000 9.080000 -50.595020 109.336884 14514.410156
3.000000 1.000000 9.120000 -62.296555 16.673218 4158.856934
3.000000 1.000000 9.160000 -9.579550 -35.607983 1359.696289
3.000000 1.000000 9.200000 46.311867 -24.071856 2724.243164
3.000000 1.040000 8.800000 7.557228 -59.066151 3545.921875
3.000000 1.040000 8.840000 65.505638 -97.391312 13776.056641
3.000000 1.040000 8.880000 152.866974 -74.739731 28954.339844
3.000000 1.040000 8.920000 205.963348 18.328432 42756.832031
3.000000 1.040000 8.960000 175.345398 131.647705 48077.125000
3.000000 1.040000 9.000000 72.139427 191.684570 41947.070312
3.000000 1.040000 9.040000 -37.124062 162.347824 27735.011719
3.000000 1.040000 9.080000 -84.840065 74.465332 12742.921875
3.000000 1.040000 9.120000 -56.306797 -3.089746 3180.001953
3.000000 1.040000 9.160000 5.150631 -22.496710 532.630981
3.000000 1.040000 9.200000 42.723354 8.734123 1901.569946
3.000000 1.080000 8.800000 41.822323 -33.036823 2840.538330
3.000000 1.080000 8.840000 94.774567 -30.839920 9933.319336
3.000000 1.080000 8.880000 140.076004 21.242504 20072.531250
3.000000 1.080000 8.920000 135.651718 103.182663 29048.050781
3.000000 1.080000 8.960000 70.869110 165.427368 32388.644531
3.000000 1.080000 9.000000 -20.238918 167.055832 28317.263672
3.000000 1.080000 9.040000 -83.777176 109.370506 18980.523438
3.000000 1.080000 9.080000 -88.152588 34.481873 8959.878906
3.000000 1.080000 9.120000 -46.445374 -9.747845 2252.193115
3.000000 1.080000 9.160000 -0.619972 -6.553343 43.330666
3.000000 1.080000 9.200000 15.595360 22.785789 762.407471
3.000000 1.120000 8.800000 44.603687 7.739638 2049.390869
3.000000 1.120000 8.840000 67.168655 30.073351 5416.034668
3.000000 1.120000 8.880000 68.843643 70.828087 9756.064453
3.000000 1.120000 8.920000 39.537239 108.821152 13405.236328
3.000000 1.120000 8.960000 -11.188339 121.191574 14812.576172
3.000000 1.120000 9.000000 -59.365528 99.318657 13388.460938
3.000000 1.120000 9.040000 -82.394196 54.895012 9802.265625
3.000000 1.120000 9.080000 -73.666298 11.690111 5563.382324
3.000000 1.120000 9.120000 -45.423141 -10.556887 2174.709473
3.000000 1.120000 9.160000 -18.599117 -8.036217 410.507935
3.000000 1.120000 9.200000 -8.125208 7.418118 121.047470
3.000000 1.160000 8.800000 18.728592 34.137833 1516.151733
3.000000 1.160000 8.840000 11.837625 46.748478 2325.549561
3.000000 1.160000 8.880000 -1.152271 53.223186 2834.035156
3.000000 1.160000 8.920000 -14.415321 53.983028 3121.968750
3.000000 1.160000 8.960000 -27.569645 52.150921 3479.803711
3.000000 1.160000 9.000000 -43.085175 46.195930 3990.396240
3.000000 1.160000 9.040000 -58.268784 30.687973 4337.002930
3.000000 1.160000 9.080000 -63.494186 5.227095 4058.834229
3.000000 1.160000 9.120000 -51.180573 -19.786043 3010.938477
3.000000 1.160000 9.160000 -26.364655 -29.759981 1580.751465
3.000000 1.160000 9.200000 -5.584204 -20.030413 432.400757
3.000000 1.200000 8.800000 -12.621058 32.810631 1235.828613
3.000000 1.200000 8.840000 -27.074997 21.149694 1180.364990
3.000000 1.200000 8.880000 -24.121227 2.884116 590.151733
3.000000 1.200000 8.920000 -6.910439 -1.066048 48.890621
3.000000 1.200000 8.960000 2.439495 15.913082 259.177307
3.000000 1.200000 9.000000 -13.392782 35.336845 1428.059204
3.000000 1.200000 9.040000 -45.417847 30.980970 3022.601318
3.000000 1.200000 9.080000 -64.117844 -2.542536 4117.562012
3.000000 1.200000 9.120000 -48.731659 -41.062778 4060.926270
3.000000 1.200000 9.160000 -9.706217 -53.216637 2926.221191
3.000000 1.200000 9.200000 20.296436 -31.720337 1418.125000
3.040000 0.800000 8.800000 19.614830 9.458477 474.204346
3.040000 0.800000 8.840000 5.069605 10.090807 127.525284
3.040000 0.800000 8.880000 -1.439725 -0.507580 2.330445
3.040000 0.800000 8.920000 5.213736 -9.577106 118.904007
3.040000 0.800000 8.960000 16.547112 -6.777155 319.736725
3.040000 0.800000 9.000000 19.955605 5.476635 428.219696
3.040000 0.800000 9.040000 11.788067 15.642275 383.639282
3.040000 0.800000 9.080000 -0.134893 15.724659 247.283096
3.040000 0.800000 9.120000 -6.225184 8.701372 114.466797
3.040000 0.800000 9.160000 -5.288026 3.263705 38.614983
3.040000 0.800000 9.200000 -3.929842 3.120724 25.182571
3.040000 0.840000 8.800000 2.292126 22.834572 526.671509
3.040000 0.840000 8.840000 -21.116533 12.872602 611.611877
3.040000 0.840000 8.880000 -28.478804 -13.894173 1004.090271
3.040000 0.840000 8.920000 -11.395943 -37.395489 1528.290161
3.040000 0.840000 8.960000 17.974907 -38.919182 1837.800049
3.040000 0.840000 9.000000 37.486519 -17.714077 1719.027588
3.040000 0.840000 9.040000 34.273163 9.321140 1261.533325
3.040000 0.840000 9.080000 14.114978 23.433208 748.347839
3.040000 0.840000 9.120000 -6.480042 19.143425 408.461670
3.040000 0.840000 9.160000 -15.716583 5.177785 273.820435
3.040000 0.840000 9.200000 -14.065532 -6.810870 244.227142
3.040000 0.880000 8.800000 -23.371403 16.680454 824.460022
3.040000 0.880000 8.840000 -47.574551 -14.123930 2462.823242
3.040000 0.880000 8.880000 -38.111267 -60.879219 5158.748047
3.040000 0.880000 8.920000 8.601780 -88.052750 7827.277344
3.040000 0.880000 8.960000 63.433113 -70.681366 9019.615234
3.040000 0.880000 9.000000 87.739883 -18.194054 8029.310547
3.040000 0.880000 9.040000 66.337067 32.610043 5464.021484
3.040000 0.880000 9.080000 19.212585 48.912365 2761.542969
3.040000 0.880000 9.120000 -17.990997 27.802660 1096.663940
3.040000 0.880000 9.160000 -24.637253 -6.220682 645.691101
3.040000 0.880000 9.200000 -8.092257 -26.562069 771.028137
3.040000 0.920000 8.800000 -36.566490 -10.561989 1448.663818
3.040000 0.920000 8.840000 -43.381447 -62.602005 5800.960938
3.040000 0.920000 8.880000 1.213203 -112.851059 12736.833008
3.040000 0.920000 8.920000 79.907364 -114.300926 19449.888672
3.040000 0.920000 8.960000 139.744751 -53.177719 22356.464844
3.040000 0.920000 9.000000 136.400787 33.662292 19738.324219
3.040000 0.920000 9.040000 73.600403 87.825371 13130.315430
3.040000 0.920000 9.080000 -0.360498 78.552345 6170.601074
3.040000 0.920000 9.120000 -35.282089 25.842865 1912.679443
3.040000 0.920000 9.160000 -19.828577 -22.452511 897.287720
3.040000 0.920000 9.200000 16.641747 -34.645187 1477.236816
3.040000 0.960000 8.800000 -22.711405 -40.929844 2191.060059
3.040000 0.960000 8.840000 2.752857 -97.185158 9452.533203
3.040000 0.960000 8.880000 80.278748 -120.704987 21014.371094
3.040000 0.960000 8.920000 163.932129 -72.662827 32153.628906
3.040000 0.960000 8.960000 189.842621 29.939287 36936.578125
3.040000 0.960000 9.000000 133.099060 121.707741 32528.132812
3.040000 0.960000 9.040000 32.543709 142.774567 21443.669922
3.040000 0.960000 9.080000 -41.815323 89.264282 9716.633789
3.040000 0.960000 9.120000 -48.278816 12.851248 2495.998535
3.040000 0.960000 9.160000 -3.758728 -28.198330 809.273865
3.040000 0.960000 9.200000 40.603214 -17.814606 1965.981201
3.040000 1.000000 8.800000 11.599392 -50.456738 2680.428223
3.040000 1.000000 8.840000 65.366936 -85.307724 11550.244141
3.040000 1.000000 8.880000 147.450165 -62.567665 25656.263672
3.040000 1.000000 8.920000 196.088562 27.437439 39203.535156
3.040000 1.000000 8.960000 163.406555 135.347717 45020.707031
3.040000 1.000000 9.000000 61.844597 189.363037 39683.113281
3.040000 1.000000 9.040000 -42.131058 156.219269 26179.484375
3.040000 1.000000 9.080000 -83.510330 69.097000 11748.371094
3.040000 1.000000 9.120000 -51.649708 -3.770912 2681.912109
3.040000 1.000000 9.160000 8.036139 -18.683014 413.634552
3.040000 1.000000 9.200000 41.223064 12.376950 1852.530029
3.040000 1.040000 8.800000 42.181644 -29.983379 2678.294189
3.040000 1.040000 8.840000 100.382393 -29.119581 10924.575195
3.040000 1.040000 8.880000 151.868195 29.400116 23928.316406
3.040000 1.040000 8.920000 145.469727 123.285004 36360.632812
3.040000 1.040000 8.960000 68.079063 192.686569 41762.871094
3.040000 1.040000 9.000000 -37.833496 188.710968 37043.203125
3.040000 1.040000 9.040000 -106.551079 115.915886 24789.625000
3.040000 1.040000 9.080000 -103.002975 28.372379 11414.605469
3.040000 1.040000 9.120000 -48.509186 -17.103409 2645.667725
3.040000 1.040000 9.160000 3.741455 -6.282703 53.470848
3.040000 1.040000 9.200000 17.257500 29.266500 1154.349365
3.040000 1.080000 8.800000 47.155369 6.409466 2264.710205
3.040000 1.080000 8.840000 83.189247 33.408287 8036.564453
3.040000 1.080000 8.880000 90.294205 93.504173 16896.074219
3.040000 1.080000 8.920000 46.394035 152.130524 25296.101562
3.040000 1.080000 8.960000 -33.164246 167.314377 29093.968750
3.040000 1.080000 9.000000 -103.750595 124.552109 26277.414062
3.040000 1.080000 9.040000 -125.882751 50.058220 18352.292969
3.040000 1.080000 9.080000 -95.708176 -10.335562 9266.878906
3.040000 1.080000 9.120000 -44.707108 -27.500792 2755.019043
3.040000 1.080000 9.160000 -10.718027 -8.155159 181.382721
3.040000 1.080000 9.200000 -8.185238 17.855789 385.827301
3.040000 1.120000 8.800000 24.796562 33.519493 1738.425903
3.040000 1.120000 8.840000 29.888479 60.763222 4585.490234
3.040000 1.120000 8.880000 10.337471 92.025391 8575.536133
3.040000 1.120000 8.920000 -31.669666 106.179161 12276.982422
3.040000 1.120000 8.960000 -77.928787 90.057892 14183.320312
3.040000 1.120000 9.000000 -105.804062 48.222118 13519.873047
3.040000 1.120000 9.040000 -103.132034 0.156937 10636.241211
3.040000 1.120000 9.080000 -75.352135 -32.690563 6746.617188
3.040000 1.120000 9.120000 -40.404884 -40.109985 3241.365723
3.040000 1.120000 9.160000 -16.187141 -27.446768 1015.348633
3.040000 1.120000 9.200000 -10.095600 -9.399487 190.271484
3.040000 1.160000 8.800000 -6.981776 36.011646 1345.583862
3.040000 1.160000 8.840000 -18.810329 42.480400 2158.412842
3.040000 1.160000 8.880000 -33.207005 41.327042 2810.629395
3.040000 1.160000 8.920000 -45.925186 34.774338 3318.377441
3.040000 1.160000 8.960000 -57.431778 24.600758 3903.606445
3.040000 1.160000 9.000000 -67.531631 8.289230 4629.232910
3.040000 1.160000 9.040000 -70.136917 -16.076651 5177.645508
3.040000 1.160000 9.080000 -57.151146 -42.111115 5039.599609
3.040000 1.160000 9.120000 -29.035738 -55.968582 3975.556152
3.040000 1.160000 9.160000 0.460388 -48.112831 2315.056396
3.040000 1.160000 9.200000 13.579918 -24.701084 794.557739
3.040000 1.200000 8.800000 -27.667500 18.671505 1114.115601
3.040000 1.200000 8.840000 -34.060188 3.291599 1170.931030
3.040000 1.200000 8.880000 -24.862148 -9.426676 706.988647
3.040000 1.200000 8.920000 -12.160874 -5.847012 182.074417
3.040000 1.200000 8.960000 -14.834015 7.794197 280.797516
3.040000 1.200000 9.000000 -35.315697 9.511965 1337.676025
3.040000 1.200000 9.040000 -52.752121 -14.105573 2981.753662
3.040000 1.200000 9.080000 -42.988270 -49.692501 4317.335938
3.040000 1.200000 9.120000 -5.583420 -67.093964 4532.774902
3.040000 1.200000 9.160000 32.077419 -49.503563 3479.563477
3.040000 1.200000 9.200000 40.415501 -12.299196 1784.682983
3.080000 0.800000 8.800000 0.787609 16.120285 260.483917
3.080000 0.800000 8.840000 -6.945360 8.106314 113.950348
3.080000 0.800000 8.880000 -4.690319 -1.537010 24.361492
3.080000 0.800000 8.920000 3.587471 -3.800707 27.315321
3.080000 0.800000 8.960000 8.591633 1.987968 77.768173
3.080000 0.800000 9.000000 5.884262 8.493179 106.758636
3.080000 0.800000 9.040000 -0.305820 9.287716 86.355194
3.080000 0.800000 9.080000 -3.335539 5.556374 41.999111
3.080000 0.800000 9.120000 -2.220199 3.125204 14.696179
3.080000 0.800000 9.160000 -1.816925 4.270997 21.542629
3.080000 0.800000 9.200000 -5.442884 4.794797 52.615067
3.080000 0.840000 8.800000 -14.641518 9.079493 296.811218
3.080000 0.840000 8.840000 -21.215376 -6.499022 492.329468
3.080000 0.840000 8.880000 -13.296614 -23.825584 744.458374
3.080000 0.840000 8.920000 5.701786 -30.116693 939.525574
3.080000 0.840000 8.960000 23.173737 -20.602365 961.479553
3.080000 0.840000 9.000000 28.014477 -2.337963 790.276978
3.080000 0.840000 9.040000 19.054491 12.429298 517.561096
3.080000 0.840000 9.080000 4.198200 16.040142 274.911041
3.080000 0.840000 9.120000 -7.240827 9.498318 142.647614
3.080000 0.840000 9.160000 -10.940226 -1.018249 120.725365
3.080000 0.840000 9.200000 -8.028008 -9.937351 163.199860
3.080000 0.880000 8.800000 -19.987280 -10.949577 519.384583
3.080000 0.880000 8.840000 -18.859406 -35.815189 1638.405029
3.080000 0.880000 8.880000 5.251114 -56.855915 3260.169189
3.080000 0.880000 8.920000 42.346561 -54.008018 4710.097168
3.080000 0.880000 8.960000 68.212654 -23.479866 5204.270508
3.080000 0.880000 9.000000 64.499001 16.658577 4437.629395
3.080000 0.880000 9.040000 34.549339 40.579117 2840.321533
3.080000 0.880000 9.080000 0.306387 35.603073 1267.672729
3.080000 0.880000 9.120000 -16.322123 10.881244 384.813141
3.080000 0.880000 9.160000 -10.074995 -12.820576 265.872681
3.080000 0.880000 9.200000 7.164457 -21.225067 501.832916
3.080000 0.920000 8.800000 -6.100948 -30.647877 976.513916
3.080000 0.920000 8.840000 11.159533 -58.855316 3588.483398
3.080000 0.920000 8.880000 55.318481 -68.146141 7704.030762
3.080000 0.920000 8.920000 100.900177 -38.056503 11629.143555
3.080000 0.920000 8.960000 113.018372 21.071274 13217.151367
3.080000 0.920000 9.000000 78.770401 72.490089 11459.588867
3.080000 0.920000 9.040000 20.671537 83.105118 7333.772949
3.080000 0.920000 9.080000 -21.746244 51.325882 3107.245361
3.080000 0.920000 9.120000 -25.065559 6.593687 671.758972
3.080000 0.920000 9.160000 1.183764 -17.981331 324.729553
3.080000 0.920000 9.200000 28.083502 -12.944078 956.232178
3.080000 0.960000 8.800000 20.677067 -33.082447 1521.989258
3.080000 0.960000 8.840000 55.279140 -51.253876 5682.743164
3.080000 0.960000 8.880000 107.003151 -33.104099 12545.554688
3.080000 0.960000 8.920000 136.095367 27.877487 19299.103516
3.080000 0.960000 8.960000 111.355209 99.215179 22243.632812
3.080000 0.960000 9.000000 41.576874 133.343353 19509.085938
3.080000 0.960000 9.040000 -28.306145 108.609024 12597.158203
3.080000 0.960000 9.080000 -54.692627 48.226921 5317.119141
3.080000 0.960000 9.120000 -31.213007 -1.209326 975.714294
3.080000 0.960000 9.160000 10.447750 -10.461709 218.602844
3.080000 0.960000 9.200000 33.260765 11.325577 1234.547119
3.080000 1.000000 8.800000 41.542358 -13.134458 1898.281494
3.080000 1.000000 8.840000 82.404007 -9.966292 6889.747559
3.080000 1.000000 8.880000 118.566696 35.667999 15330.267578
3.080000 1.000000 8.920000 110.471786 107.641266 23790.658203
3.080000 1.000000 8.960000 47.698494 159.420670 27690.095703
3.080000 1.000000 9.000000 -35.851479 152.705048 24604.160156
3.080000 1.000000 9.040000 -87.753738 92.222260 16205.664062
3.080000 1.000000 9.080000 -81.090614 22.433311 7078.940918
3.080000 1.000000 9.120000 -35.060883 -11.280973 1356.525879
3.080000 1.000000 9.160000 6.370415 0.372421 40.720882
3.080000 1.000000 9.200000 15.176300 29.557812 1103.984375
3.080000 1.040000 8.800000 40.704933 16.606983 1932.683472
3.080000 1.040000 8.840000 70.528084 39.848057 6562.078125
3.080000 1.040000 8.880000 75.438919 93.643188 14460.077148
3.080000 1.040000 8.920000 33.085976 146.246246 22482.646484
3.080000 1.040000 8.960000 -42.248333 156.944687 26416.556641
3.080000 1.040000 9.000000 -106.581070 112.146072 23936.265625
3.080000 1.040000 9.040000 -121.721466 39.432278 16371.019531
3.080000 1.040000 9.080000 -86.759293 -15.008379 7752.426270
3.080000 1.040000 9.120000 -36.094292 -24.692801 1912.532227
3.080000 1.040000 9.160000 -7.144058 -1.029634 52.097713
3.080000 1.040000 9.200000 -9.701163 23.541908 648.333984
3.080000 1.080000 8.800000 18.889896 36.074810 1658.220215
3.080000 1.080000 8.840000 27.213459 64.859055 4947.269043
3.080000 1.080000 8.880000 6.164646 102.139496 10470.479492
3.080000 1.080000 8.920000 -44.780079 118.863792 16133.857422
3.080000 1.080000 8.960000 -100.527451 95.256844 19179.634766
3.080000 1.080000 9.000000 -128.268631 39.267326 17994.765625
3.080000 1.080000 9.040000 -113.543266 -18.143318 13221.252930
3.080000 1.080000 9.080000 -70.973557 -47.264915 7271.217773
3.080000 1.080000 9.120000 -30.514130 -41.618416 2663.204590
3.080000 1.080000 9.160000 -12.859081 -18.664001 513.700928
3.080000 1.080000 9.200000 -16.449116 -1.138121 271.868713
3.080000 1.120000 8.800000 -8.157401 34.519985 1258.172607
3.080000 1.120000 8.840000 -16.867109 51.848938 2972.811523
3.080000 1.120000 8.880000 -42.108948 61.893028 5603.910156
3.080000 1.120000 8.920000 -74.465607 52.455635 8296.720703
3.080000 1.120000 8.960000 -97.662239 22.182827 10029.991211
3.080000 1.120000 9.000000 -99.087936 -17.801411 10135.309570
3.080000 1.120000 9.040000 -77.747452 -50.737488 8618.958984
3.080000 1.120000 9.080000 -44.284538 -64.354866 6102.668945
3.080000 1.120000 9.120000 -13.920002 -57.246758 3470.957520
3.080000 1.120000 9.160000 2.327648 -38.107819 1457.623779
3.080000 1.120000 9.200000 2.705712 -19.462990 386.128876
3.080000 1.160000 8.800000 -24.270584 17.737429 903.677612
3.080000 1.160000 8.840000 -35.022121 16.804550 1508.941895
3.080000 1.160000 8.880000 -44.538975 9.424398 2072.539551
3.080000 1.160000 8.920000 -50.845367 -1.331192 2587.023438
3.080000 1.160000 8.960000 -54.732975 -14.893188 3217.505615
3.080000 1.160000 9.000000 -54.095596 -33.103458 4022.172363
3.080000 1.160000 9.040000 -42.792747 -53.849579 4730.996094
3.080000 1.160000 9.080000 -17.844141 -67.344147 4853.647461
3.080000 1.160000 9.120000 12.714080 -62.542225 4073.177734
3.080000 1.160000 9.160000 32.380180 -39.145969 2580.882812
3.080000 1.160000 9.200000 29.845306 -11.919218 1032.810059
3.080000 1.200000 8.800000 -25.700680 -0.238976 660.582092
3.080000 1.200000 8.840000 -25.326448 -12.801640 805.310974
3.080000 1.200000 8.880000 -15.666602 -18.535542 589.008728
3.080000 1.200000 8.920000 -9.804426 -13.261833 272.002991
3.080000 1.200000 8.960000 -16.937756 -8.860899 365.403107
3.080000 1.200000 9.000000 -28.357689 -20.124035 1209.135254
3.080000 1.200000 9.040000 -24.171486 -45.034626 2612.378418
3.080000 1.200000 9.080000 4.166477 -62.103470 3874.200684
3.080000 1.200000 9.120000 40.309887 -50.977879 4223.630859
3.080000 1.200000 9.160000 55.962467 -15.652035 3376.783936
3.080000 1.200000 9.200000 39.231655 15.951446 1793.571411
3.120000 0.800000 8.800000 -15.329160 6.049260 271.576691
3.120000 0.800000 8.840000 -12.877359 -2.086593 170.180252
3.120000 0.800000 8.880000 -6.732126 -4.899267 69.324341
3.120000 0.800000 8.920000 -3.080893 -2.860888 17.676575
3.120000 0.800000 8.960000 -3.706924 -1.452085 15.849841
3.120000 0.800000 9.000000 -4.248646 -3.881176 33.114517
3.120000 0.800000 9.040000 -0.377844 -6.796951 46.341312
3.120000 0.800000 9.080000 5.798485 -4.600435 54.786438
3.120000 0.800000 9.120000 7.496902 2.696090 63.472435
3.120000 0.800000 9.160000 1.682282 8.054987 67.712883
3.120000 0.800000 9.200000 -6.024445 5.104496 62.349823
3.120000 0.840000 8.800000 -14.274887 -12.052166 349.027100
3.120000 0.840000 8.840000 -7.529383 -18.483257 398.322388
3.120000 0.840000 8.880000 1.587215 -20.091021 406.168365
3.120000 0.840000 8.920000 9.483738 -16.830629 373.211365
3.120000 0.840000 8.960000 14.107989 -10.842794 316.601562
3.120000 0.840000 9.000000 15.303120 -4.158096 251.475235
3.120000 0.840000 9.040000 13.257812 2.014847 179.829193
3.120000 0.840000 9.080000 8.019001 6.054597 100.962517
3.120000 0.840000 9.120000 1.130209 5.595103 32.582550
3.120000 0.840000 9.160000 -3.406105 -0.133748 11.619436
3.120000 0.840000 9.200000 -1.617566 -7.778253 63.117733
3.120000 0.880000 8.800000 3.378548 -24.902473 631.547791
3.120000 0.880000 8.840000 13.517670 -28.225569 979.410156
3.120000 0.880000 8.880000 27.072090 -25.772455 1397.117432
3.120000 0.880000 8.920000 38.889256 -14.476301 1721.937500
3.120000 0.880000 8.960000 41.964260 3.211918 1771.315552
3.120000 0.880000 9.000000 33.062099 19.361399 1467.966187
3.120000 0.880000 9.040000 16.284918 25.524651 916.706360
3.120000 0.880000 9.080000 1.099773 18.999367 362.185455
3.120000 0.880000 9.120000 -4.102702 5.149692 43.351494
3.120000 0.880000 9.160000 2.052827 -6.368485 44.771706
3.120000 0.880000 9.200000 13.333834 -8.679596 253.126511
3.120000 0.920000 8.800000 27.904638 -18.879229 1135.094116
3.120000 0.920000 8.840000 40.151310 -17.388006 1914.470459
3.120000 0.920000 8.880000 55.381256 -6.033468 3103.486328
3.120000 0.920000 8.920000 62.656265 17.649282 4237.304688
3.120000 0.920000 8.960000 51.880268 44.246136 4649.282715
3.120000 0.920000 9.000000 24.858843 57.905632 3971.024414
3.120000 0.920000 9.040000 -3.488504 49.657822 2478.068848
3.120000 0.920000 9.080000 -16.331053 26.049360 945.272461
3.120000 0.920000 9.120000 -8.685211 4.259260 93.574188
3.120000 0.920000 9.160000 9.178205 -2.175051 88.970284
3.120000 0.920000 9.200000 21.762287 6.235585 512.479675
3.120000 0.960000 8.800000 40.666672 6.032287 1690.166626
3.120000 0.960000 8.840000 52.134697 13.637232 2904.000732
3.120000 0.960000 8.880000 61.447433 34.944515 4996.906250
3.120000 0.960000 8.920000 53.632565 65.450729 7160.250000
3.120000 0.960000 8.960000 23.390991 87.040001 8123.100586
3.120000 0.960000 9.000000 -15.882809 82.836655 7114.174805
3.120000 0.960000 9.040000 -40.927074 53.700218 4558.738770
3.120000 0.960000 9.080000 -38.212502 19.336176 1834.083008
3.120000 0.960000 9.120000 -15.481968 1.832006 243.047577
3.120000 0.960000 9.160000 6.180225 7.192160 89.922348
3.120000 0.960000 9.200000 11.807847 22.605061 650.414001
3.120000 1.000000 8.800000 29.980108 33.634911 2030.114136
3.120000 1.000000 8.840000 36.655231 46.252167 3482.868896
3.120000 1.000000 8.880000 33.262825 71.177658 6172.674316
3.120000 1.000000 8.920000 8.138366 94.981445 9087.708008
3.120000 1.000000 8.960000 -32.938580 97.347153 10561.417969
3.120000 1.000000 9.000000 -67.503029 70.410149 9514.248047
3.120000 1.000000 9.040000 -74.601257 28.566246 6381.377930
3.120000 1.000000 9.080000 -53.348282 -2.397247 2851.785889
3.120000 1.000000 9.120000 -23.399719 -7.140622 598.535339
3.120000 1.000000 9.160000 -6.700414 7.555755 101.984970
3.120000 1.000000 9.200000 -8.744631 22.196878 569.169983
3.120000 1.040000 8.800000 2.367522 44.393494 1976.387329
3.120000 1.040000 8.840000 1.684663 57.835091 3347.735840
3.120000 1.040000 8.880000 -13.819141 76.086487 5980.122070
3.120000 1.040000 8.920000 -46.325035 82.387238 8933.666016
3.120000 1.040000 8.960000 -81.072403 63.625969 10620.998047
3.120000 1.040000 9.000000 -96.644821 24.489412 9939.953125
3.120000 1.040000 9.040000 -83.397552 -14.019958 7151.710938
3.120000 1.040000 9.080000 -52.218269 -31.524517 3720.542725
3.120000 1.040000 9.120000 -24.766333 -24.703268 1223.622681
3.120000 1.040000 9.160000 -14.830939 -7.630272 278.177826
3.120000 1.040000 9.200000 -18.919626 3.253822 368.539642
3.120000 1.080000 8.800000 -22.667063 32.409119 1564.146729
3.120000 1.080000 8.840000 -29.528318 41.441429 2589.313721
3.120000 1.080000 8.880000 -48.556435 46.641113 4533.121094
3.120000 1.080000 8.920000 -73.732956 36.555641 6772.863770
3.120000 1.080000 8.960000 -90.458061 8.804243 8260.175781
3.120000 1.080000 9.000000 -86.766319 -25.795654 8193.809570
3.120000 1.080000 9.040000 -63.387642 -50.558834 6574.188965
3.120000 1.080000 9.080000 -33.308437 -55.468075 4186.159180
3.120000 1.080000 9.120000 -11.425686 -43.725876 2042.498535
3.120000 1.080000 9.160000 -3.935269 -27.134918 751.790100
3.120000 1.080000 9.200000 -6.527363 -15.695662 288.960266
3.120000 1.120000 8.800000 -30.065617 9.808498 1000.147949
3.120000 1.120000 8.840000 -38.497280 11.390051 1611.773804
3.120000 1.120000 8.880000 -50.871681 5.946779 2623.292236
3.120000 1.120000 8.920000 -60.948647 -8.854565 3793.140869
3.120000 1.120000 8.960000 -62.125763 -30.256878 4775.088867
3.120000 1.120000 9.000000 -51.012718 -51.424610 5246.788086
3.120000 1.120000 9.040000 -29.457092 -64.471237 5024.260742
3.120000 1.120000 9.080000 -4.252800 -64.154800 4133.924805
3.120000 1.120000 9.120000 15.558925 -50.812531 2823.993408
3.120000 1.120000 9.160000 23.103745 -30.916533 1489.614990
3.120000 1.120000 9.200000 17.759399 -14.110833 514.511902
3.120000 1.160000 8.800000 -21.774361 -5.956787 509.606079
3.120000 1.160000 8.840000 -26.422680 -10.965408 818.398193
3.120000 1.160000 8.880000 -27.736706 -18.407278 1108.152710
3.120000 1.160000 8.920000 -26.834713 -25.963455 1394.202881
3.120000 1.160000 8.960000 -24.654739 -35.029156 1834.897949
3.120000 1.160000 9.000000 -17.742928 -46.951149 2519.221924
3.120000 1.160000 9.040000 -1.232428 -57.088371 3260.600830
3.120000 1.160000 9.080000 23.013988 -55.712643 3633.541992
3.120000 1.160000 9.120000 43.263153 -37.533798 3280.486328
3.120000 1.160000 9.160000 46.186684 -10.255227 2238.379395
3.120000 1.160000 9.200000 30.161201 8.916422 989.200623
3.120000 1.200000 8.800000 -11.947800 -8.838005 220.860260
3.120000 1.200000 8.840000 -9.438953 -16.526627 362.223236
3.120000 1.200000 8.880000 -2.917979 -18.086308 335.629150
3.120000 1.200000 8.920000 -1.395206 -15.158257 231.719330
3.120000 1.200000 8.960000 -5.604404 -17.722351 345.491089
3.120000 1.200000 9.000000 -4.427822 -30.220701 932.896362
3.120000 1.200000 9.040000 12.496712 -42.131561 1931.236328
3.120000 1.200000 9.080000 39.489456 -36.474255 2889.788330
3.120000 1.200000 9.120000 56.005764 -9.238465 3221.994629
3.120000 1.200000 9.160000 46.340271 22.067047 2634.375244
3.120000 1.200000 9.200000 17.910049 33.031830 1411.871704
3.160000 0.800000 8.800000 -17.447777 -11.892454 445.855408
3.160000 0.800000 8.840000 -9.366492 -12.824679 252.203583
3.160000 0.800000 8.880000 -6.396343 -9.685675 134.725494
3.160000 0.800000 8.920000 -8.112436 -10.003242 165.876480
3.160000 0.800000 8.960000 -6.998899 -16.201450 311.471588
3.160000 0.800000 9.000000 2.554878 -21.541451 470.561493
3.160000 0.800000 9.040000 16.225412 -17.007460 552.517700
3.160000 0.800000 9.080000 22.763676 -2.241482 523.209167
3.160000 0.800000 9.120000 15.831238 12.210957 399.735565
3.160000 0.800000 9.160000 1.772785 15.038621 229.302887
3.160000 0.800000 9.200000 -6.158183 6.214098 76.538223
3.160000 0.840000 8.800000 1.601450 -24.445843 600.163879
3.160000 0.840000 8.840000 8.380764 -16.551723 344.196777
3.160000 0.840000 8.880000 6.728847 -10.245870 150.255219
3.160000 0.840000 8.920000 3.453578 -11.371916 141.247665
3.160000 0.840000 8.960000 6.704480 -16.240475 308.703064
3.160000 0.840000 9.000000 16.421713 -15.622377 513.731323
3.160000 0.840000 9.040000 23.692875 -5.451250 591.068420
3.160000 0.840000 9.080000 20.374334 7.676816 474.046997
3.160000 0.840000 9.120000 8.626682 12.912569 241.154083
3.160000 0.840000 9.160000 -0.612727 6.922750 48.299908
3.160000 0.840000 9.200000 0.822014 -2.103767 5.101544
3.160000 0.880000 8.800000 27.469551 -15.702559 1001.146606
3.160000 0.880000 8.840000 25.960651 -2.149679 678.576538
3.160000 0.880000 8.880000 18.031052 3.171619 335.178009
3.160000 0.880000 8.920000 13.539642 0.353902 183.447159
3.160000 0.880000 8.960000 16.673687 -2.402706 283.784851
3.160000 0.880000 9.000000 22.083981 1.817191 491.004395
3.160000 0.880000 9.040000 21.430172 10.961319 579.402771
3.160000 0.880000 9.080000 13.132923 16.491249 444.434967
3.160000 0.880000 9.120000 4.403307 13.183073 193.182526
3.160000 0.880000 9.160000 3.286798 5.283360 38.716927
3.160000 0.880000 9.200000 9.596721 1.968298 95.971245
3.160000 0.920000 8.800000 38.660351 13.775947 1684.399414
3.160000 0.920000 8.840000 26.470512 25.050167 1328.198975
3.160000 0.920000 8.880000 14.177603 24.807232 816.403198
3.160000 0.920000 8.920000 9.495037 19.285637 462.091522
3.160000 0.920000 8.960000 11.016005 17.035576 411.563202
3.160000 0.920000 9.000000 11.547300 20.172411 540.266357
3.160000 0.920000 9.040000 6.914911 23.451075 597.768860
3.160000 0.920000 9.080000 0.407449 21.391735 457.772339
3.160000 0.920000 9.120000 -1.637732 15.021733 228.334625
3.160000 0.920000 9.160000 2.458442 10.674231 119.983139
3.160000 0.920000 9.200000 7.682206 12.633751 218.627960
3.160000 0.960000 8.800000 21.975243 44.329418 2448.008545
3.160000 0.960000 8.840000 3.749115 45.963528 2126.701904
3.160000 0.960000 8.880000 -7.878680 38.161636 1518.384155
3.160000 0.960000 8.920000 -10.672121 29.812824 1002.698669
3.160000 0.960000 8.960000 -9.916388 26.246990 787.239197
3.160000 0.960000 9.000000 -11.184063 25.570505 778.933960
3.160000 0.960000 9.040000 -14.513340 23.045200 741.718262
3.160000 0.960000 9.080000 -15.769022 17.544497 556.471436
3.160000 0.960000 9.120000 -12.601089 12.740913 321.118347
3.160000 0.960000 9.160000 -7.578146 12.325766 209.352783
3.160000 0.960000 9.200000 -5.071713 15.596611 268.976562
3.160000 1.000000 8.800000 -13.669884 52.298279 2921.975586
3.160000 1.000000 8.840000 -29.215439 43.027237 2704.885010
3.160000 1.000000 8.880000 -35.040226 30.091770 2133.332031
3.160000 1.000000 8.920000 -34.028934 20.726505 1587.556396
3.160000 1.000000 8.960000 -32.146576 16.013008 1289.818848
3.160000 1.000000 9.000000 -32.007931 12.369873 1177.521484
3.160000 1.000000 9.040000 -31.552444 7.184853 1047.178833
3.160000 1.000000 9.080000 -28.123785 1.882676 794.491760
3.160000 1.000000 9.120000 -22.329872 -0.414087 498.794678
3.160000 1.000000 9.160000 -17.318851 1.081691 301.112671
3.160000 1.000000 9.200000 -15.056884 4.195391 244.311050
3.160000 1.040000 8.800000 -42.942970 31.074347 2809.713867
3.160000 1.040000 8.840000 -49.513554 16.599758 2727.144043
3.160000 1.040000 8.880000 -47.922775 3.963343 2312.300293
3.160000 1.040000 8.920000 -43.210899 -3.416762 1878.856079
3.160000 1.040000 8.960000 -39.727127 -7.479049 1634.180786
3.160000 1.040000 9.000000 -37.523510 -11.780865 1546.802612
3.160000 1.040000 9.040000 -33.834778 -17.165070 1439.431885
3.160000 1.040000 9.080000 -27.108259 -21.236237 1185.835449
3.160000 1.040000 9.120000 -18.945669 -21.383858 816.207764
3.160000 1.040000 9.160000 -12.429231 -17.490265 460.395142
3.160000 1.040000 9.200000 -9.388758 -11.609748 222.935013
3.160000 1.080000 8.800000 -45.933308 -2.225998 2114.823730
3.160000 1.080000 8.840000 -44.129753 -14.194154 2148.909180
3.160000 1.080000 8.880000 -38.012363 -22.113405 1933.942505
3.160000 1.080000 8.920000 -32.047256 -25.598402 1682.304810
3.160000 1.080000 8.960000 -28.458080 -27.860310 1586.059082
3.160000 1.080000 9.000000 -25.400146 -31.903790 1663.019287
3.160000 1.080000 9.040000 -19.318064 -37.107754 1750.172974
3.160000 1.080000 9.080000 -9.077752 -39.525135 1644.641968
3.160000 1.080000 9.120000 2.174157 -35.603455 1272.332886
3.160000 1.080000 9.160000 9.184713 -25.767986 748.348083
3.160000 1.080000 9.200000 8.764525 -14.574947 289.246002
3.160000 1.120000 8.800000 -25.767076 -22.245388 1158.799561
3.160000 1.120000 8.840000 -21.301708 -28.416460 1261.257935
3.160000 1.120000 8.880000 -15.164237 -31.273672 1207.996582
3.160000 1.120000 8.920000 -10.763752 -31.515587 1109.090576
3.160000 1.120000 8.960000 -8.760857 -32.834538 1154.859375
3.160000 1.120000 9.000000 -5.427787 -37.482349 1434.387329
3.160000 1.120000 9.040000 3.676834 -42.389118 1810.356567
3.160000 1.120000 9.080000 17.896999 -40.847046 1988.783813
3.160000 1.120000 9.120000 29.968300 -29.158688 1748.328125
3.160000 1.120000 9.160000 31.629808 -11.782619 1139.274902
3.160000 1.120000 9.200000 21.593925 1.067497 467.437164
3.160000 1.160000 8.800000 -4.399605 -18.719154 369.763245
3.160000 1.160000 8.840000 -1.777214 -21.944523 484.720551
3.160000 1.160000 8.880000 2.316045 -22.520508 512.537354
3.160000 1.160000 8.920000 4.182626 -21.688347 487.878754
3.160000 1.160000 8.960000 4.546154 -23.907692 592.245300
3.160000 1.160000 9.000000 9.282042 -29.845337 976.900452
3.160000 1.160000 9.040000 22.301086 -32.660820 1564.067627
3.160000 1.160000 9.080000 38.277744 -23.795986 2031.434570
3.160000 1.160000 9.120000 44.965622 -3.391554 2033.409790
3.160000 1.160000 9.160000 34.893044 16.541815 1491.156128
3.160000 1.160000 9.200000 14.700829 21.873371 694.558716
3.160000 1.200000 8.800000 -0.432388 -4.631864 21.641125
3.160000 1.200000 8.840000 1.534063 -9.238230 87.698235
3.160000 1.200000 8.880000 4.961161 -9.526922 115.375359
3.160000 1.200000 8.920000 5.188517 -8.984004 107.633026
3.160000 1.200000 8.960000 5.329569 -13.008759 197.632111
3.160000 1.200000 9.000000 12.972458 -19.206825 537.186768
3.160000 1.200000 9.040000 28.809958 -17.120541 1123.126587
3.160000 1.200000 9.080000 41.387878 -0.000243 1712.956421
3.160000 1.200000 9.120000 36.872818 24.183498 1944.446289
3.160000 1.200000 9.160000 14.992908 37.107368 1601.744019
3.160000 1.200000 9.200000 -7.081271 28.089231 839.149353
3.200000 0.800000 8.800000 -5.966297 -24.358442 628.930420
3.200000 0.800000 8.840000 -0.118666 -17.587677 309.340454
3.200000 0.800000 8.880000 -2.928523 -14.524896 219.548843
3.200000 0.800000 8.920000 -4.367657 -20.994036 459.825958
3.200000 0.800000 8.960000 5.594297 -29.641918 909.939453
3.200000 0.800000 9.000000 24.439419 -26.914509 1321.676025
3.200000 0.800000 9.040000 37.615562 -8.169641 1481.673584
3.200000 0.800000 9.080000 32.864227 15.531128 1321.273438
3.200000 0.800000 9.120000 13.428185 27.277754 924.391968
3.200000 0.800000 9.160000 -4.481850 21.063845 463.772522
3.200000 0.800000 9.200000 -7.893723 7.551064 119.329445
3.200000 0.840000 8.800000 19.698498 -20.828621 821.862305
3.200000 0.840000 8.840000 15.879264 -6.153555 290.017242
3.200000 0.840000 8.880000 3.972054 -4.919698 39.980637
3.200000 0.840000 8.920000 0.804457 -16.610500 276.555878
3.200000 0.840000 8.960000 13.827846 -25.720146 852.735229
3.200000 0.840000 9.000000 32.489857 -18.002655 1379.686401
3.200000 0.840000 9.040000 38.738182 4.025608 1516.852295
3.200000 0.840000 9.080000 25.806412 23.170784 1202.856201
3.200000 0.840000 9.120000 5.170377 25.167051 660.113281
3.200000 0.840000 9.160000 -5.734003 12.938960 200.295471
3.200000 0.840000 9.200000 -1.579094 2.315626 7.855661
3.200000 0.880000 8.800000 34.552200 6.411007 1234.955444
3.200000 0.880000 8.840000 15.010735 18.521156 568.355408
3.200000 0.880000 8.880000 -3.472344 8.631659 86.562706
3.200000 0.880000 8.920000 -2.692363 -11.426411 137.811691
3.200000 0.880000 8.960000 16.371193 -20.023815 668.969116
3.200000 0.880000 9.000000 34.814678 -7.248326 1264.599976
3.200000 0.880000 9.040000 35.045063 15.832879 1478.836548
3.200000 0.880000 9.080000 17.820251 29.319088 1177.170288
3.200000 0.880000 9.120000 -0.237568 24.625219 606.457886
3.200000 0.880000 9.160000 -4.871424 11.409084 153.897980
3.200000 0.880000 9.200000 1.975944 5.146130 30.387005
3.200000 0.920000 8.800000 20.647280 39.599197 1994.406616
3.200000 0.920000 8.840000 -9.559244 35.918488 1381.516846
3.200000 0.920000 8.880000 -23.713264 10.167749 665.702026
3.200000 0.920000 8.920000 -10.829706 -14.728191 334.202148
3.200000 0.920000 8.960000 15.951696 -17.386780 556.756714
3.200000 0.920000 9.000000 32.421104 2.607512 1057.927124
3.200000 0.920000 9.040000 26.074265 26.129440 1362.614990
3.200000 0.920000 9.080000 5.904251 34.119568 1199.005127
3.200000 0.920000 9.120000 -9.198272 24.761164 697.723450
3.200000 0.920000 9.160000 -9.646561 11.742316 230.938110
3.200000 0.920000 9.200000 -2.038871 7.892951 66.455673
3.200000 0.960000 8.800000 -17.404774 51.523735 2957.621582
3.200000 0.960000 8.840000 -43.245941 26.991137 2598.732910
3.200000 0.960000 8.880000 -40.705875 -8.314893 1726.105713
3.200000 0.960000 8.920000 -12.673339 -27.322660 907.141296
3.200000 0.960000 8.960000 17.260487 -17.233597 594.921265
3.200000 0.960000 9.000000 26.206568 10.232141 791.480896
3.200000 0.960000 9.040000 11.302652 31.263939 1105.183838
3.200000 0.960000 9.080000 -10.831156 31.810879 1129.245972
3.200000 0.960000 9.120000 -21.791019 17.581203 783.947266
3.200000 0.960000 9.160000 -17.491085 4.712265 328.143494
3.200000 0.960000 9.200000 -7.958393 3.037049 72.559692
3.200000 1.000000 8.800000 -53.074562 29.461012 3684.860352
3.200000 1.000000 8.840000 -60.147640 -7.016839 3666.974609
3.200000 1.000000 8.880000 -37.500904 -36.944008 2771.177490
3.200000 1.000000 8.920000 -1.598364 -39.362015 1551.922974
3.200000 1.000000 8.960000 21.206060 -15.386537 686.442505
3.200000 1.000000 9.000000 17.062107 13.775187 480.871277
3.200000 1.000000 9.040000 -5.301671 26.154911 712.187073
3.200000 1.000000 9.080000 -24.914803 16.966732 908.617371
3.200000 1.000000 9.120000 -27.887386 -0.660396 778.142395
3.200000 1.000000 9.160000 -17.232687 -10.350199 404.092133
3.200000 1.000000 9.200000 -6.189022 -6.810642 84.688835
3.200000 1.040000 8.800000 -59.699585 -11.666821 3700.155273
3.200000 1.040000 8.840000 -45.742386 -43.044662 3945.208984
3.200000 1.040000 8.880000 -12.693814 -54.900311 3175.177002
3.200000 1.040000 8.920000 17.144005 -39.305096 1838.807373
3.200000 1.040000 8.960000 24.220749 -9.565518 678.143799
3.200000 1.040000 9.000000 7.838314 11.425962 191.991776
3.200000 1.040000 9.040000 -14.800226 10.611652 331.653870
3.200000 1.040000 9.080000 -24.783413 -5.833801 648.250793
3.200000 1.040000 9.120000 -17.210018 -20.583519 719.865967
3.200000 1.040000 9.160000 -2.660111 -21.520567 470.210999
3.200000 1.040000 9.200000 4.780555 -10.775876 138.973206
3.200000 1.080000 8.800000 -34.326416 -41.095428 2867.137207
3.200000 1.080000 8.840000 -10.889097 -55.490192 3197.733887
3.200000 1.080000 8.880000 16.839687 -48.823830 2667.341309
3.200000 1.080000 8.920000 30.497387 -25.177912 1564.017822
3.200000 1.080000 8.960000 22.570202 -2.117074 513.895996
3.200000 1.080000 9.000000 2.902842 4.314775 27.043768
3.200000 1.080000 9.040000 -10.418360 -6.835302 155.263580
3.200000 1.080000 9.080000 -7.206624 -21.835297 528.715576
3.200000 1.080000 9.120000 6.864084 -25.773273 711.377258
3.200000 1.080000 9.160000 17.251259 -15.822480 547.956787
3.200000 1.080000 9.200000 14.700321 -2.123492 220.608658
3.200000 1.120000 8.800000 -0.523376 -39.476654 1558.680176
3.200000 1.120000 8.840000 17.362843 -38.927750 1816.838013
3.200000 1.120000 8.880000 30.516033 -25.058384 1559.150879
3.200000 1.120000 8.920000 29.407873 -6.781554 910.812500
3.200000 1.120000 8.960000 16.380970 2.433460 274.257904
3.200000 1.120000 9.000000 4.289993 -2.831892 26.423653
3.200000 1.120000 9.040000 4.544468 -14.497458 230.828461
3.200000 1.120000 9.080000 16.080885 -18.744223 609.940735
3.200000 1.120000 9.120000 26.547741 -9.600470 796.951538
3.200000 1.120000 9.160000 24.733650 5.261795 639.439941
3.200000 1.120000 9.200000 11.716429 12.457487 292.463684
3.200000 1.160000 8.800000 13.635633 -15.837858 436.768250
3.200000 1.160000 8.840000 20.221325 -12.310745 560.456421
3.200000 1.160000 8.880000 22.234585 -3.644178 507.656799
3.200000 1.160000 8.920000 16.723576 3.104109 289.313477
3.200000 1.160000 8.960000 9.342084 1.608355 89.861336
3.200000 1.160000 9.000000 9.121088 -5.614685 114.718933
3.200000 1.160000 9.040000 18.075848 -8.446211 398.074738
3.200000 1.160000 9.080000 27.362095 0.222145 748.733643
3.200000 1.160000 9.120000 25.586285 15.558468 896.723877
3.200000 1.160000 9.160000 11.323472 24.284603 717.962952
3.200000 1.160000 9.200000 -3.870613 18.115499 343.152954
3.200000 1.200000 8.800000 1.549891 2.400652 8.165293
3.200000 1.200000 8.840000 3.430777 -0.360836 11.900431
3.200000 1.200000 8.880000 4.727554 0.123341 22.364983
3.200000 1.200000 8.920000 3.985435 -0.299317 15.973287
3.200000 1.200000 8.960000 5.461355 -3.483333 41.960011
3.200000 1.200000 9.000000 12.558075 -4.470908 177.694260
3.200000 1.200000 9.040000 20.704483 3.272309 439.383636
3.200000 1.200000 9.080000 19.903711 18.165380 726.138794
3.200000 1.200000 9.120000 6.040648 28.726219 861.685120
3.200000 1.200000 9.160000 -11.741735 24.229170 724.921021
3.200000 1.200000 9.200000 -17.943012 7.489338 378.041870
