#kx 	ky 	kz 	real 	imag 	intensity
7.800000 3.800000 -4.200000 -14.724183 -7.470829 272.614868
7.800000 3.800000 -4.160000 -6.866999 -16.212112 309.988251
7.800000 3.800000 -4.120000 2.138176 -14.059952 202.254044
7.800000 3.800000 -4.080000 2.106724 -7.479607 60.382801
7.800000 3.800000 -4.040000 -4.623002 -8.241703 89.297813
7.800000 3.800000 -4.000000 -5.802960 -18.489471 375.534912
7.800000 3.800000 -3.960000 5.731875 -26.985014 761.045349
7.800000 3.800000 -3.920000 22.193836 -21.571678 957.903687
7.800000 3.800000 -3.880000 28.202213 -3.807175 809.859375
7.800000 3.800000 -3.840000 17.608810 11.372190 439.396912
7.800000 3.800000 -3.800000 0.734531 11.242254 126.927818
7.800000 3.840000 -4.200000 -4.955254 -21.043890 467.399841
7.800000 3.840000 -4.160000 6.958169 -26.899834 772.017212
7.800000 3.840000 -4.120000 18.161156 -23.200756 868.102661
7.800000 3.840000 -4.080000 22.648542 -15.525200 753.988281
7.800000 3.840000 -4.040000 22.253382 -10.408981 603.559937
7.800000 3.840000 -4.000000 22.338661 -8.437649 570.209717
7.800000 3.840000 -3.960000 24.387680 -5.461388 624.585693
7.800000 3.840000 -3.920000 24.662487 0.520142 608.508850
7.800000 3.840000 -3.880000 20.023417 5.904456 435.799805
7.800000 3.840000 -3.840000 13.143732 5.866045 207.168182
7.800000 3.840000 -3.800000 10.158595 0.997608 104.192276
7.800000 3.880000 -4.200000 8.848189 -22.569611 587.677795
7.800000 3.880000 -4.160000 23.968491 -24.874626 1193.235596
7.800000 3.880000 -4.120000 37.883121 -16.651346 1712.398193
7.800000 3.880000 -4.080000 43.803074 -1.692488 1921.573730
7.800000 3.880000 -4.040000 39.658916 12.917479 1739.690918
7.800000 3.880000 -4.000000 28.608406 20.948763 1257.291626
7.800000 3.880000 -3.960000 16.890619 20.028790 686.445435
7.800000 3.880000 -3.920000 10.547519 12.579969 269.505798
7.800000 3.880000 -3.880000 12.236524 4.515320 170.120621
7.800000 3.880000 -3.840000 19.517481 1.944042 384.711365
7.800000 3.880000 -3.800000 26.036924 7.174221 729.390869
7.800000 3.920000 -4.200000 17.070045 -15.626064 535.560303
7.800000 3.920000 -4.160000 34.566032 -12.333423 1346.923828
7.800000 3.920000 -4.120000 47.252331 3.815439 2247.340332
7.800000 3.920000 -4.080000 45.958794 26.136948 2795.350586
7.800000 3.920000 -4.040000 29.427635 42.084770 2637.113770
7.800000 3.920000 -4.000000 7.085961 41.738754 1792.334473
7.800000 3.920000 -3.960000 -6.593007 26.029205 720.987305
7.800000 3.920000 -3.920000 -2.926950 7.260610 61.283493
7.800000 3.920000 -3.880000 13.665353 0.100235 186.751907
7.800000 3.920000 -3.840000 28.832157 9.914202 929.584656
7.800000 3.920000 -3.800000 29.908533 28.541405 1709.132080
7.800000 3.960000 -4.200000 18.072906 -7.798524 387.446930
7.800000 3.960000 -4.160000 34.124634 3.391937 1175.995850
7.800000 3.960000 -4.120000 38.306011 25.727930 2129.276855
7.800000 3.960000 -4.080000 24.216778 46.358635 2735.575439
7.800000 3.960000 -4.040000 -1.420829 50.622654 2564.671875
7.800000 3.960000 -4.000000 -21.468094 34.413055 1645.137451
7.800000 3.960000 -3.960000 -21.343084 9.565601 547.027954
7.800000 3.960000 -3.920000 -1.781523 -4.367177 22.246063
7.800000 3.960000 -3.880000 20.727283 3.866393 444.569275
7.800000 3.960000 -3.840000 27.363272 27.597198 1510.354004
7.800000 3.960000 -3.800000 12.603174 48.080006 2470.527100
7.800000 4.000000 -4.200000 15.565756 -2.458524 248.337097
7.800000 4.000000 -4.160000 23.712414 14.819393 781.892944
7.800000 4.000000 -4.120000 15.478984 34.503597 1430.097168
7.800000 4.000000 -4.080000 -6.180715 41.959732 1798.820312
7.800000 4.000000 -4.040000 -26.522728 29.960129 1601.064453
7.800000 4.000000 -4.000000 -29.783545 6.543148 929.872314
7.800000 4.000000 -3.960000 -12.876530 -9.853151 262.889618
7.800000 4.000000 -3.920000 10.667491 -5.315735 142.052399
7.800000 4.000000 -3.880000 21.257160 17.437389 755.929443
7.800000 4.000000 -3.840000 9.485246 41.054459 1775.438477
7.800000 4.000000 -3.800000 -16.532013 48.136757 2590.454834
7.800000 4.040000 -4.200000 11.477751 1.556808 134.162415
7.800000 4.040000 -4.160000 7.992196 16.987604 352.453918
7.800000 4.040000 -4.120000 -7.174799 23.776171 616.783997
7.800000 4.040000 -4.080000 -22.281401 15.252306 729.093628
7.800000 4.040000 -4.040000 -24.269062 -2.622963 595.867310
7.800000 4.040000 -4.000000 -10.216756 -15.033583 330.390717
7.800000 4.040000 -3.960000 9.159613 -10.473202 193.586456
7.800000 4.040000 -3.920000 17.826326 9.210941 402.619354
7.800000 4.040000 -3.880000 7.549922 29.991665 956.501282
7.800000 4.040000 -3.840000 -15.719612 37.055988 1620.252441
7.800000 4.040000 -3.800000 -37.446018 26.119722 2084.444092
7.800000 4.080000 -4.200000 4.153234 4.097017 34.034901
7.800000 4.080000 -4.160000 -6.515315 8.153573 108.930077
7.800000 4.080000 -4.120000 -15.613659 -0.315405 243.885834
7.800000 4.080000 -4.080000 -12.385144 -14.262728 356.817200
7.800000 4.080000 -4.040000 3.058134 -20.145638 415.198883
7.800000 4.080000 -4.000000 18.858568 -10.210785 459.905731
7.800000 4.080000 -3.960000 21.502590 10.096910 564.308960
7.800000 4.080000 -3.920000 7.411113 26.618874 763.489075
7.800000 4.080000 -3.880000 -14.614299 28.318724 1015.527832
7.800000 4.080000 -3.840000 -31.545685 15.276167 1228.491577
7.800000 4.080000 -3.800000 -36.328560 -3.663426 1333.184937
7.800000 4.120000 -4.200000 -6.404539 0.937131 41.896336
7.800000 4.120000 -4.160000 -12.796391 -9.339574 250.975250
7.800000 4.120000 -4.120000 -4.962419 -23.666470 584.727417
7.800000 4.120000 -4.080000 15.435119 -26.350449 932.588989
7.800000 4.120000 -4.040000 32.893517 -9.883651 1179.669922
7.800000 4.120000 -4.000000 31.672842 16.308409 1269.133179
7.800000 4.120000 -3.960000 10.620396 33.360916 1225.743530
7.800000 4.120000 -3.920000 -15.653584 29.577774 1119.879395
7.800000 4.120000 -3.880000 -30.136301 9.789209 1004.025269
7.800000 4.120000 -3.840000 -27.597126 -11.091911 884.631897
7.800000 4.120000 -3.800000 -15.921657 -22.477449 758.734863
7.800000 4.160000 -4.200000 -14.276722 -11.278109 331.020508
7.800000 4.160000 -4.160000 -6.169039 -28.425407 846.060852
7.800000 4.160000 -4.120000 18.163364 -33.683701 1464.499512
7.800000 4.160000 -4.080000 41.727539 -15.447869 1979.824219
7.800000 4.160000 -4.040000 43.582546 17.546782 2207.327881
7.800000 4.160000 -4.000000 18.954103 41.592133 2089.163574
7.800000 4.160000 -3.960000 -14.908495 38.824913 1729.637085
7.800000 4.160000 -3.920000 -33.816444 13.149263 1316.454956
7.800000 4.160000 -3.880000 -27.837868 -14.510937 985.514160
7.800000 4.160000 -3.840000 -7.665047 -26.221437 746.316711
7.800000 4.160000 -3.800000 8.796501 -21.554104 541.957825
7.800000 4.200000 -4.200000 -11.458042 -28.448290 940.591919
7.800000 4.200000 -4.160000 11.917950 -39.636253 1713.070068
7.800000 4.200000 -4.120000 41.009830 -26.707767 2395.111084
7.800000 4.200000 -4.080000 51.834309 7.795137 2747.559814
7.800000 4.200000 -4.040000 31.926014 40.641975 2671.040527
7.800000 4.200000 -4.000000 -6.088756 47.064690 2252.157959
7.800000 4.200000 -3.960000 -34.206192 23.147736 1705.881348
7.800000 4.200000 -3.920000 -33.569389 -10.783250 1243.182373
7.800000 4.200000 -3.880000 -9.910584 -29.193237 950.464783
7.800000 4.200000 -3.840000 14.626049 -23.552235 768.629089
7.800000 4.200000 -3.800000 23.466576 -6.135492 588.324463
7.840000 3.800000 -4.200000 7.747355 -1.258889 61.606316
7.840000 3.800000 -4.160000 8.556633 1.258838 74.800636
7.840000 3.800000 -4.120000 4.848976 3.693556 37.154922
7.840000 3.800000 -4.080000 -0.974824 0.106438 0.961612
7.840000 3.800000 -4.040000 -0.881309 -9.495403 90.939384
7.840000 3.800000 -4.000000 9.369648 -16.326710 354.351776
7.840000 3.800000 -3.960000 23.021408 -11.166405 654.673828
7.840000 3.800000 -3.920000 27.240705 4.485779 762.178223
7.840000 3.800000 -3.880000 16.331573 17.668766 578.905640
7.840000 3.800000 -3.840000 -0.985752 16.137527 261.391510
7.840000 3.800000 -3.800000 -9.260893 1.153046 87.093651
7.840000 3.840000 -4.200000 11.596665 -1.319213 136.222977
7.840000 3.840000 -4.160000 16.383425 -2.296087 273.688599
7.840000 3.840000 -4.120000 21.696068 0.877028 471.488525
7.840000 3.840000 -4.080000 24.390444 7.256710 647.553589
7.840000 3.840000 -4.040000 23.158852 14.498100 746.527344
7.840000 3.840000 -4.000000 18.107073 20.371946 742.882324
7.840000 3.840000 -3.960000 10.185192 22.797882 623.481567
7.840000 3.840000 -3.920000 1.772633 19.974937 402.140381
7.840000 3.840000 -3.880000 -3.167709 12.068957 155.694107
7.840000 3.840000 -3.840000 -1.353515 2.775938 9.537834
7.840000 3.840000 -3.800000 6.396905 -2.228453 45.886391
7.840000 3.880000 -4.200000 11.996517 1.708491 146.835373
7.840000 3.880000 -4.160000 24.550053 2.573261 609.326782
7.840000 3.880000 -4.120000 34.959885 16.450024 1492.796753
7.840000 3.880000 -4.080000 31.684540 37.673576 2423.208496
7.840000 3.880000 -4.040000 12.125301 52.301624 2882.482910
7.840000 3.880000 -4.000000 -13.570223 48.914272 2576.756836
7.840000 3.880000 -3.960000 -29.423029 28.393364 1671.897705
7.840000 3.880000 -3.920000 -25.963491 3.989441 690.018555
7.840000 3.880000 -3.880000 -7.568233 -8.818811 135.049591
7.840000 3.880000 -3.840000 11.494802 -4.120848 149.111862
7.840000 3.880000 -3.800000 18.693344 10.878257 467.777588
7.840000 3.920000 -4.200000 9.059812 2.676805 89.245476
7.840000 3.920000 -4.160000 26.251743 13.178692 862.831970
7.840000 3.920000 -4.120000 29.373234 40.101158 2470.889648
7.840000 3.920000 -4.080000 6.938751 65.062485 4281.273438
7.840000 3.920000 -4.040000 -31.595348 65.654068 5308.722656
7.840000 3.920000 -4.000000 -60.366806 35.860146 4930.101562
7.840000 3.920000 -3.960000 -57.980206 -6.079005 3398.658691
7.840000 3.920000 -3.920000 -26.325315 -31.363125 1676.667847
7.840000 3.920000 -3.880000 10.447218 -24.396299 704.323792
7.840000 3.920000 -3.840000 26.390322 4.914490 720.601318
7.840000 3.920000 -3.800000 14.846230 31.373447 1204.703735
7.840000 3.960000 -4.200000 7.121805 0.436953 50.911037
7.840000 3.960000 -4.160000 18.958679 22.896008 883.658691
7.840000 3.960000 -4.120000 4.515489 52.573563 2784.369141
7.840000 3.960000 -4.080000 -34.834526 62.114655 5071.674316
7.840000 3.960000 -4.040000 -72.946594 35.307449 6567.821289
7.840000 3.960000 -4.000000 -78.842575 -14.823369 6435.884277
7.840000 3.960000 -3.960000 -44.462902 -53.547188 4844.250977
7.840000 3.960000 -3.920000 6.185920 -53.080120 2855.764893
7.840000 3.960000 -3.880000 36.535381 -16.433758 1604.902466
7.840000 3.960000 -3.840000 28.161072 25.959377 1466.935303
7.840000 3.960000 -3.800000 -5.684864 43.380737 1914.206055
7.840000 4.000000 -4.200000 8.034746 -1.327897 66.320450
7.840000 4.000000 -4.160000 5.466031 25.306456 670.294189
7.840000 4.000000 -4.120000 -23.964943 41.671982 2310.872559
7.840000 4.000000 -4.080000 -61.701740 25.700495 4467.620117
7.840000 4.000000 -4.040000 -75.630997 -19.528009 6101.391113
7.840000 4.000000 -4.000000 -48.324638 -63.472214 6363.992676
7.840000 4.000000 -3.960000 4.693985 -72.217789 5237.442871
7.840000 4.000000 -3.920000 45.724541 -38.140499 3545.431152
7.840000 4.000000 -3.880000 46.338215 12.794137 2310.920166
7.840000 4.000000 -3.840000 10.624150 43.440716 1999.968384
7.840000 4.000000 -3.800000 -30.881548 36.454147 2282.574951
7.840000 4.040000 -4.200000 8.373676 -0.123737 70.133766
7.840000 4.040000 -4.160000 -7.763068 17.443207 364.530701
7.840000 4.040000 -4.120000 -36.655754 12.265219 1494.079834
7.840000 4.040000 -4.080000 -52.476398 -19.842812 3147.509766
7.840000 4.040000 -4.040000 -35.107601 -57.875671 4582.136719
7.840000 4.040000 -4.000000 9.394781 -70.803848 5101.446777
7.840000 4.040000 -3.960000 50.607780 -44.595795 4549.932617
7.840000 4.040000 -3.920000 58.289688 4.033062 3413.953369
7.840000 4.040000 -3.880000 27.787792 40.810928 2437.693359
7.840000 4.040000 -3.840000 -17.022581 42.206604 2071.165771
7.840000 4.040000 -3.800000 -45.158211 12.888095 2205.366943
7.840000 4.080000 -4.200000 4.419000 0.720229 20.046293
7.840000 4.080000 -4.160000 -13.544980 1.344117 185.273148
7.840000 4.080000 -4.120000 -25.224409 -17.859907 955.247070
7.840000 4.080000 -4.080000 -14.083993 -43.809624 2117.641846
7.840000 4.080000 -4.040000 18.320484 -53.271446 3173.487061
7.840000 4.080000 -4.000000 50.499603 -33.045334 3642.204102
7.840000 4.080000 -3.960000 57.772335 6.813995 3384.072998
7.840000 4.080000 -3.920000 33.093197 39.847839 2683.010010
7.840000 4.080000 -3.880000 -7.015096 44.414722 2021.879150
7.840000 4.080000 -3.840000 -36.459370 20.108486 1733.636841
7.840000 4.080000 -3.800000 -39.966400 -14.574545 1809.730469
7.840000 4.120000 -4.200000 -1.376202 -4.541344 22.517735
7.840000 4.120000 -4.160000 -7.429188 -16.274792 320.061676
7.840000 4.120000 -4.120000 2.501816 -31.722286 1012.562561
7.840000 4.120000 -4.080000 26.398478 -34.090996 1859.075684
7.840000 4.120000 -4.040000 47.758991 -14.747389 2498.406738
7.840000 4.120000 -4.000000 48.673866 17.347038 2670.064941
7.840000 4.120000 -3.960000 25.339964 41.646839 2376.572998
7.840000 4.120000 -3.920000 -8.333399 42.357761 1863.625488
7.840000 4.120000 -3.880000 -32.028774 20.310123 1438.343506
7.840000 4.120000 -3.840000 -34.324593 -9.658192 1271.458252
7.840000 4.120000 -3.800000 -18.496021 -31.573444 1338.985229
7.840000 4.160000 -4.200000 -1.259965 -16.115381 261.293030
7.840000 4.160000 -4.160000 9.283042 -26.736805 801.031616
7.840000 4.160000 -4.120000 29.995989 -24.501560 1500.085815
7.840000 4.160000 -4.080000 45.423096 -3.649870 2076.579102
7.840000 4.160000 -4.040000 40.640728 25.480528 2300.926270
7.840000 4.160000 -4.000000 15.155844 43.614376 2131.913330
7.840000 4.160000 -3.960000 -15.685713 38.463676 1725.495972
7.840000 4.160000 -3.920000 -33.245033 14.423526 1313.270264
7.840000 4.160000 -3.880000 -29.954500 -12.514086 1053.874390
7.840000 4.160000 -3.840000 -12.422369 -28.524918 967.986145
7.840000 4.160000 -3.800000 7.506021 -30.668999 996.927795
7.840000 4.200000 -4.200000 9.381736 -26.030979 765.628845
7.840000 4.200000 -4.160000 29.091137 -24.284300 1436.021484
7.840000 4.200000 -4.120000 44.291023 -4.313784 1980.303467
7.840000 4.200000 -4.080000 39.687187 24.434818 2172.133301
7.840000 4.200000 -4.040000 13.928586 42.355026 1987.953735
7.840000 4.200000 -4.000000 -17.271576 36.110245 1602.257202
7.840000 4.200000 -3.960000 -33.710686 10.245516 1241.380859
7.840000 4.200000 -3.920000 -27.128706 -17.173172 1030.884521
7.840000 4.200000 -3.880000 -6.045774 -30.209579 949.170105
7.840000 4.200000 -3.840000 14.293587 -26.471327 905.037781
7.840000 4.200000 -3.800000 25.300234 -14.516355 850.826355
7.880000 3.800000 -4.200000 15.072868 25.820616 893.895569
7.880000 3.800000 -4.160000 1.076607 28.347225 804.724243
7.880000 3.800000 -4.120000 -11.435518 19.613716 515.468933
7.880000 3.800000 -4.080000 -13.334452 4.019657 193.965240
7.880000 3.800000 -4.040000 -2.430859 -7.087263 56.138371
7.880000 3.800000 -4.000000 12.440117 -4.561596 175.564667
7.880000 3.800000 -3.960000 17.856197 9.180103 403.118073
7.880000 3.800000 -3.920000 8.259294 20.895168 504.823975
7.880000 3.800000 -3.880000 -7.832258 18.314039 396.748291
7.880000 3.800000 -3.840000 -15.103519 2.108222 232.560898
7.880000 3.800000 -3.800000 -5.878162 -14.247009 237.530075
7.880000 3.840000 -4.200000 2.521380 27.423647 758.413757
7.880000 3.840000 -4.160000 -0.834988 22.882313 524.297424
7.880000 3.840000 -4.120000 0.781885 21.050695 443.743134
7.880000 3.840000 -4.080000 1.819477 24.588787 607.918945
7.880000 3.840000 -4.040000 -3.006916 30.128223 916.751404
7.880000 3.840000 -4.000000 -13.803095 30.949982 1148.426758
7.880000 3.840000 -3.960000 -24.647240 22.649963 1120.507324
7.880000 3.840000 -3.920000 -27.783621 7.383604 826.447144
7.880000 3.840000 -3.880000 -19.758999 -6.973602 439.049164
7.880000 3.840000 -3.840000 -4.554239 -12.474836 176.362625
7.880000 3.840000 -3.800000 9.193879 -7.118795 135.204651
7.880000 3.880000 -4.200000 -9.241939 19.719910 474.288269
7.880000 3.880000 -4.160000 0.084789 21.265278 452.219238
7.880000 3.880000 -4.120000 2.232027 36.935684 1369.226685
7.880000 3.880000 -4.080000 -14.794380 53.295147 3059.246582
7.880000 3.880000 -4.040000 -45.316700 51.194828 4674.513672
7.880000 3.880000 -4.000000 -68.471153 24.123745 5270.253906
7.880000 3.880000 -3.960000 -65.711601 -13.839207 4509.538086
7.880000 3.880000 -3.920000 -37.359802 -38.708538 2894.105957
7.880000 3.880000 -3.880000 -2.659506 -36.445816 1335.370483
7.880000 3.880000 -3.840000 16.606819 -13.760178 465.128906
7.880000 3.880000 -3.800000 13.609476 9.477157 275.034332
7.880000 3.920000 -4.200000 -12.709133 5.839784 195.625137
7.880000 3.920000 -4.160000 -1.450675 23.037167 532.815491
7.880000 3.920000 -4.120000 -16.275640 49.777481 2742.694092
7.880000 3.920000 -4.080000 -57.496662 55.868378 6427.141602
7.880000 3.920000 -4.040000 -96.812195 22.826679 9893.658203
7.880000 3.920000 -4.000000 -100.106934 -35.083923 11252.280273
7.880000 3.920000 -3.960000 -58.828957 -79.571091 9792.404297
7.880000 3.920000 -3.920000 0.348669 -80.489143 6478.624023
7.880000 3.920000 -3.880000 37.750870 -41.599419 3155.639648
7.880000 3.920000 -3.840000 34.094360 4.250785 1180.494629
7.880000 3.920000 -3.800000 3.945744 25.059036 643.524231
7.880000 3.960000 -4.200000 -6.018959 -5.557373 67.112259
7.880000 3.960000 -4.160000 -7.715863 23.413948 607.747498
7.880000 3.960000 -4.120000 -44.112549 41.677834 3682.958984
7.880000 3.960000 -4.080000 -92.335907 18.137192 8854.877930
7.880000 3.960000 -4.040000 -109.155869 -44.704025 13913.454102
7.880000 3.960000 -4.000000 -70.164429 -106.295135 16221.703125
7.880000 3.960000 -3.960000 4.485502 -120.686592 14585.374023
7.880000 3.960000 -3.920000 64.494049 -77.075569 10100.125977
7.880000 3.960000 -3.880000 71.942841 -9.529136 5266.576660
7.880000 3.960000 -3.840000 32.120392 33.467869 2151.817871
7.880000 3.960000 -3.800000 -15.482860 30.148628 1148.658691
7.880000 4.000000 -4.200000 4.530974 -8.007590 84.651237
7.880000 4.000000 -4.160000 -15.698870 17.585117 555.690857
7.880000 4.000000 -4.120000 -59.532230 11.529428 3677.014160
7.880000 4.000000 -4.080000 -87.454880 -38.672058 9143.883789
7.880000 4.000000 -4.040000 -63.352951 -103.679413 14763.017578
7.880000 4.000000 -4.000000 8.734951 -132.779922 17706.806641
7.880000 4.000000 -3.960000 82.460083 -98.325394 16467.548828
7.880000 4.000000 -3.920000 106.928329 -22.224405 11927.591797
7.880000 4.000000 -3.880000 69.959358 41.893158 6649.348633
7.880000 4.000000 -3.840000 6.319119 54.392204 2998.443115
7.880000 4.000000 -3.800000 -35.471931 20.180048 1665.492310
7.880000 4.040000 -4.200000 10.377125 -3.462691 119.674950
7.880000 4.040000 -4.160000 -19.119963 5.091105 391.492310
7.880000 4.040000 -4.120000 -48.686333 -23.220387 2909.545166
7.880000 4.040000 -4.080000 -41.965202 -75.838890 7512.615234
7.880000 4.040000 -4.040000 11.938149 -110.890007 12439.113281
7.880000 4.040000 -4.000000 82.130486 -92.432121 15289.113281
7.880000 4.040000 -3.960000 118.402084 -24.927284 14640.422852
7.880000 4.040000 -3.920000 93.940140 47.154579 11048.304688
7.880000 4.040000 -3.880000 28.483475 76.029533 6591.797852
7.880000 4.040000 -3.840000 -29.771364 49.623917 3348.867188
7.880000 4.040000 -3.800000 -45.439560 -2.699051 2072.038574
7.880000 4.080000 -4.200000 9.301062 0.071444 86.514854
7.880000 4.080000 -4.160000 -13.153063 -9.004909 254.091446
7.880000 4.080000 -4.120000 -17.108772 -41.224503 1992.169678
7.880000 4.080000 -4.080000 14.009924 -70.471069 5162.449219
7.880000 4.080000 -4.040000 66.182808 -64.733459 8570.584961
7.880000 4.080000 -4.000000 101.699570 -16.382917 10611.203125
7.880000 4.080000 -3.960000 90.241051 46.748932 10328.910156
7.880000 4.080000 -3.920000 36.134407 82.259674 8072.349121
7.880000 4.080000 -3.880000 -24.215332 67.928085 5200.606934
7.880000 4.080000 -3.840000 -52.435867 18.567738 3094.281250
7.880000 4.080000 -3.800000 -37.738670 -29.273863 2281.166260
7.880000 4.120000 -4.200000 7.312941 -2.571321 60.090794
7.880000 4.120000 -4.160000 1.581521 -17.085300 294.408722
7.880000 4.120000 -4.120000 15.971048 -34.070976 1415.905762
7.880000 4.120000 -4.080000 46.416210 -32.573662 3215.508057
7.880000 4.120000 -4.040000 70.580612 -2.868444 4989.851074
7.880000 4.120000 -4.000000 65.174454 41.215492 5946.426270
7.880000 4.120000 -3.960000 27.010750 70.625504 5717.542480
7.880000 4.120000 -3.920000 -22.016407 64.123329 4596.523438
7.880000 4.120000 -3.880000 -51.448116 25.550522 3299.737793
7.880000 4.120000 -3.840000 -45.494316 -19.894716 2465.532715
7.880000 4.120000 -3.800000 -12.755611 -46.002228 2278.910645
7.880000 4.160000 -4.200000 11.508312 -7.900767 194.863373
7.880000 4.160000 -4.160000 18.665403 -14.095055 547.067871
7.880000 4.160000 -4.120000 33.572998 -10.576313 1239.004639
7.880000 4.160000 -4.080000 44.311852 7.966867 2027.011108
7.880000 4.160000 -4.040000 37.783875 33.978165 2582.136719
7.880000 4.160000 -4.000000 11.716747 50.640797 2701.772461
7.880000 4.160000 -3.960000 -21.288239 44.539375 2436.945068
7.880000 4.160000 -3.920000 -42.042885 16.643642 2044.614990
7.880000 4.160000 -3.880000 -38.508766 -17.959332 1805.462646
7.880000 4.160000 -3.840000 -13.556438 -40.867645 1853.941406
7.880000 4.160000 -3.800000 18.690773 -42.225826 2132.365479
7.880000 4.200000 -4.200000 21.506027 -7.633255 520.775818
7.880000 4.200000 -4.160000 29.683344 -1.308358 882.812683
7.880000 4.200000 -4.120000 32.253681 12.999840 1209.295776
7.880000 4.200000 -4.080000 22.839329 28.576208 1338.234619
7.880000 4.200000 -4.040000 2.817329 34.935661 1228.437866
7.880000 4.200000 -4.000000 -18.134281 25.781891 993.557983
7.880000 4.200000 -3.960000 -28.365967 4.218700 822.425476
7.880000 4.200000 -3.920000 -22.092571 -19.166437 855.434021
7.880000 4.200000 -3.880000 -2.513117 -33.277893 1113.734009
7.880000 4.200000 -3.840000 21.321606 -32.558086 1514.639771
7.880000 4.200000 -3.800000 40.029289 -18.305038 1937.418457
7.920000 3.800000 -4.200000 -5.426867 51.324959 2663.702393
7.920000 3.800000 -4.160000 -29.336246 40.494656 2500.432617
7.920000 3.800000 -4.120000 -38.836845 16.252586 1772.447144
7.920000 3.800000 -4.080000 -28.719498 -5.634947 856.562195
7.920000 3.800000 -4.040000 -8.759037 -11.226443 202.753754
7.920000 3.800000 -4.000000 4.006817 -0.492329 16.296968
7.920000 3.800000 -3.960000 0.294206 12.557301 157.772354
7.920000 3.800000 -3.920000 -13.069576 12.883860 336.807678
7.920000 3.800000 -3.880000 -19.893242 -1.436031 397.803253
7.920000 3.800000 -3.840000 -10.253223 -17.623497 415.716248
7.920000 3.800000 -3.800000 10.179765 -20.710236 532.541443
7.920000 3.840000 -4.200000 -30.017149 38.751579 2402.714111
7.920000 3.840000 -4.160000 -35.350044 24.683733 1858.912354
7.920000 3.840000 -4.120000 -32.392380 15.923458 1302.822754
7.920000 3.840000 -4.080000 -30.298023 14.530256 1129.098511
7.920000 3.840000 -4.040000 -34.718155 13.819328 1396.324097
7.920000 3.840000 -4.000000 -42.128109 5.696281 1807.225220
7.920000 3.840000 -3.960000 -43.054993 -10.631195 1966.754761
7.920000 3.840000 -3.920000 -31.270981 -26.794710 1695.830811
7.920000 3.840000 -3.880000 -10.335770 -32.165100 1141.421753
7.920000 3.840000 -3.840000 8.744692 -23.146957 612.251221
7.920000 3.840000 -3.800000 16.591358 -6.230013 314.086212
7.920000 3.880000 -4.200000 -39.850670 12.566217 1745.985718
7.920000 3.880000 -4.160000 -32.764572 12.487677 1229.459229
7.920000 3.880000 -4.120000 -38.297768 22.292339 1963.667358
7.920000 3.880000 -4.080000 -60.645557 22.307365 4175.501953
7.920000 3.880000 -4.040000 -82.892197 -1.974792 6875.016113
7.920000 3.880000 -4.000000 -81.543694 -42.984272 8497.021484
7.920000 3.880000 -3.960000 -49.206272 -75.042213 8052.591309
7.920000 3.880000 -3.920000 -3.258812 -76.309311 5833.730469
7.920000 3.880000 -3.880000 28.345694 -47.917229 3099.539062
7.920000 3.880000 -3.840000 30.606533 -12.190815 1085.375854
7.920000 3.880000 -3.800000 12.237286 7.649718 208.269348
7.920000 3.920000 -4.200000 -29.814198 -12.044888 1033.965698
7.920000 3.920000 -4.160000 -28.340988 6.096519 840.379150
7.920000 3.920000 -4.120000 -56.380657 17.497950 3484.956787
7.920000 3.920000 -4.080000 -94.678909 -6.783421 9010.110352
7.920000 3.920000 -4.040000 -104.312355 -64.977676 15103.166016
7.920000 3.920000 -4.000000 -63.513241 -120.191994 18480.046875
7.920000 3.920000 -3.960000 8.559906 -130.992203 17232.228516
7.920000 3.920000 -3.920000 65.801819 -88.650070 12188.714844
7.920000 3.920000 -3.880000 74.509361 -25.091883 6181.247559
7.920000 3.920000 -3.840000 40.742630 15.915117 1913.252930
7.920000 3.920000 -3.800000 0.646326 16.051245 258.060181
7.920000 3.960000 -4.200000 -8.382879 -21.902441 549.989563
7.920000 3.960000 -4.160000 -25.999191 1.645645 678.666077
7.920000 3.960000 -4.120000 -69.467476 -7.150843 4876.864746
7.920000 3.960000 -4.080000 -95.664543 -63.133137 13137.498047
7.920000 3.960000 -4.040000 -64.760689 -134.110367 22179.537109
7.920000 3.960000 -4.000000 18.160233 -164.228149 27300.679688
7.920000 3.960000 -3.960000 101.453339 -123.992233 25666.855469
7.920000 3.960000 -3.920000 129.801605 -38.805534 18354.326172
7.920000 3.960000 -3.880000 91.620583 32.427544 9445.876953
7.920000 3.960000 -3.840000 26.091024 48.236893 3007.539551
7.920000 3.960000 -3.800000 -15.104436 16.482346 499.811707
7.920000 4.000000 -4.200000 9.903625 -15.720743 345.223572
7.920000 4.000000 -4.160000 -23.710764 -4.922647 586.432800
7.920000 4.000000 -4.120000 -59.993164 -40.427593 5233.569824
7.920000 4.000000 -4.080000 -50.809170 -108.518311 14357.794922
7.920000 4.000000 -4.040000 20.043587 -155.264389 24508.777344
7.920000 4.000000 -4.000000 113.611771 -132.857239 30558.679688
7.920000 4.000000 -3.960000 164.666138 -45.893387 29221.140625
7.920000 4.000000 -3.920000 138.004120 48.672379 21414.136719
7.920000 4.000000 -3.880000 58.752525 89.706947 11499.195312
7.920000 4.000000 -3.840000 -11.905755 62.649647 4066.725342
7.920000 4.000000 -3.800000 -30.815052 5.745285 982.575745
7.920000 4.040000 -4.200000 16.519627 -3.203724 283.161926
7.920000 4.040000 -4.160000 -16.932791 -12.684870 447.625305
7.920000 4.040000 -4.120000 -27.634438 -60.285637 4398.020020
7.920000 4.040000 -4.080000 15.106979 -109.783905 12280.726562
7.920000 4.040000 -4.040000 95.835815 -109.799591 21240.453125
7.920000 4.040000 -4.000000 158.362503 -42.504250 26885.292969
7.920000 4.040000 -3.960000 152.609360 54.316246 26239.871094
7.920000 4.040000 -3.920000 79.763290 116.184143 19860.937500
7.920000 4.040000 -3.880000 -7.922218 106.231247 11347.839844
7.920000 4.040000 -3.840000 -52.557922 43.961655 4694.962402
7.920000 4.040000 -3.800000 -37.616867 -16.955248 1702.509155
7.920000 4.080000 -4.200000 14.270975 5.131163 229.989563
7.920000 4.080000 -4.160000 -4.549535 -16.294216 286.199768
7.920000 4.080000 -4.120000 9.526455 -53.480972 2950.967773
7.920000 4.080000 -4.080000 61.277710 -67.664566 8333.451172
7.920000 4.080000 -4.040000 116.740738 -30.124346 14535.875977
7.920000 4.080000 -4.000000 128.392563 46.196274 18618.746094
7.920000 4.080000 -3.960000 77.829788 111.751434 18545.859375
7.920000 4.080000 -3.920000 -4.847614 120.727524 14598.633789
7.920000 4.080000 -3.880000 -64.912956 69.808289 9086.888672
7.920000 4.080000 -3.840000 -68.154770 -0.752968 4645.639648
7.920000 4.080000 -3.800000 -25.470432 -43.306480 2524.194336
7.920000 4.120000 -4.200000 11.678895 7.070789 186.392654
7.920000 4.120000 -4.160000 8.813145 -11.353889 206.582306
7.920000 4.120000 -4.120000 30.717623 -26.427681 1641.994629
7.920000 4.120000 -4.080000 65.553444 -13.632896 4483.109863
7.920000 4.120000 -4.040000 82.114441 31.094442 7709.645508
7.920000 4.120000 -4.000000 56.655827 81.476326 9848.274414
7.920000 4.120000 -3.960000 -2.799343 99.729996 9953.908203
7.920000 4.120000 -3.920000 -59.290970 68.728828 8239.071289
7.920000 4.120000 -3.880000 -76.098572 7.664991 5849.744629
7.920000 4.120000 -3.840000 -45.900848 -43.546513 4003.186523
7.920000 4.120000 -3.800000 6.097300 -56.285122 3205.191895
7.920000 4.160000 -4.200000 13.098936 8.211723 239.014526
7.920000 4.160000 -4.160000 16.198837 0.909282 263.229126
7.920000 4.160000 -4.120000 29.080648 2.051971 849.894714
7.920000 4.160000 -4.080000 39.083405 19.602007 1911.751099
7.920000 4.160000 -4.040000 30.010324 45.937191 3010.845215
7.920000 4.160000 -4.000000 -1.558723 60.479126 3660.154297
7.920000 4.160000 -3.960000 -39.187481 46.322887 3681.468506
7.920000 4.160000 -3.920000 -57.304001 6.398201 3324.685547
7.920000 4.160000 -3.880000 -41.473114 -36.391205 3044.338867
7.920000 4.160000 -3.840000 -0.250911 -55.987080 3134.615967
7.920000 4.160000 -3.800000 41.650299 -42.365124 3529.551270
7.920000 4.200000 -4.200000 14.965469 13.666019 410.725342
7.920000 4.200000 -4.160000 14.053738 14.047040 394.826874
7.920000 4.200000 -4.120000 14.087828 17.269203 496.692261
7.920000 4.200000 -4.080000 10.118206 23.686987 663.451477
7.920000 4.200000 -4.040000 -1.491600 27.684288 768.644653
7.920000 4.200000 -4.000000 -17.271267 21.226227 748.849365
7.920000 4.200000 -3.960000 -26.609726 1.744743 711.121643
7.920000 4.200000 -3.920000 -19.158665 -22.898472 891.394470
7.920000 4.200000 -3.880000 5.964724 -37.940388 1475.050903
7.920000 4.200000 -3.840000 37.405983 -31.947664 2419.860840
7.920000 4.200000 -3.800000 58.312019 -5.568472 3431.299316
7.960000 3.800000 -4.200000 -41.185394 51.910580 4390.944824
7.960000 3.800000 -4.160000 -61.129803 23.590250 4293.352539
7.960000 3.800000 -4.120000 -56.561668 -9.921833 3297.665283
7.960000 3.800000 -4.080000 -32.634041 -28.650927 1885.856201
7.960000 3.800000 -4.040000 -8.225277 -24.957111 690.512573
7.960000 3.800000 -4.000000 0.358665 -9.526360 90.880165
7.960000 3.800000 -3.960000 -6.697399 -0.676975 45.313450
7.960000 3.800000 -3.920000 -14.485664 -6.978140 258.528900
7.960000 3.800000 -3.880000 -8.980789 -19.964046 479.217712
7.960000 3.800000 -3.840000 9.144215 -23.671539 643.958435
7.960000 3.800000 -3.800000 25.847729 -10.945383 787.906494
7.960000 3.840000 -4.200000 -62.022888 19.622087 4231.864746
7.960000 3.840000 -4.160000 -60.870415 -2.818472 3713.151123
7.960000 3.840000 -4.120000 -51.164810 -16.275217 2882.720703
7.960000 3.840000 -4.080000 -42.841644 -21.432419 2294.755127
7.960000 3.840000 -4.040000 -39.221909 -25.934097 2210.935547
7.960000 3.840000 -4.000000 -34.907757 -35.079170 2449.099609
7.960000 3.840000 -3.960000 -22.678574 -45.481583 2582.892090
7.960000 3.840000 -3.920000 -2.364182 -47.996002 2309.205566
7.960000 3.840000 -3.880000 17.323980 -36.964542 1666.497803
7.960000 3.840000 -3.840000 25.966572 -16.559719 948.487183
7.960000 3.840000 -3.800000 20.683783 2.165651 432.508881
7.960000 3.880000 -4.200000 -55.121838 -17.796783 3355.142578
7.960000 3.880000 -4.160000 -47.957893 -20.603374 2724.458496
7.960000 3.880000 -4.120000 -53.572849 -21.308939 3324.121094
7.960000 3.880000 -4.080000 -65.199379 -36.892025 5611.980469
7.960000 3.880000 -4.040000 -62.464951 -68.745033 8627.750000
7.960000 3.880000 -4.000000 -32.554527 -97.582504 10582.141602
7.960000 3.880000 -3.960000 14.359612 -99.856941 10177.607422
7.960000 3.880000 -3.920000 51.555920 -70.025391 7561.568359
7.960000 3.880000 -3.880000 58.492359 -26.694256 4133.939453
7.960000 3.880000 -3.840000 37.954353 3.397854 1452.078369
7.960000 3.880000 -3.800000 11.640325 7.949373 198.689697
7.960000 3.920000 -4.200000 -26.631990 -38.937180 2225.366943
7.960000 3.920000 -4.160000 -32.667278 -27.253803 1809.920898
7.960000 3.920000 -4.120000 -57.592476 -36.842949 4674.295898
7.960000 3.920000 -4.080000 -69.161362 -79.661209 11129.202148
7.960000 3.920000 -4.040000 -37.545784 -130.858887 18533.734375
7.960000 3.920000 -4.000000 31.761063 -147.756836 22840.847656
7.960000 3.920000 -3.960000 97.584732 -109.411690 21493.699219
7.960000 3.920000 -3.920000 117.701294 -37.996849 15297.355469
7.960000 3.920000 -3.880000 85.525208 19.676092 7701.709473
7.960000 3.920000 -3.840000 33.737488 32.676071 2205.943848
7.960000 3.920000 -3.800000 2.657598 9.636439 99.923790
7.960000 3.960000 -4.200000 4.314718 -35.702850 1293.310303
7.960000 3.960000 -4.160000 -20.723717 -27.785700 1201.517578
7.960000 3.960000 -4.120000 -48.163509 -61.159046 6060.152344
7.960000 3.960000 -4.080000 -32.983025 -122.600960 16118.875000
7.960000 3.960000 -4.040000 38.468025 -161.011124 27404.371094
7.960000 3.960000 -4.000000 127.500549 -132.997406 33944.699219
7.960000 3.960000 -3.960000 172.786896 -46.141922 31984.386719
7.960000 3.960000 -3.920000 144.263382 43.897823 22738.943359
7.960000 3.960000 -3.880000 69.245613 81.133560 11377.609375
7.960000 3.960000 -3.840000 5.993250 56.102913 3183.455811
7.960000 3.960000 -3.800000 -8.348152 7.870590 131.637833
7.960000 4.000000 -4.200000 21.483292 -16.796833 743.665405
7.960000 4.000000 -4.160000 -10.984844 -26.725315 834.909302
7.960000 4.000000 -4.120000 -19.068974 -77.749557 6408.619629
7.960000 4.000000 -4.080000 31.269421 -129.588898 17771.060547
7.960000 4.000000 -4.040000 121.855629 -125.562759 30614.800781
7.960000 4.000000 -4.000000 189.873978 -47.701115 38327.523438
7.960000 4.000000 -3.960000 181.536133 60.241371 36584.390625
7.960000 4.000000 -3.920000 101.267044 127.482788 26506.875000
7.960000 4.000000 -3.880000 8.190838 116.877258 13727.383789
7.960000 4.000000 -3.840000 -36.540054 53.716423 4220.629883
7.960000 4.000000 -3.800000 -20.251081 -2.923365 418.652344
7.960000 4.040000 -4.200000 22.196541 2.604572 499.470215
7.960000 4.040000 -4.160000 -0.857063 -23.399479 548.270142
7.960000 4.040000 -4.120000 17.574787 -70.898621 5335.487305
7.960000 4.040000 -4.080000 85.127068 -89.435524 15245.330078
7.960000 4.040000 -4.040000 158.118362 -41.074535 26688.533203
7.960000 4.040000 -4.000000 175.012634 57.621391 33949.648438
7.960000 4.040000 -3.960000 112.584175 142.875366 33088.566406
7.960000 4.040000 -3.920000 10.085627 157.081360 24776.273438
7.960000 4.040000 -3.880000 -63.574638 98.193756 13683.748047
7.960000 4.040000 -3.840000 -68.473648 18.310562 5023.917480
7.960000 4.040000 -3.800000 -22.576298 -25.229309 1146.207275
7.960000 4.080000 -4.200000 14.649626 13.734544 403.249237
7.960000 4.080000 -4.160000 8.070318 -14.895651 287.010437
7.960000 4.080000 -4.120000 40.641994 -41.801441 3399.132324
7.960000 4.080000 -4.080000 96.882965 -26.932251 10111.654297
7.960000 4.080000 -4.040000 128.654877 39.294724 18096.154297
7.960000 4.080000 -4.000000 97.243645 118.511757 23501.363281
7.960000 4.080000 -3.960000 12.412319 152.950470 23547.912109
7.960000 4.080000 -3.920000 -71.376907 115.679176 18476.335938
7.960000 4.080000 -3.880000 -100.228836 34.620159 11244.375000
7.960000 4.080000 -3.840000 -65.060928 -32.588730 5294.949707
7.960000 4.080000 -3.800000 -4.007677 -47.889580 2309.473389
7.960000 4.120000 -4.200000 7.240524 17.942619 374.362793
7.960000 4.120000 -4.160000 10.816420 -1.982176 120.923958
7.960000 4.120000 -4.120000 38.704460 -8.435787 1569.197754
7.960000 4.120000 -4.080000 67.809494 19.416935 4975.145020
7.960000 4.120000 -4.040000 63.541691 71.648483 9171.051758
7.960000 4.120000 -4.000000 13.619328 109.607910 12199.379883
7.960000 4.120000 -3.960000 -55.069084 98.066368 12649.617188
7.960000 4.120000 -3.920000 -95.728439 38.135910 10618.282227
7.960000 4.120000 -3.880000 -80.820099 -31.286688 7510.745117
7.960000 4.120000 -3.840000 -24.523952 -65.715561 4919.959473
7.960000 4.120000 -3.800000 31.766409 -50.544140 3563.814697
7.960000 4.160000 -4.200000 1.569021 20.291067 414.189240
7.960000 4.160000 -4.160000 4.848492 9.451487 112.838470
7.960000 4.160000 -4.120000 19.184134 10.354362 475.243805
7.960000 4.160000 -4.080000 26.972937 30.032169 1629.470459
7.960000 4.160000 -4.040000 10.726933 54.798397 3117.931396
7.960000 4.160000 -4.000000 -26.968620 59.186371 4230.333008
7.960000 4.160000 -3.960000 -60.760162 29.538422 4564.315918
7.960000 4.160000 -3.920000 -62.428238 -20.327831 4310.505859
7.960000 4.160000 -3.880000 -25.849857 -57.862785 4016.316895
7.960000 4.160000 -3.840000 26.602909 -57.985081 4069.984375
7.960000 4.160000 -3.800000 62.235653 -22.690254 4388.124023
7.960000 4.200000 -4.200000 -5.258307 22.027954 512.880554
7.960000 4.200000 -4.160000 -6.143703 13.264486 213.691681
7.960000 4.200000 -4.120000 -0.274769 10.138836 102.871490
7.960000 4.200000 -4.080000 2.603596 15.827091 257.275513
7.960000 4.200000 -4.040000 -5.510830 21.978836 513.438477
7.960000 4.200000 -4.000000 -20.348848 15.901691 666.939392
7.960000 4.200000 -3.960000 -26.602730 -5.615891 739.243469
7.960000 4.200000 -3.920000 -11.531448 -29.831974 1022.920959
7.960000 4.200000 -3.880000 21.513302 -36.846478 1820.485107
7.960000 4.200000 -3.840000 53.226871 -16.542788 3106.763672
7.960000 4.200000 -3.800000 62.929859 21.958719 4442.352539
8.000000 3.800000 -4.200000 -65.685486 25.345627 4956.983887
8.000000 3.800000 -4.160000 -70.107239 -12.168222 5063.090332
8.000000 3.800000 -4.120000 -48.866074 -42.950855 4232.668945
8.000000 3.800000 -4.080000 -15.786949 -50.752068 2825.000244
8.000000 3.800000 -4.040000 8.291567 -36.748985 1419.238037
8.000000 3.800000 -4.000000 12.913853 -17.528915 474.030457
8.000000 3.800000 -3.960000 5.548794 -9.300765 117.293335
8.000000 3.800000 -3.920000 2.185944 -13.562733 188.726074
8.000000 3.800000 -3.880000 10.749792 -17.915850 436.535706
8.000000 3.800000 -3.840000 23.885015 -10.397025 678.592102
8.000000 3.800000 -3.800000 27.708920 7.783330 828.364441
8.000000 3.840000 -4.200000 -69.207657 -17.267820 5087.877441
8.000000 3.840000 -4.160000 -57.240036 -41.003998 4957.749512
8.000000 3.840000 -4.120000 -38.221657 -53.407185 4313.222656
8.000000 3.840000 -4.080000 -20.484005 -56.012268 3556.968750
8.000000 3.840000 -4.040000 -6.742458 -54.415619 3006.520264
8.000000 3.840000 -4.000000 5.595520 -51.758331 2710.234619
8.000000 3.840000 -3.960000 18.971313 -46.053833 2480.866211
8.000000 3.840000 -3.920000 31.038725 -33.751984 2102.598877
8.000000 3.840000 -3.880000 35.834106 -15.495584 1524.196289
8.000000 3.840000 -3.840000 29.714119 2.212885 887.825745
8.000000 3.840000 -3.800000 15.913610 11.702387 390.188843
8.000000 3.880000 -4.200000 -42.681534 -49.891750 4310.900391
8.000000 3.880000 -4.160000 -32.897526 -54.547585 4057.686035
8.000000 3.880000 -4.120000 -29.575899 -62.022617 4721.539062
8.000000 3.880000 -4.080000 -21.321177 -78.554703 6625.434082
8.000000 3.880000 -4.040000 3.538158 -94.520035 8946.555664
8.000000 3.880000 -4.000000 41.529110 -92.193726 10224.349609
8.000000 3.880000 -3.960000 73.378708 -63.770950 9451.168945
8.000000 3.880000 -3.920000 79.905861 -21.366455 6841.472168
8.000000 3.880000 -3.880000 59.248253 11.672234 3646.596436
8.000000 3.880000 -3.840000 28.620234 20.133728 1224.484863
8.000000 3.880000 -3.800000 9.018983 8.619160 155.631958
8.000000 3.920000 -4.200000 -4.054174 -55.289059 3073.316406
8.000000 3.920000 -4.160000 -10.025670 -53.012009 2910.787109
8.000000 3.920000 -4.120000 -17.041115 -73.561829 5701.742188
8.000000 3.920000 -4.080000 2.823105 -107.871872 11644.310547
8.000000 3.920000 -4.040000 55.944786 -122.889389 18231.621094
8.000000 3.920000 -4.000000 114.608009 -92.799438 21746.730469
8.000000 3.920000 -3.960000 138.745499 -26.749176 19965.830078
8.000000 3.920000 -3.920000 112.004105 35.759430 13823.656250
8.000000 3.920000 -3.880000 56.816376 58.535061 6654.454102
8.000000 3.920000 -3.840000 13.786022 39.022640 1712.820923
8.000000 3.920000 -3.800000 5.940297 6.727715 80.549286
8.000000 3.960000 -4.200000 24.302443 -36.223148 1902.725098
8.000000 3.960000 -4.160000 5.554084 -43.680058 1938.795288
8.000000 3.960000 -4.120000 6.619764 -81.366684 6664.358398
8.000000 3.960000 -4.080000 53.251698 -115.750397 16233.897461
8.000000 3.960000 -4.040000 127.613815 -102.185669 26727.197266
8.000000 3.960000 -4.000000 177.481720 -30.344006 32420.519531
8.000000 3.960000 -3.960000 162.172653 60.019497 29902.308594
8.000000 3.960000 -3.920000 90.917114 111.204384 20632.335938
8.000000 3.960000 -3.880000 15.391016 97.655121 9773.406250
8.000000 3.960000 -3.840000 -16.431694 45.681278 2356.779785
8.000000 3.960000 -3.800000 -0.057564 5.182600 26.862656
8.000000 4.000000 -4.200000 31.997292 -8.978704 1104.443848
8.000000 4.000000 -4.160000 14.944210 -31.830280 1236.496094
8.000000 4.000000 -4.120000 37.065689 -72.803032 6674.146484
8.000000 4.000000 -4.080000 103.497536 -83.385597 17664.898438
8.000000 4.000000 -4.040000 170.253906 -29.850548 29877.447266
8.000000 4.000000 -4.000000 179.548645 67.724121 36824.273438
8.000000 4.000000 -3.960000 113.999664 146.546356 34471.757812
8.000000 4.000000 -3.920000 15.847966 154.893341 24243.105469
8.000000 4.000000 -3.880000 -49.248940 97.191322 11871.611328
8.000000 4.000000 -3.840000 -49.058212 26.874996 3128.973633
8.000000 4.000000 -3.800000 -7.659620 -4.307386 77.223358
8.000000 4.040000 -4.200000 23.691460 11.698883 698.149170
8.000000 4.040000 -4.160000 19.454685 -18.129417 707.160522
8.000000 4.040000 -4.120000 58.000271 -44.298794 5326.414551
8.000000 4.040000 -4.080000 120.195786 -22.740658 14964.165039
8.000000 4.040000 -4.040000 151.811874 54.376518 26003.652344
8.000000 4.040000 -4.000000 112.486191 141.754944 32747.609375
8.000000 4.040000 -3.960000 17.465477 176.390472 31418.642578
8.000000 4.040000 -3.920000 -71.313896 133.554337 22922.433594
8.000000 4.040000 -3.880000 -98.311066 48.904907 12056.755859
8.000000 4.040000 -3.840000 -60.773415 -14.793867 3912.266357
8.000000 4.040000 -3.800000 -4.744516 -22.982655 550.712830
8.000000 4.080000 -4.200000 9.765678 21.442627 555.154724
8.000000 4.080000 -4.160000 17.129402 -3.364285 304.734833
8.000000 4.080000 -4.120000 55.497402 -8.890255 3158.998291
8.000000 4.080000 -4.080000 93.075287 30.955791 9621.269531
8.000000 4.080000 -4.040000 85.228149 100.684418 17401.189453
8.000000 4.080000 -4.000000 19.044121 149.180634 22617.539062
8.000000 4.080000 -3.960000 -68.023102 133.689362 22499.988281
8.000000 4.080000 -3.920000 -117.214767 60.193802 17362.595703
8.000000 4.080000 -3.880000 -99.075882 -20.131651 10221.313477
8.000000 4.080000 -3.840000 -37.070251 -55.624729 4468.313965
8.000000 4.080000 -3.800000 17.350275 -36.572319 1638.566650
8.000000 4.120000 -4.200000 -3.445289 23.319557 555.671753
8.000000 4.120000 -4.160000 6.501009 7.596350 99.967651
8.000000 4.120000 -4.120000 32.156967 13.326750 1211.672852
8.000000 4.120000 -4.080000 44.064434 49.050293 4347.605469
8.000000 4.120000 -4.040000 16.368267 90.469131 8452.583984
8.000000 4.120000 -4.000000 -43.540028 98.211792 11541.290039
8.000000 4.120000 -3.960000 -95.434113 54.790771 12109.698242
8.000000 4.120000 -3.920000 -99.692810 -15.686554 10184.724609
8.000000 4.120000 -3.880000 -52.565845 -66.144005 7138.197266
8.000000 4.120000 -3.840000 10.898461 -66.430054 4531.728516
8.000000 4.120000 -3.800000 48.481243 -26.473322 3051.267578
8.000000 4.160000 -4.200000 -14.886525 20.259470 632.054749
8.000000 4.160000 -4.160000 -8.242950 8.769087 144.843109
8.000000 4.160000 -4.120000 5.722797 12.742973 195.133774
8.000000 4.160000 -4.080000 6.849426 32.410583 1097.360596
8.000000 4.160000 -4.040000 -16.154579 47.579971 2524.824219
8.000000 4.160000 -4.000000 -50.059494 35.479546 3764.750977
8.000000 4.160000 -3.960000 -65.475891 -5.153160 4313.647461
8.000000 4.160000 -3.920000 -43.293903 -48.690540 4245.130859
8.000000 4.160000 -3.880000 6.212395 -63.148792 4026.363770
8.000000 4.160000 -3.840000 50.852089 -37.702915 4007.444824
8.000000 4.160000 -3.800000 63.476418 9.022190 4110.655762
8.000000 4.200000 -4.200000 -23.838175 12.396556 721.933228
8.000000 4.200000 -4.160000 -18.426029 -0.210298 339.562775
8.000000 4.200000 -4.120000 -6.822598 -2.185434 51.323959
8.000000 4.200000 -4.080000 -2.063498 5.987289 40.105656
8.000000 4.200000 -4.040000 -9.924675 11.620117 233.526306
8.000000 4.200000 -4.000000 -20.897297 2.770180 444.370911
8.000000 4.200000 -3.960000 -18.181274 -17.644135 641.874268
8.000000 4.200000 -3.920000 5.121639 -31.852131 1040.789429
8.000000 4.200000 -3.880000 36.891891 -22.745432 1878.366211
8.000000 4.200000 -3.840000 54.782616 9.727257 3095.754639
8.000000 4.200000 -3.800000 44.966995 47.332848 4262.429199
8.040000 3.800000 -4.200000 -62.818108 -8.021596 4010.460693
8.040000 3.800000 -4.160000 -51.098186 -41.372414 4322.701172
8.040000 3.800000 -4.120000 -19.680126 -60.150101 4005.342041
8.040000 3.800000 -4.080000 14.770655 -54.229546 3159.015625
8.040000 3.800000 -4.040000 33.871964 -30.419870 2072.678467
8.040000 3.800000 -4.000000 32.220798 -6.640850 1082.280762
8.040000 3.800000 -3.960000 20.353233 3.680167 427.797760
8.040000 3.800000 -3.920000 13.205191 2.112679 178.840469
8.040000 3.800000 -3.880000 15.708359 0.779970 247.360886
8.040000 3.800000 -3.840000 19.742239 8.222618 457.367462
8.040000 3.800000 -3.800000 14.670822 20.400188 631.400696
8.040000 3.840000 -4.200000 -48.520088 -45.369156 4412.559570
8.040000 3.840000 -4.160000 -28.211048 -63.028740 4768.485352
8.040000 3.840000 -4.120000 -2.138595 -68.150620 4649.080566
8.040000 3.840000 -4.080000 21.588116 -60.322739 4104.879395
8.040000 3.840000 -4.040000 36.963615 -44.119068 3312.801025
8.040000 3.840000 -4.000000 42.659641 -25.905569 2490.943359
8.040000 3.840000 -3.960000 41.105404 -10.075974 1791.179443
8.040000 3.840000 -3.920000 35.319790 2.150719 1252.113159
8.040000 3.840000 -3.880000 26.729864 10.893543 833.154907
8.040000 3.840000 -3.840000 15.951240 15.368678 490.638306
8.040000 3.840000 -3.800000 5.020562 14.157832 225.650253
8.040000 3.880000 -4.200000 -12.842201 -61.985645 4007.142334
8.040000 3.880000 -4.160000 0.699440 -65.894485 4342.572266
8.040000 3.880000 -4.120000 15.351312 -70.198364 5163.473145
8.040000 3.880000 -4.080000 36.561470 -71.268875 6415.993652
8.040000 3.880000 -4.040000 62.175323 -60.097744 7477.509766
8.040000 3.880000 -4.000000 80.569832 -32.827259 7569.126953
8.040000 3.880000 -3.960000 79.681969 2.084248 6353.560547
8.040000 3.880000 -3.920000 58.499603 28.323074 4224.400391
8.040000 3.880000 -3.880000 29.492342 34.359436 2050.369141
8.040000 3.880000 -3.840000 9.169562 22.584301 594.131531
8.040000 3.880000 -3.800000 5.311801 6.534195 70.910934
8.040000 3.920000 -4.200000 22.089355 -50.948124 3083.651123
8.040000 3.920000 -4.160000 23.088274 -53.857391 3433.687012
8.040000 3.920000 -4.120000 34.717041 -67.718178 5791.024414
8.040000 3.920000 -4.080000 67.283356 -73.997818 10002.726562
8.040000 3.920000 -4.040000 107.235825 -51.497581 14151.523438
8.040000 3.920000 -4.000000 125.567459 -0.421089 15767.364258
8.040000 3.920000 -3.960000 104.306213 52.753151 13662.681641
8.040000 3.920000 -3.920000 55.022903 76.401581 8864.721680
8.040000 3.920000 -3.880000 10.252226 61.235771 3854.927734
8.040000 3.920000 -3.840000 -4.485573 27.523499 777.663330
8.040000 3.920000 -3.800000 8.763306 5.463872 106.649422
8.040000 3.960000 -4.200000 39.119766 -23.386396 2077.279541
8.040000 3.960000 -4.160000 34.766502 -35.392460 2461.335938
8.040000 3.960000 -4.120000 56.026054 -55.650593 6235.907227
8.040000 3.960000 -4.080000 102.995926 -51.427597 13252.958984
8.040000 3.960000 -4.040000 142.928619 -3.598846 20441.541016
8.040000 3.960000 -4.000000 137.842468 68.494400 23692.029297
8.040000 3.960000 -3.960000 81.840973 119.172615 20900.056641
8.040000 3.960000 -3.920000 10.106071 116.192856 13602.912109
8.040000 3.960000 -3.880000 -30.971233 69.657516 5811.386719
8.040000 3.960000 -3.840000 -24.102406 21.585190 1046.846436
8.040000 3.960000 -3.800000 7.104913 6.821362 97.010780
8.040000 4.000000 -4.200000 35.884762 3.898464 1302.914185
8.040000 4.000000 -4.160000 36.927940 -15.940792 1617.781616
8.040000 4.000000 -4.120000 70.661667 -29.759584 5878.704102
8.040000 4.000000 -4.080000 118.687454 -3.306926 14097.647461
8.040000 4.000000 -4.040000 136.197449 65.352844 22820.738281
8.040000 4.000000 -4.000000 94.158066 135.348618 27184.988281
8.040000 4.000000 -3.960000 11.296060 156.113495 24499.025391
8.040000 4.000000 -3.920000 -58.477104 113.593819 16323.126953
8.040000 4.000000 -3.880000 -73.069458 43.658707 7245.228027
8.040000 4.000000 -3.840000 -38.056183 -1.124328 1449.537231
8.040000 4.000000 -3.800000 3.075774 1.584173 11.969992
8.040000 4.040000 -4.200000 20.576992 20.788317 855.566711
8.040000 4.040000 -4.160000 30.337517 1.831082 923.717773
8.040000 4.040000 -4.120000 66.630661 3.199655 4449.882812
8.040000 4.040000 -4.080000 97.462486 46.957874 11703.978516
8.040000 4.040000 -4.040000 81.983627 114.302353 19786.343750
8.040000 4.040000 -4.000000 13.094828 155.349182 24304.843750
8.040000 4.040000 -3.960000 -68.961761 133.530518 22586.123047
8.040000 4.040000 -3.920000 -109.240555 61.440052 15708.378906
8.040000 4.040000 -3.880000 -86.682358 -8.854008 7592.224609
8.040000 4.040000 -3.840000 -31.031042 -32.470444 2017.255371
8.040000 4.040000 -3.800000 7.904468 -9.527355 153.251099
8.040000 4.080000 -4.200000 2.078340 26.007278 680.698059
8.040000 4.080000 -4.160000 15.202895 13.663715 417.825134
8.040000 4.080000 -4.120000 41.840515 26.312313 2442.966553
8.040000 4.080000 -4.080000 48.900795 69.582260 7232.978516
8.040000 4.080000 -4.040000 11.425098 113.452560 13002.016602
8.040000 4.080000 -4.000000 -57.020641 115.985306 16703.945312
8.040000 4.080000 -3.960000 -110.271988 64.041153 16261.179688
8.040000 4.080000 -3.920000 -109.522034 -10.460035 12104.488281
8.040000 4.080000 -3.880000 -58.715508 -57.127476 6711.059570
8.040000 4.080000 -3.840000 -0.033541 -51.365715 2638.437988
8.040000 4.080000 -3.800000 25.692783 -12.934636 827.423950
8.040000 4.120000 -4.200000 -14.608047 21.713051 684.851562
8.040000 4.120000 -4.160000 -4.133455 13.811996 207.856689
8.040000 4.120000 -4.120000 10.105000 26.272915 792.377075
8.040000 4.120000 -4.080000 3.349567 54.252956 2954.602783
8.040000 4.120000 -4.040000 -33.251774 69.765930 5972.965820
8.040000 4.120000 -4.000000 -77.607574 47.706257 8298.822266
8.040000 4.120000 -3.960000 -93.166580 -6.536877 8722.742188
8.040000 4.120000 -3.920000 -62.799263 -57.549927 7255.741211
8.040000 4.120000 -3.880000 -6.199947 -70.211472 4968.090332
8.040000 4.120000 -3.840000 37.304695 -40.520660 3033.564209
8.040000 4.120000 -3.800000 43.558884 3.315775 1908.370728
8.040000 4.160000 -4.200000 -26.097698 9.788195 776.898621
8.040000 4.160000 -4.160000 -18.048630 1.156177 327.089752
8.040000 4.160000 -4.120000 -8.759033 6.427315 118.031036
8.040000 4.160000 -4.080000 -13.651630 18.816019 540.409607
8.040000 4.160000 -4.040000 -33.499306 19.302750 1494.799561
8.040000 4.160000 -4.000000 -49.741081 -3.158482 2484.151123
8.040000 4.160000 -3.960000 -41.074448 -37.031132 3058.415039
8.040000 4.160000 -3.920000 -5.483059 -55.925125 3157.683594
8.040000 4.160000 -3.880000 35.251125 -42.407318 3041.022461
8.040000 4.160000 -3.840000 53.998161 -4.267034 2934.009033
8.040000 4.160000 -3.800000 41.553177 32.871155 2807.179199
8.040000 4.200000 -4.200000 -28.531879 -6.430331 855.417297
8.040000 4.200000 -4.160000 -18.337404 -16.435909 606.399536
8.040000 4.200000 -4.120000 -6.062389 -15.366420 272.879425
8.040000 4.200000 -4.080000 -1.872990 -7.856152 65.227203
8.040000 4.200000 -4.040000 -5.993833 -5.216705 63.140045
8.040000 4.200000 -4.000000 -7.765957 -12.621544 219.613464
8.040000 4.200000 -3.960000 2.956631 -22.031200 494.115448
8.040000 4.200000 -3.920000 23.714413 -19.220057 931.783936
8.040000 4.200000 -3.880000 39.707088 1.765650 1579.770386
8.040000 4.200000 -3.840000 36.737808 31.475655 2340.383301
8.040000 4.200000 -3.800000 13.966107 52.526134 2954.047119
8.080000 3.800000 -4.200000 -40.178047 -24.840439 2231.322998
8.080000 3.800000 -4.160000 -21.387249 -46.201614 2592.003418
8.080000 3.800000 -4.120000 10.447464 -51.538960 2765.413818
8.080000 3.800000 -4.080000 39.209805 -34.051975 2696.945801
8.080000 3.800000 -4.040000 48.444221 -3.001868 2355.853760
8.080000 3.800000 -4.000000 35.500549 22.572378 1769.801270
8.080000 3.800000 -3.960000 13.673549 29.743198 1071.623779
8.080000 3.800000 -3.920000 -0.324514 21.877790 478.743042
8.080000 3.800000 -3.880000 -1.290915 13.121757 173.846954
8.080000 3.800000 -3.840000 1.966031 13.180903 177.601501
8.080000 3.800000 -3.800000 -1.620624 18.256063 335.910278
8.080000 3.840000 -4.200000 -19.131159 -48.216812 2690.862305
8.080000 3.840000 -4.160000 2.996847 -57.242943 3285.735596
8.080000 3.840000 -4.120000 30.043121 -52.193550 3626.755859
8.080000 3.840000 -4.080000 50.445938 -31.199087 3518.175781
8.080000 3.840000 -4.040000 54.164917 -2.693239 2941.091553
8.080000 3.840000 -4.000000 41.095974 19.741259 2078.596191
8.080000 3.840000 -3.960000 21.233906 27.662827 1216.110718
8.080000 3.840000 -3.920000 6.079840 23.378307 583.509705
8.080000 3.840000 -3.880000 -0.292236 15.679472 245.931244
8.080000 3.840000 -3.840000 -1.860301 10.696095 117.867180
8.080000 3.840000 -3.800000 -3.596024 7.569952 70.235558
8.080000 3.880000 -4.200000 12.043117 -50.464592 2691.711670
8.080000 3.880000 -4.160000 28.093674 -50.999863 3390.240723
8.080000 3.880000 -4.120000 47.392075 -44.357117 4213.562500
8.080000 3.880000 -4.080000 64.327484 -26.251556 4827.169434
8.080000 3.880000 -4.040000 69.664276 1.081738 4854.281250
8.080000 3.880000 -4.000000 58.180172 27.542738 4143.534668
8.080000 3.880000 -3.960000 34.349419 41.471989 2899.808594
8.080000 3.880000 -3.920000 10.140604 38.299877 1569.712402
8.080000 3.880000 -3.880000 -3.433035 23.698875 573.422424
8.080000 3.880000 -3.840000 -3.566520 8.688414 88.208603
8.080000 3.880000 -3.800000 4.095140 1.454291 18.885132
8.080000 3.920000 -4.200000 35.623531 -32.486801 2324.428223
8.080000 3.920000 -4.160000 44.219795 -32.863876 3035.424805
8.080000 3.920000 -4.120000 61.355972 -29.688076 4645.937500
8.080000 3.920000 -4.080000 81.340012 -11.495730 6748.349121
8.080000 3.920000 -4.040000 88.016922 22.782963 8266.041992
8.080000 3.920000 -4.000000 69.477806 57.931179 8183.187012
8.080000 3.920000 -3.960000 31.594845 73.041031 6333.226562
8.080000 3.920000 -3.920000 -4.086710 59.672302 3577.484863
8.080000 3.920000 -3.880000 -17.540051 30.110693 1214.307129
8.080000 3.920000 -3.840000 -6.743389 7.159202 96.727470
8.080000 3.920000 -3.800000 11.925939 4.872467 165.968948
8.080000 3.960000 -4.200000 42.050278 -6.125066 1805.742310
8.080000 3.960000 -4.160000 48.422668 -10.372813 2452.350098
8.080000 3.960000 -4.120000 68.885559 -7.281597 4798.241699
8.080000 3.960000 -4.080000 90.227592 18.733238 8491.953125
8.080000 3.960000 -4.040000 88.116257 63.169422 11754.850586
8.080000 3.960000 -4.000000 51.588650 99.479324 12557.524414
8.080000 3.960000 -3.960000 -2.027756 100.974068 10199.874023
8.080000 3.960000 -3.920000 -39.112118 66.308067 5926.517578
8.080000 3.960000 -3.880000 -38.877163 22.560171 2020.395142
8.080000 3.960000 -3.840000 -11.583269 1.484924 136.377121
8.080000 3.960000 -3.800000 12.216669 11.592632 283.636139
8.080000 4.000000 -4.200000 32.603912 16.373005 1331.090454
8.080000 4.000000 -4.160000 41.019226 10.779080 1798.765503
8.080000 4.000000 -4.120000 62.852448 19.901316 4346.492676
8.080000 4.000000 -4.080000 75.955330 55.291847 8826.400391
8.080000 4.000000 -4.040000 55.170189 100.676582 13179.524414
8.080000 4.000000 -4.000000 0.840472 121.508194 14764.947266
8.080000 4.000000 -3.960000 -55.186432 96.861435 12427.679688
8.080000 4.000000 -3.920000 -75.661552 41.921387 7482.073242
8.080000 4.000000 -3.880000 -51.929764 -3.474051 2708.769531
8.080000 4.000000 -3.840000 -11.682463 -10.635429 249.592285
8.080000 4.000000 -3.800000 7.929317 12.917183 229.727661
8.080000 4.040000 -4.200000 13.967033 28.368803 999.867004
8.080000 4.040000 -4.160000 23.253319 25.101856 1170.820068
8.080000 4.040000 -4.120000 39.331802 40.470924 3184.886475
8.080000 4.040000 -4.080000 37.018448 76.221939 7180.149414
8.080000 4.040000 -4.040000 -0.070190 106.845657 11415.999023
8.080000 4.040000 -4.000000 -56.743290 100.736618 13367.666992
8.080000 4.040000 -3.960000 -94.513451 52.745872 11714.918945
8.080000 4.040000 -3.920000 -86.018616 -6.357271 7439.617188
8.080000 4.040000 -3.880000 -41.622879 -35.985920 3027.450684
8.080000 4.040000 -3.840000 -0.118432 -22.707041 515.623718
8.080000 4.040000 -3.800000 8.034371 9.102230 147.401718
8.080000 4.080000 -4.200000 -6.844296 27.937584 827.353027
8.080000 4.080000 -4.160000 -0.187842 26.368645 695.340698
8.080000 4.080000 -4.120000 6.540806 41.017159 1725.189453
8.080000 4.080000 -4.080000 -7.194328 65.075722 4286.607910
8.080000 4.080000 -4.040000 -45.345566 72.802002 7356.351562
8.080000 4.080000 -4.000000 -84.343185 45.011539 9139.811523
8.080000 4.080000 -3.960000 -91.880295 -7.545731 8498.926758
8.080000 4.080000 -3.920000 -58.464050 -49.622494 5880.437012
8.080000 4.080000 -3.880000 -8.764111 -52.997139 2885.506348
8.080000 4.080000 -3.840000 20.586746 -22.660984 937.334351
8.080000 4.080000 -3.800000 14.957115 9.395286 311.986694
8.080000 4.120000 -4.200000 -23.080793 15.818493 782.947754
8.080000 4.120000 -4.160000 -19.107288 12.115482 511.873383
8.080000 4.120000 -4.120000 -17.159822 19.290333 666.576416
8.080000 4.120000 -4.080000 -29.851061 28.030792 1676.811157
8.080000 4.120000 -4.040000 -53.138088 20.092457 3227.363281
8.080000 4.120000 -4.000000 -65.767410 -10.397888 4433.468262
8.080000 4.120000 -3.960000 -49.538563 -46.038185 4573.583496
8.080000 4.120000 -3.920000 -9.779442 -59.783661 3669.723633
8.080000 4.120000 -3.880000 26.831264 -40.683990 2375.104004
8.080000 4.120000 -3.840000 36.411961 -4.922817 1350.065063
8.080000 4.120000 -3.800000 19.559155 19.903505 778.710083
8.080000 4.160000 -4.200000 -28.170383 -3.547762 806.157104
8.080000 4.160000 -4.160000 -22.742542 -10.704469 631.808838
8.080000 4.160000 -4.120000 -17.621368 -10.292227 416.442566
8.080000 4.160000 -4.080000 -19.685192 -9.028996 469.029541
8.080000 4.160000 -4.040000 -24.367992 -16.444160 864.209473
8.080000 4.160000 -4.000000 -19.364094 -31.798962 1386.142090
8.080000 4.160000 -3.960000 1.048641 -41.788109 1747.345703
8.080000 4.160000 -3.920000 27.070133 -33.103039 1828.603271
8.080000 4.160000 -3.880000 40.737000 -6.910099 1707.252686
8.080000 4.160000 -3.840000 32.729160 20.729153 1500.895630
8.080000 4.160000 -3.800000 10.906500 33.529453 1243.176025
8.080000 4.200000 -4.200000 -19.225210 -20.989008 810.147156
8.080000 4.200000 -4.160000 -9.308172 -27.744514 856.400146
8.080000 4.200000 -4.120000 1.833714 -27.206894 743.577576
8.080000 4.200000 -4.080000 9.248108 -22.382677 586.511719
8.080000 4.200000 -4.040000 13.577539 -17.939716 506.183014
8.080000 4.200000 -4.000000 18.774712 -14.178608 553.522705
8.080000 4.200000 -3.960000 25.712360 -6.862076 708.213562
8.080000 4.200000 -3.920000 29.526304 6.846363 918.675293
8.080000 4.200000 -3.880000 24.150663 23.336073 1127.826904
8.080000 4.200000 -3.840000 9.063967 34.554089 1276.140503
8.080000 4.200000 -3.800000 -9.403653 35.032257 1315.687744
8.120000 3.800000 -4.200000 -19.526697 -19.181017 749.203308
8.120000 3.800000 -4.160000 -3.678263 -30.721436 957.336182
8.120000 3.800000 -4.120000 22.215218 -27.590014 1254.724731
8.120000 3.800000 -4.080000 41.230347 -3.665366 1713.376465
8.120000 3.800000 -4.040000 37.074169 28.748165 2200.950928
8.120000 3.800000 -4.000000 10.860746 47.711815 2394.373047
8.120000 3.800000 -3.960000 -18.228348 41.529510 2056.972900
8.120000 3.800000 -3.920000 -30.320280 19.462595 1298.112061
8.120000 3.800000 -3.880000 -22.846018 1.866181 525.423157
8.120000 3.800000 -3.840000 -10.644171 -0.061500 113.302155
8.120000 3.800000 -3.800000 -8.628299 6.283241 113.926666
8.120000 3.840000 -4.200000 -3.411310 -32.077633 1040.611572
8.120000 3.840000 -4.160000 15.252982 -35.490513 1492.229980
8.120000 3.840000 -4.120000 37.146984 -22.590111 1890.211548
8.120000 3.840000 -4.080000 45.742928 5.836882 2126.484619
8.120000 3.840000 -4.040000 31.449989 33.805870 2131.938477
8.120000 3.840000 -4.000000 2.397866 43.198437 1871.854736
8.120000 3.840000 -3.960000 -21.753897 30.197117 1385.097900
8.120000 3.840000 -3.920000 -27.301050 8.209635 812.745483
8.120000 3.840000 -3.880000 -17.570213 -5.665515 340.810455
8.120000 3.840000 -3.840000 -6.752434 -6.278186 85.010986
8.120000 3.840000 -3.800000 -4.061234 -2.223559 21.437834
8.120000 3.880000 -4.200000 17.820518 -30.371204 1239.980957
8.120000 3.880000 -4.160000 33.584442 -26.908493 1851.981812
8.120000 3.880000 -4.120000 47.747749 -10.283827 2385.604736
8.120000 3.880000 -4.080000 48.235310 15.510792 2567.229736
8.120000 3.880000 -4.040000 30.714642 36.733852 2292.765137
8.120000 3.880000 -4.000000 4.098787 40.820911 1683.146851
8.120000 3.880000 -3.960000 -16.076471 27.135620 994.794800
8.120000 3.880000 -3.920000 -20.211456 7.031786 457.948975
8.120000 3.880000 -3.880000 -11.163939 -6.348502 164.937012
8.120000 3.880000 -3.840000 0.651423 -8.247212 68.440865
8.120000 3.880000 -3.800000 7.356155 -3.196719 64.332031
8.120000 3.920000 -4.200000 33.129753 -15.120756 1326.217773
8.120000 3.920000 -4.160000 43.786247 -8.460993 1988.823853
8.120000 3.920000 -4.120000 51.902328 7.280574 2746.858643
8.120000 3.920000 -4.080000 48.964188 29.313723 3256.786133
8.120000 3.920000 -4.040000 31.120499 47.284847 3204.342041
8.120000 3.920000 -4.000000 4.736125 50.153568 2537.811279
8.120000 3.920000 -3.960000 -16.477608 35.470390 1529.660156
8.120000 3.920000 -3.920000 -21.342165 12.556215 613.146545
8.120000 3.920000 -3.880000 -9.878668 -3.968976 113.340851
8.120000 3.920000 -3.840000 6.893501 -5.134463 73.883064
8.120000 3.920000 -3.800000 15.835810 6.192934 289.125305
8.120000 3.960000 -4.200000 35.758255 6.499190 1320.892334
8.120000 3.960000 -4.160000 41.623436 13.760422 1921.859619
8.120000 3.960000 -4.120000 45.986935 27.858459 2890.891846
8.120000 3.960000 -4.080000 40.491840 48.098118 3953.018066
8.120000 3.960000 -4.040000 19.559547 64.250076 4510.647949
8.120000 3.960000 -4.000000 -10.460139 63.038017 4083.206055
8.120000 3.960000 -3.960000 -32.617069 41.132095 2755.722412
8.120000 3.960000 -3.920000 -32.679413 11.399032 1197.881836
8.120000 3.960000 -3.880000 -12.718863 -5.882517 196.373489
8.120000 3.960000 -3.840000 9.100826 -0.363378 82.957077
8.120000 3.960000 -3.800000 13.948029 18.848160 549.800598
8.120000 4.000000 -4.200000 24.643517 25.488163 1256.949341
8.120000 4.000000 -4.160000 25.984024 31.944679 1695.632080
8.120000 4.000000 -4.120000 26.454628 44.347225 2666.523682
8.120000 4.000000 -4.080000 16.260345 61.801865 4083.869385
8.120000 4.000000 -4.040000 -9.526056 71.489914 5201.553223
8.120000 4.000000 -4.000000 -40.189003 59.478310 5152.825195
8.120000 4.000000 -3.960000 -54.856972 27.245174 3751.586914
8.120000 4.000000 -3.920000 -41.753906 -4.886748 1767.268921
8.120000 4.000000 -3.880000 -11.873881 -14.272394 344.690308
8.120000 4.000000 -3.840000 8.973016 2.443225 86.484367
8.120000 4.000000 -3.800000 3.997622 25.062397 644.104675
8.120000 4.040000 -4.200000 3.916289 33.815159 1158.802246
8.120000 4.040000 -4.160000 0.853724 37.318520 1393.400757
8.120000 4.040000 -4.120000 -2.918449 45.514935 2080.126709
8.120000 4.040000 -4.080000 -17.011072 55.347794 3352.754883
8.120000 4.040000 -4.040000 -42.180817 53.008934 4589.168457
8.120000 4.040000 -4.000000 -63.176640 29.270023 4848.021973
8.120000 4.040000 -3.960000 -60.959816 -5.967729 3751.712891
8.120000 4.040000 -3.920000 -33.360355 -28.465208 1923.181396
8.120000 4.040000 -3.880000 -1.115479 -22.104992 489.874969
8.120000 4.040000 -3.840000 10.107534 3.822474 116.773567
8.120000 4.040000 -3.800000 -5.114061 22.235641 520.577393
8.120000 4.080000 -4.200000 -17.667561 26.979551 1040.038818
8.120000 4.080000 -4.160000 -22.985353 24.735003 1140.146851
8.120000 4.080000 -4.120000 -27.846031 25.440289 1422.609619
8.120000 4.080000 -4.080000 -39.237564 24.780796 2153.674316
8.120000 4.080000 -4.040000 -53.689842 12.328205 3034.583740
8.120000 4.080000 -4.000000 -56.676968 -13.297400 3389.099365
8.120000 4.080000 -3.960000 -37.945137 -37.171402 2821.546387
8.120000 4.080000 -3.920000 -6.106485 -40.095490 1644.937500
8.120000 4.080000 -3.880000 15.925716 -18.907145 611.108521
8.120000 4.080000 -3.840000 12.639078 7.668944 218.558990
8.120000 4.080000 -3.800000 -7.704096 16.303017 325.141449
8.120000 4.120000 -4.200000 -29.203617 7.450301 908.358215
8.120000 4.120000 -4.160000 -32.119717 -1.025298 1032.727417
8.120000 4.120000 -4.120000 -32.086899 -7.182413 1081.156128
8.120000 4.120000 -4.080000 -33.162827 -13.863623 1291.973145
8.120000 4.120000 -4.040000 -31.629810 -25.633238 1657.507812
8.120000 4.120000 -4.000000 -19.693350 -38.818882 1894.733643
8.120000 4.120000 -3.960000 2.731211 -41.674206 1744.198853
8.120000 4.120000 -3.920000 23.132957 -26.746937 1250.532349
8.120000 4.120000 -3.880000 26.638351 -1.703850 712.504822
8.120000 4.120000 -3.840000 11.725554 15.447664 376.118958
8.120000 4.120000 -3.800000 -6.544460 13.723354 231.160416
8.120000 4.160000 -4.200000 -23.818396 -14.183412 768.485107
8.120000 4.160000 -4.160000 -20.519447 -25.002050 1046.150269
8.120000 4.160000 -4.120000 -12.104717 -32.133831 1179.107300
8.120000 4.160000 -4.080000 -1.778433 -35.241962 1245.158813
8.120000 4.160000 -4.040000 10.051357 -34.808548 1312.664795
8.120000 4.160000 -4.000000 23.052074 -28.664986 1353.079590
8.120000 4.160000 -3.960000 32.809288 -14.431030 1284.703979
8.120000 4.160000 -3.920000 32.467892 4.742384 1076.654175
8.120000 4.160000 -3.880000 20.061146 19.530745 783.899536
8.120000 4.160000 -3.840000 2.900728 21.948051 490.131165
8.120000 4.160000 -3.800000 -7.733431 13.706682 247.679092
8.120000 4.200000 -4.200000 -5.016582 -24.484169 624.640625
8.120000 4.200000 -4.160000 3.410269 -31.917109 1030.331787
8.120000 4.200000 -4.120000 17.308594 -33.618649 1429.800903
8.120000 4.200000 -4.080000 31.957506 -26.555298 1726.466064
8.120000 4.200000 -4.040000 41.583900 -11.340460 1857.826904
8.120000 4.200000 -4.000000 41.679649 7.785078 1797.800537
8.120000 4.200000 -3.960000 31.262659 24.163097 1561.209229
8.120000 4.200000 -3.920000 14.227102 31.638351 1203.395752
8.120000 4.200000 -3.880000 -1.957667 28.380043 809.259277
8.120000 4.200000 -3.840000 -10.811247 18.686386 466.064087
8.120000 4.200000 -3.800000 -11.637474 10.031550 236.062805
8.160000 3.800000 -4.200000 -15.860854 -4.577111 272.516632
8.160000 3.800000 -4.160000 -6.197268 -14.122005 237.837173
8.160000 3.800000 -4.120000 13.215927 -8.670218 249.833405
8.160000 3.800000 -4.080000 22.038990 15.865257 737.423462
8.160000 3.800000 -4.040000 5.507597 41.666595 1766.438843
8.160000 3.800000 -4.000000 -27.729134 45.122726 2804.965332
8.160000 3.800000 -3.960000 -51.789303 21.096214 3127.182129
8.160000 3.800000 -3.920000 -48.528534 -10.860172 2472.961914
8.160000 3.800000 -3.880000 -25.107151 -25.752808 1293.576172
8.160000 3.800000 -3.840000 -5.352423 -17.686150 341.448334
8.160000 3.800000 -3.800000 -4.389363 -3.592678 32.173843
8.160000 3.840000 -4.200000 -7.585773 -16.825384 340.637482
8.160000 3.840000 -4.160000 7.029639 -19.800413 441.472198
8.160000 3.840000 -4.120000 21.627333 -4.722631 490.044769
8.160000 3.840000 -4.080000 17.589008 21.022703 751.327271
8.160000 3.840000 -4.040000 -8.090486 35.661385 1337.190308
8.160000 3.840000 -4.000000 -37.194939 24.430599 1980.317627
8.160000 3.840000 -3.960000 -46.907467 -4.833622 2223.674561
8.160000 3.840000 -3.920000 -31.748901 -28.896795 1843.017578
8.160000 3.840000 -3.880000 -7.804921 -31.725418 1067.418945
8.160000 3.840000 -3.840000 4.802340 -18.661671 371.320435
8.160000 3.840000 -3.800000 1.918810 -7.799710 64.517303
8.160000 3.880000 -4.200000 8.731216 -19.538153 457.973541
8.160000 3.880000 -4.160000 22.287964 -13.940810 691.099487
8.160000 3.880000 -4.120000 27.134518 4.720755 758.567566
8.160000 3.880000 -4.080000 13.832637 23.184792 728.876404
8.160000 3.880000 -4.040000 -10.823736 25.247805 754.604919
8.160000 3.880000 -4.000000 -28.782614 7.604495 886.267212
8.160000 3.880000 -3.960000 -27.172766 -16.516289 1011.146973
8.160000 3.880000 -3.920000 -9.620888 -29.679901 973.458008
8.160000 3.880000 -3.880000 8.631604 -25.749062 737.518738
8.160000 3.880000 -3.840000 15.807654 -13.106771 421.669373
8.160000 3.880000 -3.800000 12.982676 -3.780679 182.843399
8.160000 3.920000 -4.200000 23.820158 -8.575633 640.941406
8.160000 3.920000 -4.160000 30.536915 3.122259 942.251648
8.160000 3.920000 -4.120000 26.051664 18.629526 1025.748413
8.160000 3.920000 -4.080000 10.396505 27.252686 850.796204
8.160000 3.920000 -4.040000 -7.438300 22.128992 545.020630
8.160000 3.920000 -4.000000 -16.240164 6.106970 301.037994
8.160000 3.920000 -3.960000 -11.188175 -10.442001 234.210663
8.160000 3.920000 -3.920000 3.060518 -17.620493 319.848541
8.160000 3.920000 -3.880000 16.752367 -12.747063 443.129425
8.160000 3.920000 -3.840000 22.304626 -0.779566 498.104095
8.160000 3.920000 -3.800000 18.453093 10.547454 451.765411
8.160000 3.960000 -4.200000 27.177832 12.005218 882.759766
8.160000 3.960000 -4.160000 24.143190 24.136528 1165.465576
8.160000 3.960000 -4.120000 14.027396 32.185387 1232.666992
8.160000 3.960000 -4.080000 0.836003 32.800896 1076.597656
8.160000 3.960000 -4.040000 -10.451145 25.461283 757.503357
8.160000 3.960000 -4.000000 -15.062195 12.539000 384.096252
8.160000 3.960000 -3.960000 -10.127964 -0.486385 102.812225
8.160000 3.960000 -3.920000 2.648711 -6.425621 48.304272
8.160000 3.960000 -3.880000 15.825744 -0.745425 251.009827
8.160000 3.960000 -3.840000 19.841240 13.633109 579.536499
8.160000 3.960000 -3.800000 10.410057 26.402355 805.453613
8.160000 4.000000 -4.200000 13.991962 30.624172 1133.614868
8.160000 4.000000 -4.160000 2.558393 36.747566 1356.929077
8.160000 4.000000 -4.120000 -8.555985 35.668884 1345.474121
8.160000 4.000000 -4.080000 -17.150454 30.440485 1220.761230
8.160000 4.000000 -4.040000 -23.219780 21.870495 1017.476746
8.160000 4.000000 -4.000000 -24.340382 9.747573 687.469360
8.160000 4.000000 -3.960000 -16.624130 -1.979474 280.279999
8.160000 4.000000 -3.920000 -1.455134 -4.924072 26.363903
8.160000 4.000000 -3.880000 11.055712 5.719445 154.940811
8.160000 4.000000 -3.840000 9.212942 23.061518 616.711914
8.160000 4.000000 -3.800000 -7.774394 31.467731 1050.659302
8.160000 4.040000 -4.200000 -9.875322 34.708633 1302.211182
8.160000 4.040000 -4.160000 -24.311436 30.538597 1523.651855
8.160000 4.040000 -4.120000 -31.575462 20.816132 1430.321167
8.160000 4.040000 -4.080000 -33.436096 11.264068 1244.851807
8.160000 4.040000 -4.040000 -32.545578 1.791432 1062.423828
8.160000 4.040000 -4.000000 -26.830065 -8.393414 790.301758
8.160000 4.040000 -3.960000 -13.652594 -14.361745 392.653015
8.160000 4.040000 -3.920000 1.966259 -8.570580 77.321007
8.160000 4.040000 -3.880000 7.793465 8.456269 132.246582
8.160000 4.040000 -3.840000 -3.547381 23.591902 569.161743
8.160000 4.040000 -3.800000 -23.565971 21.535124 1019.116577
8.160000 4.080000 -4.200000 -29.888165 20.043598 1295.048218
8.160000 4.080000 -4.160000 -40.170334 5.949845 1649.056396
8.160000 4.080000 -4.120000 -39.104519 -9.278884 1615.261108
8.160000 4.080000 -4.080000 -31.447538 -19.794214 1380.758545
8.160000 4.080000 -4.040000 -21.111906 -25.823227 1112.551636
8.160000 4.080000 -4.000000 -8.184895 -27.377499 816.519897
8.160000 4.080000 -3.960000 5.713793 -20.947634 471.450775
8.160000 4.080000 -3.920000 13.097654 -5.153687 198.109055
8.160000 4.080000 -3.880000 6.206342 12.189135 187.093689
8.160000 4.080000 -3.840000 -12.145447 17.377178 449.478180
8.160000 4.080000 -3.800000 -26.560020 4.459072 725.317993
8.160000 4.120000 -4.200000 -32.585815 -4.347072 1080.732422
8.160000 4.120000 -4.160000 -33.711334 -23.053350 1667.911133
8.160000 4.120000 -4.120000 -22.338478 -37.858521 1932.275146
8.160000 4.120000 -4.080000 -4.911840 -43.036453 1876.262573
8.160000 4.120000 -4.040000 12.304173 -38.311615 1619.172485
8.160000 4.120000 -4.000000 24.933044 -25.247242 1259.079834
8.160000 4.120000 -3.960000 28.609753 -6.601911 862.103149
8.160000 4.120000 -3.920000 19.931797 11.072003 519.865784
8.160000 4.120000 -3.880000 1.657411 18.196365 333.854736
8.160000 4.120000 -3.840000 -14.961157 9.682529 317.587585
8.160000 4.120000 -3.800000 -17.321720 -7.586237 357.592987
8.160000 4.160000 -4.200000 -16.475582 -21.511223 734.177490
8.160000 4.160000 -4.160000 -8.859691 -37.675964 1497.972412
8.160000 4.160000 -4.120000 10.076426 -45.827938 2201.734375
8.160000 4.160000 -4.080000 32.081116 -39.911789 2622.148926
8.160000 4.160000 -4.040000 47.139160 -20.822792 2655.688965
8.160000 4.160000 -4.000000 47.983822 4.297239 2320.913574
8.160000 4.160000 -3.960000 33.488045 24.801413 1736.559082
8.160000 4.160000 -3.920000 10.315512 31.277378 1084.684082
8.160000 4.160000 -3.880000 -9.267624 21.465099 546.639343
8.160000 4.160000 -3.840000 -14.620532 3.354875 225.015152
8.160000 4.160000 -3.800000 -5.030936 -9.105707 108.224220
8.160000 4.200000 -4.200000 5.589000 -19.536507 412.911987
8.160000 4.200000 -4.160000 16.505573 -29.128056 1120.877563
8.160000 4.200000 -4.120000 36.500179 -28.302557 2133.297852
8.160000 4.200000 -4.080000 54.639565 -11.184381 3110.572266
8.160000 4.200000 -4.040000 57.936409 17.322037 3656.680420
8.160000 4.200000 -4.000000 40.971195 42.991554 3526.912598
8.160000 4.200000 -3.960000 11.296381 51.399261 2769.492188
8.160000 4.200000 -3.920000 -14.600391 38.627090 1705.223511
8.160000 4.200000 -3.880000 -22.912678 14.884785 746.547607
8.160000 4.200000 -3.840000 -12.947954 -2.870795 175.890991
8.160000 4.200000 -3.800000 2.631113 -4.174014 24.345150
8.200000 3.800000 -4.200000 -26.074167 1.521045 682.175781
8.200000 3.800000 -4.160000 -18.539381 -11.735936 481.440857
8.200000 3.800000 -4.120000 -2.523141 -7.153616 57.540462
8.200000 3.800000 -4.080000 -1.173696 13.487391 183.287262
8.200000 3.800000 -4.040000 -23.407688 27.025318 1278.287598
8.200000 3.800000 -4.000000 -51.503181 13.662615 2839.244629
8.200000 3.800000 -3.960000 -58.128693 -20.203861 3787.140869
8.200000 3.800000 -3.920000 -35.129135 -46.802319 3424.513184
8.200000 3.800000 -3.880000 -2.572316 -45.215385 2051.047852
8.200000 3.800000 -3.840000 12.199976 -22.520660 656.019531
8.200000 3.800000 -3.800000 2.855185 -4.893531 32.098724
8.200000 3.840000 -4.200000 -19.817007 -16.431044 662.692993
8.200000 3.840000 -4.160000 -5.692969 -21.910957 512.499939
8.200000 3.840000 -4.120000 4.478272 -9.222767 105.114349
8.200000 3.840000 -4.080000 -5.098442 7.566141 83.240601
8.200000 3.840000 -4.040000 -28.578369 6.894910 864.263000
8.200000 3.840000 -4.000000 -42.985565 -16.450460 2118.376465
8.200000 3.840000 -3.960000 -31.969543 -44.261024 2981.090088
8.200000 3.840000 -3.920000 -3.241030 -52.985931 2818.013428
8.200000 3.840000 -3.880000 19.359892 -37.596169 1788.277344
8.200000 3.840000 -3.840000 20.509768 -15.570154 663.080261
8.200000 3.840000 -3.800000 7.953170 -7.112339 113.838272
8.200000 3.880000 -4.200000 -0.198366 -23.143610 535.666077
8.200000 3.880000 -4.160000 11.971334 -17.794519 459.957764
8.200000 3.880000 -4.120000 11.692592 -3.769384 150.924957
8.200000 3.880000 -4.080000 -2.890625 2.564818 14.934004
8.200000 3.880000 -4.040000 -17.665459 -8.639517 386.709656
8.200000 3.880000 -4.000000 -16.550051 -29.713810 1156.814697
8.200000 3.880000 -3.960000 2.071775 -42.602798 1819.290649
8.200000 3.880000 -3.920000 23.763443 -36.683601 1910.387939
8.200000 3.880000 -3.880000 32.692116 -18.469353 1409.891357
8.200000 3.880000 -3.840000 26.613462 -3.532176 720.752625
8.200000 3.880000 -3.800000 16.683430 -0.231080 278.390228
8.200000 3.920000 -4.200000 18.558863 -10.764626 460.308563
8.200000 3.920000 -4.160000 20.343889 0.654794 414.302582
8.200000 3.920000 -4.120000 11.180070 7.941735 188.065125
8.200000 3.920000 -4.080000 -0.327799 3.388562 11.589807
8.200000 3.920000 -4.040000 -2.965383 -9.835568 105.531898
8.200000 3.920000 -4.000000 6.740101 -20.722853 474.865570
8.200000 3.920000 -3.960000 21.899546 -20.517700 900.566101
8.200000 3.920000 -3.920000 32.139652 -9.759636 1128.207764
8.200000 3.920000 -3.880000 32.432724 3.803904 1066.351318
8.200000 3.920000 -3.840000 25.487816 12.956785 817.507080
8.200000 3.920000 -3.800000 16.953320 16.106949 546.848877
8.200000 3.960000 -4.200000 20.457649 13.362206 597.063965
8.200000 3.960000 -4.160000 9.709837 20.911716 531.580811
8.200000 3.960000 -4.120000 -1.729659 16.665565 280.732788
8.200000 3.960000 -4.080000 -4.648291 5.547619 52.382683
8.200000 3.960000 -4.040000 2.044065 -3.142204 14.051649
8.200000 3.960000 -4.000000 12.458694 -3.976237 171.029541
8.200000 3.960000 -3.960000 20.279955 2.016001 415.340851
8.200000 3.960000 -3.920000 22.989527 11.000525 649.529846
8.200000 3.960000 -3.880000 20.679461 20.183969 835.032715
8.200000 3.960000 -3.840000 13.396761 27.553951 938.693420
8.200000 3.960000 -3.800000 1.814682 29.878828 896.037476
8.200000 4.000000 -4.200000 1.690090 30.883667 956.657288
8.200000 4.000000 -4.160000 -15.517827 26.031679 918.451294
8.200000 4.000000 -4.120000 -21.221289 10.972231 570.732910
8.200000 4.000000 -4.080000 -13.844290 -1.126759 192.933945
8.200000 4.000000 -4.040000 -1.915516 -3.136155 13.504670
8.200000 4.000000 -4.000000 6.352652 2.430447 46.263252
8.200000 4.000000 -3.960000 9.409346 10.063372 189.807220
8.200000 4.000000 -3.920000 9.064462 17.889889 402.212585
8.200000 4.000000 -3.880000 4.586185 26.180717 706.463074
8.200000 4.000000 -3.840000 -6.409132 31.627735 1041.390625
8.200000 4.000000 -3.800000 -21.215748 27.431992 1202.622070
8.200000 4.040000 -4.200000 -24.597708 27.232788 1346.671997
8.200000 4.040000 -4.160000 -37.847710 8.604266 1506.482544
8.200000 4.040000 -4.120000 -32.180244 -11.704317 1172.559204
8.200000 4.040000 -4.080000 -15.347183 -19.836559 629.025085
8.200000 4.040000 -4.040000 -0.411077 -14.619852 213.909073
8.200000 4.040000 -4.000000 6.305812 -3.602479 52.741116
8.200000 4.040000 -3.960000 6.310728 7.223220 92.000198
8.200000 4.040000 -3.920000 1.623177 16.788656 284.493683
8.200000 4.040000 -3.880000 -8.833033 23.569620 633.549438
8.200000 4.040000 -3.840000 -24.011288 21.858351 1054.329468
8.200000 4.040000 -3.800000 -35.287674 7.513981 1301.679932
8.200000 4.080000 -4.200000 -38.321793 4.542564 1489.194702
8.200000 4.080000 -4.160000 -39.691334 -21.377613 2032.404297
8.200000 4.080000 -4.120000 -21.768877 -39.195919 2010.204102
8.200000 4.080000 -4.080000 1.886356 -39.083565 1531.083374
8.200000 4.080000 -4.040000 17.769913 -24.846352 933.110962
8.200000 4.080000 -4.000000 21.206421 -6.262329 488.929047
8.200000 4.080000 -3.960000 14.315117 9.458867 294.392761
8.200000 4.080000 -3.920000 0.306565 18.538851 343.782990
8.200000 4.080000 -3.880000 -17.047688 17.447029 595.022461
8.200000 4.080000 -3.840000 -30.196905 4.121518 928.840027
8.200000 4.080000 -3.800000 -29.466846 -16.105463 1127.680908
8.200000 4.120000 -4.200000 -29.368847 -19.389635 1238.487061
8.200000 4.120000 -4.160000 -18.252251 -42.995052 2181.719238
8.200000 4.120000 -4.120000 7.792802 -51.904686 2754.824219
8.200000 4.120000 -4.080000 33.360233 -40.556507 2757.735352
8.200000 4.120000 -4.040000 45.310715 -15.765659 2301.616699
8.200000 4.120000 -4.000000 39.418968 10.075674 1655.374268
8.200000 4.120000 -3.960000 19.810776 26.098173 1073.581421
8.200000 4.120000 -3.920000 -4.404673 26.321756 712.235962
8.200000 4.120000 -3.880000 -22.043861 11.214499 611.696838
8.200000 4.120000 -3.840000 -23.887009 -11.055817 692.820251
8.200000 4.120000 -3.800000 -8.808331 -26.650038 787.811157
8.200000 4.160000 -4.200000 -6.412520 -26.050081 719.727173
8.200000 4.160000 -4.160000 11.083640 -41.125526 1814.156006
8.200000 4.160000 -4.120000 38.200119 -39.052975 2984.384033
8.200000 4.160000 -4.080000 59.063438 -16.862730 3772.841309
8.200000 4.160000 -4.040000 60.359711 15.678102 3889.097656
8.200000 4.160000 -4.000000 39.712929 41.896416 3332.426270
8.200000 4.160000 -3.960000 7.421131 48.090935 2367.811279
8.200000 4.160000 -3.920000 -19.221275 31.840425 1383.270142
8.200000 4.160000 -3.880000 -26.198578 4.074627 702.968079
8.200000 4.160000 -3.840000 -11.970280 -17.237457 440.417542
8.200000 4.160000 -3.800000 10.849640 -18.965219 477.394257
8.200000 4.200000 -4.200000 10.674977 -12.023851 258.528137
8.200000 4.200000 -4.160000 26.986612 -19.194187 1096.694092
8.200000 4.200000 -4.120000 49.052437 -9.246038 2491.630859
8.200000 4.200000 -4.080000 60.036201 18.805050 3957.975342
8.200000 4.200000 -4.040000 47.269890 51.074951 4843.092773
8.200000 4.200000 -4.000000 13.618785 67.248505 4707.832520
8.200000 4.200000 -3.960000 -22.308533 55.799141 3611.214844
8.200000 4.200000 -3.920000 -38.931370 23.994553 2091.390137
8.200000 4.200000 -3.880000 -28.153564 -6.502112 834.900635
8.200000 4.200000 -3.840000 -1.880190 -16.043274 260.921753
8.200000 4.200000 -3.800000 17.628864 -2.265571 315.909668
