#kx 	ky 	kz 	real 	imag 	intensity
1.800000 1.800000 7.983333 -117.806328 -32.203903 14915.422852
1.800000 1.800000 7.991666 -7.414066 -60.950436 3769.923828
1.800000 1.800000 8.000000 -19.384216 8.851471 454.096375
1.800000 1.800000 8.008333 -57.751961 -31.140736 4305.034668
1.800000 1.800000 8.016666 -12.381840 -35.451096 1410.090088
1.800000 1.900000 7.983333 -8.847805 -76.520454 5933.663574
1.800000 1.900000 7.991666 78.223686 27.442757 6872.050293
1.800000 1.900000 8.000000 -74.261086 -15.019626 5740.298340
1.800000 1.900000 8.008333 64.030403 -70.875443 9123.220703
1.800000 1.900000 8.016666 45.984901 -3.122177 2124.359131
1.800000 2.000000 7.983333 35.222542 -4.269953 1258.859985
1.800000 2.000000 7.991666 -29.427711 34.429535 2051.383057
1.800000 2.000000 8.000000 60.780418 -67.752869 8284.710938
1.800000 2.000000 8.008333 64.877907 87.916916 11938.527344
1.800000 2.000000 8.016666 20.560715 88.517845 8258.151367
1.800000 2.100000 7.983333 -26.611420 25.361282 1351.362305
1.800000 2.100000 7.991666 39.068562 2.492748 1532.566284
1.800000 2.100000 8.000000 -16.979826 112.155624 12867.198242
1.800000 2.100000 8.008333 -62.367569 19.990040 4289.315430
1.800000 2.100000 8.016666 -120.805420 66.379211 19000.148438
1.800000 2.200000 7.983333 3.014606 -48.065414 2319.372070
1.800000 2.200000 7.991666 -20.715097 73.688042 5859.042480
1.800000 2.200000 8.000000 -91.197098 -107.177246 19803.871094
1.800000 2.200000 8.008333 65.336014 -10.608551 4381.336426
1.800000 2.200000 8.016666 -68.907455 -86.565445 12241.813477
1.900000 1.800000 7.983333 -101.164124 -47.077576 12450.477539
1.900000 1.800000 7.991666 -3.381426 -124.480606 15506.854492
1.900000 1.800000 8.000000 14.335983 21.082096 649.975220
1.900000 1.800000 8.008333 -75.222504 -84.595543 12814.831055
1.900000 1.800000 8.016666 52.639771 -43.420403 4656.276855
1.900000 1.900000 7.983333 313.714111 -234.235382 153282.765625
1.900000 1.900000 7.991666 -443.170959 726.820190 724668.062500
1.900000 1.900000 8.000000 -835.216064 -701.526978 1189726.000000
1.900000 1.900000 8.008333 184.105377 -514.749939 298862.281250
1.900000 1.900000 8.016666 112.108109 -407.366180 178515.437500
1.900000 2.000000 7.983333 400.111847 423.840485 339730.250000
1.900000 2.000000 7.991666 -1220.301147 -565.461731 1808881.875000
1.900000 2.000000 8.000000 866.792358 -1384.362915 2667789.500000
1.900000 2.000000 8.008333 749.457581 87.761078 569388.687500
1.900000 2.000000 8.016666 688.550293 94.253250 482985.187500
1.900000 2.100000 7.983333 -197.663757 357.144775 166623.343750
1.900000 2.100000 7.991666 172.002213 -754.370178 598659.125000
1.900000 2.100000 8.000000 895.068054 355.002655 927173.687500
1.900000 2.100000 8.008333 56.537140 496.440125 249649.250000
1.900000 2.100000 8.016666 -81.656326 444.161987 203947.625000
1.900000 2.200000 7.983333 -85.188553 104.262421 18127.742188
1.900000 2.200000 7.991666 -133.803925 -113.160667 30708.828125
1.900000 2.200000 8.000000 97.837173 -49.522087 12024.548828
1.900000 2.200000 8.008333 -89.121819 54.287643 10889.846680
1.900000 2.200000 8.016666 5.934062 -132.741028 17655.392578
2.000000 1.800000 7.983333 -88.512703 -151.267822 30716.451172
2.000000 1.800000 7.991666 163.265076 -95.759567 35825.378906
2.000000 1.800000 8.000000 -37.943146 31.779171 2449.597900
2.000000 1.800000 8.008333 56.562119 -153.849045 26868.802734
2.000000 1.800000 8.016666 94.562119 40.726555 10600.646484
2.000000 1.900000 7.983333 391.178650 349.714111 275320.687500
2.000000 1.900000 7.991666 -1132.583862 -506.990204 1539785.250000
2.000000 1.900000 8.000000 788.300537 -1455.223755 2739094.000000
2.000000 1.900000 8.008333 919.428467 61.391846 849117.625000
2.000000 1.900000 8.016666 687.466187 110.947281 484919.062500
2.000000 2.000000 7.983333 -544.462097 675.995361 753408.687500
2.000000 2.000000 7.991666 575.088989 -1958.419189 4166133.000000
2.000000 2.000000 8.000000 2369.108887 881.775818 6390205.500000
2.000000 2.000000 8.008333 165.012146 1275.768799 1654815.000000
2.000000 2.000000 8.016666 29.948196 1132.566162 1283603.000000
2.000000 2.100000 7.983333 -597.852722 -231.433929 410989.531250
2.000000 2.100000 7.991666 1238.583008 97.807800 1543654.250000
2.000000 2.100000 8.000000 -305.030334 1549.296143 2493362.000000
2.000000 2.100000 8.008333 -808.212891 248.283569 714852.812500
2.000000 2.100000 8.016666 -756.690674 62.902409 576537.437500
2.000000 2.200000 7.983333 -151.199722 -163.942886 49738.625000
2.000000 2.200000 7.991666 129.626587 -139.419098 36240.738281
2.000000 2.200000 8.000000 -5.007153 28.555634 840.495789
2.000000 2.200000 8.008333 -8.843178 -144.445892 20942.816406
2.000000 2.200000 8.016666 132.103027 -54.065819 20374.322266
2.100000 1.800000 7.983333 70.110153 -80.824142 11447.975586
2.100000 1.800000 7.991666 54.054405 88.414352 10738.976562
2.100000 1.800000 8.000000 -21.166672 -20.846659 882.611206
2.100000 1.800000 8.008333 85.499649 15.457932 7549.137695
2.100000 1.800000 8.016666 -12.091825 85.250259 7413.819336
2.100000 1.900000 7.983333 -171.012512 230.620743 82431.203125
2.100000 1.900000 7.991666 238.435287 -749.220825 618183.250000
2.100000 1.900000 8.000000 999.633179 318.419586 1100657.500000
2.100000 1.900000 8.008333 99.393372 624.548950 399940.437500
2.100000 1.900000 8.016666 -45.731728 441.028839 196597.828125
2.100000 2.000000 7.983333 -422.468719 -312.062592 275862.875000
2.100000 2.000000 7.991666 1260.151611 223.065247 1637740.250000
2.100000 2.000000 8.000000 -275.985413 1560.024780 2509845.250000
2.100000 2.000000 8.008333 -836.279297 299.882812 789292.750000
2.100000 2.000000 8.016666 -706.582520 96.003204 508475.468750
2.100000 2.100000 7.983333 152.854004 -408.177948 189973.578125
2.100000 2.100000 7.991666 23.354706 778.085571 605962.562500
2.100000 2.100000 8.000000 -981.626770 -56.249897 966755.187500
2.100000 2.100000 8.008333 -241.722580 -515.085083 323742.468750
2.100000 2.100000 8.016666 -96.505470 -466.233673 226687.156250
2.100000 2.200000 7.983333 172.174561 -66.272354 34036.105469
2.100000 2.200000 7.991666 83.502914 75.835037 12723.689453
2.100000 2.200000 8.000000 68.273232 -14.134102 4861.007324
2.100000 2.200000 8.008333 122.520218 63.808571 19082.738281
2.100000 2.200000 8.016666 40.150318 104.596664 12552.509766
2.200000 1.800000 7.983333 -71.446655 -8.866249 5183.234863
2.200000 1.800000 7.991666 -10.906822 -98.107971 9744.132812
2.200000 1.800000 8.000000 17.888235 -13.004124 489.096191
2.200000 1.800000 8.008333 10.108137 -32.651367 1168.286255
2.200000 1.800000 8.016666 -15.654483 6.500875 287.324219
2.200000 1.900000 7.983333 70.997543 -50.000000 7540.651367
2.200000 1.900000 7.991666 64.538811 58.160812 7547.938477
2.200000 1.900000 8.000000 32.492790 31.980583 2078.539062
2.200000 1.900000 8.008333 -19.064049 60.370346 4008.016602
2.200000 1.900000 8.016666 13.106339 -30.698799 1114.192383
2.200000 2.000000 7.983333 82.197037 60.577408 10425.975586
2.200000 2.000000 7.991666 -89.304688 8.378113 8045.520020
2.200000 2.000000 8.000000 22.121620 14.999465 714.350037
2.200000 2.000000 8.008333 -72.024361 -32.476772 6242.249023
2.200000 2.000000 8.016666 46.776886 5.286457 2216.023682
2.200000 2.100000 7.983333 59.000698 84.041679 10544.085938
2.200000 2.100000 7.991666 38.000702 -46.939896 3647.407227
2.200000 2.100000 8.000000 74.027641 54.629066 8464.426758
2.200000 2.100000 8.008333 46.637276 19.640961 2560.802734
2.200000 2.100000 8.016666 10.639342 71.168594 5178.164551
2.200000 2.200000 7.983333 -23.037914 158.857727 25766.523438
2.200000 2.200000 7.991666 -27.817533 36.596176 2113.095215
2.200000 2.200000 8.000000 2.696114 130.749466 17102.691406
2.200000 2.200000 8.008333 -118.566833 90.109055 22177.734375
2.200000 2.200000 8.016666 -100.455719 2.551695 10097.862305
