#kx 	ky 	kz 	real 	imag 	intensity
7.800000 -4.200000 3.800000 -33.546196 19.059444 1488.609741
7.800000 -4.200000 3.840000 -35.893394 5.443087 1317.963013
7.800000 -4.200000 3.880000 -34.170952 -6.177539 1205.815918
7.800000 -4.200000 3.920000 -29.454998 -17.365398 1169.154053
7.800000 -4.200000 3.960000 -18.969398 -27.437202 1112.638184
7.800000 -4.200000 4.000000 -2.054382 -30.626213 942.185364
7.800000 -4.200000 4.040000 14.729048 -21.452951 677.173950
7.800000 -4.200000 4.080000 21.004992 -2.530043 447.610779
7.800000 -4.200000 4.120000 12.133964 14.980355 371.644104
7.800000 -4.200000 4.160000 -5.384506 20.208042 437.357880
7.800000 -4.200000 4.200000 -19.133411 12.087919 512.205200
7.800000 -4.160000 3.800000 -39.504715 -3.197220 1570.844727
7.800000 -4.160000 3.840000 -33.541172 -12.277393 1275.744629
7.800000 -4.160000 3.880000 -27.637135 -18.732386 1114.713501
7.800000 -4.160000 3.920000 -20.137720 -24.419605 1001.844910
7.800000 -4.160000 3.960000 -9.411930 -26.633070 797.904846
7.800000 -4.160000 4.000000 1.122574 -21.681290 471.338470
7.800000 -4.160000 4.040000 4.927337 -11.243748 150.700500
7.800000 -4.160000 4.080000 -0.339764 -2.938862 8.752348
7.800000 -4.160000 4.120000 -8.963409 -3.313600 91.322647
7.800000 -4.160000 4.160000 -12.116032 -10.755884 262.487244
7.800000 -4.160000 4.200000 -6.868253 -16.772923 328.503845
7.800000 -4.120000 3.800000 -28.218466 -24.013729 1372.940918
7.800000 -4.120000 3.840000 -19.107332 -24.171186 949.336426
7.800000 -4.120000 3.880000 -13.527563 -23.027401 713.256104
7.800000 -4.120000 3.920000 -9.190866 -21.556236 549.143372
7.800000 -4.120000 3.960000 -6.464994 -18.554930 386.081573
7.800000 -4.120000 4.000000 -7.714406 -15.652155 304.502014
7.800000 -4.120000 4.040000 -11.890875 -17.586739 450.686279
7.800000 -4.120000 4.080000 -12.465029 -26.194252 841.515808
7.800000 -4.120000 4.120000 -3.232716 -35.416935 1264.809692
7.800000 -4.120000 4.160000 13.460812 -35.066051 1410.821411
7.800000 -4.120000 4.200000 26.226908 -21.101730 1133.133789
7.800000 -4.080000 3.800000 -7.176567 -30.355614 972.966370
7.800000 -4.080000 3.840000 -1.801058 -22.192137 495.734741
7.800000 -4.080000 3.880000 -2.317757 -15.534123 246.680984
7.800000 -4.080000 3.920000 -6.805914 -11.873861 187.309052
7.800000 -4.080000 3.960000 -14.240629 -13.487041 384.695801
7.800000 -4.080000 4.000000 -20.381289 -23.659498 975.168762
7.800000 -4.080000 4.040000 -16.714069 -40.925560 1954.261597
7.800000 -4.080000 4.080000 2.522354 -54.819069 3011.492676
7.800000 -4.080000 4.120000 31.291969 -51.505524 3632.006104
7.800000 -4.080000 4.160000 52.217842 -26.730644 3441.230469
7.800000 -4.080000 4.200000 49.675270 6.840134 2514.419922
7.800000 -4.040000 3.800000 8.685393 -21.112268 521.163940
7.800000 -4.040000 3.840000 6.036029 -9.993041 136.294510
7.800000 -4.040000 3.880000 -2.927630 -4.299908 27.060226
7.800000 -4.040000 3.920000 -15.120199 -7.023504 277.950043
7.800000 -4.040000 3.960000 -24.591877 -21.114044 1050.563232
7.800000 -4.040000 4.000000 -21.234619 -44.254303 2409.352539
7.800000 -4.040000 4.040000 2.221828 -63.907166 4089.062256
7.800000 -4.040000 4.080000 39.545105 -62.543198 5475.466797
7.800000 -4.040000 4.120000 69.671616 -32.642349 5919.656738
7.800000 -4.040000 4.160000 70.916862 12.422278 5183.514160
7.800000 -4.040000 4.200000 40.086571 45.152412 3645.673340
7.800000 -4.000000 3.800000 10.640038 -7.536893 170.015167
7.800000 -4.000000 3.840000 0.970251 -0.047184 0.943614
7.800000 -4.000000 3.880000 -12.573559 -1.626009 160.738281
7.800000 -4.000000 3.920000 -24.008190 -14.997290 801.311890
7.800000 -4.000000 3.960000 -23.526337 -38.747704 2054.873047
7.800000 -4.000000 4.000000 -2.338914 -61.749260 3818.441650
7.800000 -4.000000 4.040000 36.434982 -65.504707 5618.374512
7.800000 -4.000000 4.080000 72.862503 -38.176193 6766.366211
7.800000 -4.000000 4.120000 81.443878 11.033201 6754.836914
7.800000 -4.000000 4.160000 52.350418 53.584122 5611.824219
7.800000 -4.000000 4.200000 2.906035 62.387650 3900.663818
7.800000 -3.960000 3.800000 3.097255 -1.862587 13.062222
7.800000 -3.960000 3.840000 -8.312888 -1.475302 71.280624
7.800000 -3.960000 3.880000 -18.816156 -11.141666 478.184448
7.800000 -3.960000 3.920000 -20.730410 -30.322395 1349.197510
7.800000 -3.960000 3.960000 -5.798284 -51.555920 2691.633057
7.800000 -3.960000 4.000000 26.690199 -59.528023 4255.952148
7.800000 -3.960000 4.040000 62.577477 -40.447845 5551.968750
7.800000 -3.960000 4.080000 77.952362 3.341339 6087.735352
7.800000 -3.960000 4.120000 57.425732 48.778351 5677.041992
7.800000 -3.960000 4.160000 10.205093 66.753815 4560.215820
7.800000 -3.960000 4.200000 -33.546593 45.946053 3236.413574
7.800000 -3.920000 3.800000 -2.634873 -6.266628 46.213184
7.800000 -3.920000 3.840000 -10.138484 -11.442546 233.720703
7.800000 -3.920000 3.880000 -12.368774 -23.592102 709.573853
7.800000 -3.920000 3.920000 -3.770239 -38.428558 1490.968872
7.800000 -3.920000 3.960000 17.895321 -46.414608 2474.558350
7.800000 -3.920000 4.000000 45.572598 -36.286827 3393.595215
7.800000 -3.920000 4.040000 62.445686 -5.181873 3926.315430
7.800000 -3.920000 4.080000 52.698162 33.533726 3901.606934
7.800000 -3.920000 4.120000 16.745708 55.983013 3414.516357
7.800000 -3.920000 4.160000 -24.559795 46.189163 2736.622314
7.800000 -3.920000 4.200000 -44.450832 11.264876 2102.773926
7.800000 -3.880000 3.800000 -0.229026 -13.053127 170.436584
7.800000 -3.880000 3.840000 -1.551313 -19.054119 365.466034
7.800000 -3.880000 3.880000 3.152723 -26.427643 708.359924
7.800000 -3.880000 3.920000 14.597643 -30.476469 1141.906372
7.800000 -3.880000 3.960000 30.058983 -25.576099 1557.679199
7.800000 -3.880000 4.000000 41.596889 -8.494726 1802.461670
7.800000 -3.880000 4.040000 38.958111 16.071543 1776.028809
7.800000 -3.880000 4.080000 18.242989 34.668339 1534.700317
7.800000 -3.880000 4.120000 -11.202539 33.749069 1264.496582
7.800000 -3.880000 4.160000 -31.056654 12.222553 1113.906494
7.800000 -3.880000 4.200000 -28.679768 -15.008959 1047.797852
7.800000 -3.840000 3.800000 6.783851 -14.468660 255.362762
7.800000 -3.840000 3.840000 9.795940 -17.171545 390.822418
7.800000 -3.840000 3.880000 15.271767 -16.868031 517.757324
7.800000 -3.840000 3.920000 20.525084 -12.724322 583.187439
7.800000 -3.840000 3.960000 23.326736 -5.200571 571.182617
7.800000 -3.840000 4.000000 21.356560 4.326736 474.823273
7.800000 -3.840000 4.040000 12.855341 12.247726 315.266602
7.800000 -3.840000 4.080000 -0.368732 13.195040 174.245041
7.800000 -3.840000 4.120000 -11.551111 4.499491 153.673599
7.800000 -3.840000 4.160000 -13.322558 -9.380527 265.484863
7.800000 -3.840000 4.200000 -5.060404 -18.875042 381.874908
7.800000 -3.800000 3.800000 11.078192 -10.652688 236.206085
7.800000 -3.800000 3.840000 14.883551 -9.168047 305.573181
7.800000 -3.800000 3.880000 16.044022 -4.234982 275.345703
7.800000 -3.800000 3.920000 12.717296 0.062963 161.733582
7.800000 -3.800000 3.960000 7.472598 0.420197 56.016277
7.800000 -3.800000 4.000000 4.006207 -2.686601 23.267513
7.800000 -3.800000 4.040000 3.631573 -6.464918 54.983482
7.800000 -3.800000 4.080000 5.213480 -8.872713 105.905411
7.800000 -3.800000 4.120000 7.211690 -9.512962 142.504929
7.800000 -3.800000 4.160000 8.494666 -8.621178 146.484070
7.800000 -3.800000 4.200000 7.751358 -6.931213 108.125267
7.840000 -4.200000 3.800000 -52.497601 11.713266 2893.198730
7.840000 -4.200000 3.840000 -52.559505 -9.057615 2844.541992
7.840000 -4.200000 3.880000 -42.731297 -27.692066 2592.814209
7.840000 -4.200000 3.920000 -24.701889 -39.342480 2158.014160
7.840000 -4.200000 3.960000 -2.916769 -39.556419 1573.217896
7.840000 -4.200000 4.000000 14.719250 -26.961622 943.585388
7.840000 -4.200000 4.040000 19.922934 -6.715538 442.021729
7.840000 -4.200000 4.080000 10.320827 10.292870 212.462646
7.840000 -4.200000 4.120000 -6.967058 14.383595 255.427689
7.840000 -4.200000 4.160000 -19.623125 4.947479 409.544586
7.840000 -4.200000 4.200000 -19.874166 -8.663435 470.037598
7.840000 -4.160000 3.800000 -46.716904 -21.691673 2652.997559
7.840000 -4.160000 3.840000 -34.644424 -33.347187 2312.270996
7.840000 -4.160000 3.880000 -18.789223 -38.600750 1843.052856
7.840000 -4.160000 3.920000 -2.653702 -35.307995 1253.696655
7.840000 -4.160000 3.960000 8.050926 -23.902718 636.157349
7.840000 -4.160000 4.000000 8.418759 -9.775648 166.438812
7.840000 -4.160000 4.040000 -0.761025 -1.495323 2.815150
7.840000 -4.160000 4.080000 -11.562122 -4.447037 153.458817
7.840000 -4.160000 4.120000 -14.272913 -15.365656 439.819427
7.840000 -4.160000 4.160000 -5.805807 -24.023743 610.847595
7.840000 -4.160000 4.200000 6.885747 -21.906971 527.328857
7.840000 -4.120000 3.800000 -17.952042 -40.387993 1953.465698
7.840000 -4.120000 3.840000 -3.205330 -35.530632 1272.699951
7.840000 -4.120000 3.880000 5.833414 -24.505749 634.560486
7.840000 -4.120000 3.920000 5.717102 -11.400084 162.647156
7.840000 -4.120000 3.960000 -3.788006 -3.321522 25.381496
7.840000 -4.120000 4.000000 -16.552855 -6.831612 320.667908
7.840000 -4.120000 4.040000 -21.837643 -21.637440 945.061401
7.840000 -4.120000 4.080000 -12.031130 -37.979523 1587.192139
7.840000 -4.120000 4.120000 9.606892 -42.433052 1892.856323
7.840000 -4.120000 4.160000 29.379488 -28.842861 1695.064941
7.840000 -4.120000 4.200000 33.255985 -4.733974 1128.371094
7.840000 -4.080000 3.800000 13.092140 -31.901348 1189.100098
7.840000 -4.080000 3.840000 17.456776 -12.603081 463.576660
7.840000 -4.080000 3.880000 7.594496 5.105221 83.739647
7.840000 -4.080000 3.920000 -13.673796 10.616661 299.686188
7.840000 -4.080000 3.960000 -34.606163 -3.331093 1208.682739
7.840000 -4.080000 4.000000 -39.099079 -32.483162 2583.893799
7.840000 -4.080000 4.040000 -18.410631 -59.573364 3887.937256
7.840000 -4.080000 4.080000 19.124401 -64.565628 4534.462891
7.840000 -4.080000 4.120000 51.015938 -40.454639 4239.204102
7.840000 -4.080000 4.160000 56.543156 -0.824120 3197.807617
7.840000 -4.080000 4.200000 33.148373 29.176102 1950.059570
7.840000 -4.040000 3.800000 24.686144 -6.283215 648.884521
7.840000 -4.040000 3.840000 11.057350 15.731352 369.740417
7.840000 -4.040000 3.880000 -17.788353 23.030157 846.813599
7.840000 -4.040000 3.920000 -47.681545 4.917461 2297.711182
7.840000 -4.040000 3.960000 -57.118122 -35.026531 4489.337891
7.840000 -4.040000 4.000000 -32.314648 -75.127197 6688.332031
7.840000 -4.040000 4.040000 18.408741 -87.437500 7984.198242
7.840000 -4.040000 4.080000 65.783203 -59.103210 7820.619141
7.840000 -4.040000 4.120000 79.493500 -5.233156 6346.602051
7.840000 -4.040000 4.160000 51.792671 40.298523 4306.451660
7.840000 -4.040000 4.200000 4.050496 50.353756 2551.907227
7.840000 -4.000000 3.800000 13.321271 13.883614 370.210999
7.840000 -4.000000 3.840000 -14.444178 24.915705 829.426636
7.840000 -4.000000 3.880000 -48.202225 10.496492 2433.630859
7.840000 -4.000000 3.920000 -64.931725 -30.775229 5163.243652
7.840000 -4.000000 3.960000 -44.894894 -79.263168 8298.201172
7.840000 -4.000000 4.000000 9.651615 -102.705276 10641.527344
7.840000 -4.000000 4.040000 69.527130 -79.660721 11179.852539
7.840000 -4.000000 4.080000 96.708786 -19.489811 9732.441406
7.840000 -4.000000 4.120000 73.509850 40.896641 7076.232910
7.840000 -4.000000 4.160000 17.705559 64.090736 4421.109375
7.840000 -4.000000 4.200000 -31.146572 40.980858 2649.539551
7.840000 -3.960000 3.800000 -5.248291 14.569183 239.805664
7.840000 -3.960000 3.840000 -34.491001 8.744503 1266.095459
7.840000 -3.960000 3.880000 -55.387833 -23.294777 3610.458496
7.840000 -3.960000 3.920000 -45.916508 -69.632645 6957.030762
7.840000 -3.960000 3.960000 0.194613 -101.107430 10222.750000
7.840000 -3.960000 4.000000 61.951797 -90.564499 12039.954102
7.840000 -3.960000 4.040000 101.271255 -36.604908 11595.786133
7.840000 -3.960000 4.080000 90.992805 30.191675 9191.227539
7.840000 -3.960000 4.120000 37.997612 67.927399 6057.949707
7.840000 -3.960000 4.160000 -20.474543 55.786499 3531.340332
7.840000 -3.960000 4.200000 -46.176041 9.951619 2231.261475
7.840000 -3.920000 3.800000 -12.889913 1.142377 167.454865
7.840000 -3.920000 3.840000 -31.692265 -15.904680 1257.358521
7.840000 -3.920000 3.880000 -32.346031 -49.547844 3501.254395
7.840000 -3.920000 3.920000 -3.181831 -80.154129 6434.808594
7.840000 -3.920000 3.960000 46.887520 -82.310959 8973.533203
7.840000 -3.920000 4.000000 88.989487 -45.276108 9969.054688
7.840000 -3.920000 4.040000 93.636505 13.874896 8960.307617
7.840000 -3.920000 4.080000 55.037346 59.116417 6523.860352
7.840000 -3.920000 4.120000 -1.444693 62.431744 3899.809814
7.840000 -3.920000 4.160000 -38.011803 26.498705 2147.078369
7.840000 -3.920000 4.200000 -34.482437 -17.853367 1507.781128
7.840000 -3.880000 3.800000 -5.621832 -10.369967 139.141205
7.840000 -3.880000 3.840000 -11.193817 -27.023212 855.555542
7.840000 -3.880000 3.880000 0.671821 -47.930374 2297.772217
7.840000 -3.880000 3.920000 30.322924 -56.224895 4080.718506
7.840000 -3.880000 3.960000 62.855911 -38.935429 5466.833008
7.840000 -3.880000 4.000000 75.989502 0.289085 5774.487793
7.840000 -3.880000 4.040000 57.167950 39.770191 4849.842773
7.840000 -3.880000 4.080000 16.022367 54.371513 3212.977783
7.840000 -3.880000 4.120000 -20.750496 35.743500 1708.180908
7.840000 -3.880000 4.160000 -30.136280 0.061108 908.199097
7.840000 -3.880000 4.200000 -11.491327 -25.257286 769.981079
7.840000 -3.840000 3.800000 6.229688 -10.432285 147.641586
7.840000 -3.840000 3.840000 7.352757 -18.654192 402.041931
7.840000 -3.840000 3.880000 17.518234 -25.001995 931.988281
7.840000 -3.840000 3.920000 33.105827 -21.562382 1560.932129
7.840000 -3.840000 3.960000 44.293137 -5.455227 1991.641479
7.840000 -3.840000 4.000000 41.174129 16.737854 1975.464722
7.840000 -3.840000 4.040000 22.419495 31.635483 1503.437500
7.840000 -3.840000 4.080000 -1.439476 29.010967 843.708313
7.840000 -3.840000 4.120000 -15.107435 11.093803 351.307068
7.840000 -3.840000 4.160000 -11.238329 -8.263775 194.590012
7.840000 -3.840000 4.200000 3.075232 -15.434793 247.689865
7.840000 -3.800000 3.800000 11.701452 -3.183670 147.059738
7.840000 -3.800000 3.840000 10.988679 -3.597164 133.690659
7.840000 -3.800000 3.880000 11.659240 -4.488702 156.086304
7.840000 -3.800000 3.920000 14.020555 -4.394154 215.884552
7.840000 -3.800000 3.960000 16.637665 -1.611134 279.407654
7.840000 -3.800000 4.000000 16.598688 3.506634 287.812927
7.840000 -3.800000 4.040000 12.381767 7.768496 213.657684
7.840000 -3.800000 4.080000 6.100201 7.834501 98.591858
7.840000 -3.800000 4.120000 1.855346 3.769447 17.651041
7.840000 -3.800000 4.160000 1.478554 -0.971804 3.130524
7.840000 -3.800000 4.200000 2.826301 -3.705271 21.717007
7.880000 -4.200000 3.800000 -63.091377 -15.170756 4210.673828
7.880000 -4.200000 3.840000 -52.757938 -39.743645 4362.957520
7.880000 -4.200000 3.880000 -29.522079 -55.240505 3923.066650
7.880000 -4.200000 3.920000 -1.637613 -54.626770 2986.765869
7.880000 -4.200000 3.960000 19.249897 -38.100471 1822.204346
7.880000 -4.200000 4.000000 24.174576 -14.213839 786.443298
7.880000 -4.200000 4.040000 12.663523 4.024780 176.563660
7.880000 -4.200000 4.080000 -5.887028 6.976032 83.322128
7.880000 -4.200000 4.120000 -17.820835 -4.699342 339.665955
7.880000 -4.200000 4.160000 -14.967055 -20.038616 625.558899
7.880000 -4.200000 4.200000 -1.032774 -26.003071 677.226318
7.880000 -4.160000 3.800000 -35.702126 -46.687611 3454.374512
7.880000 -4.160000 3.840000 -15.178827 -53.396816 3081.616699
7.880000 -4.160000 3.880000 6.389290 -47.370991 2284.833740
7.880000 -4.160000 3.920000 19.444332 -29.932804 1274.054810
7.880000 -4.160000 3.960000 17.576881 -10.003803 409.022827
7.880000 -4.160000 4.000000 3.275671 0.626095 11.122018
7.880000 -4.160000 4.040000 -12.234375 -4.325542 168.390244
7.880000 -4.160000 4.080000 -16.386335 -20.069878 671.312012
7.880000 -4.160000 4.120000 -4.918600 -33.384850 1138.740845
7.880000 -4.160000 4.160000 14.153605 -32.527813 1258.383179
7.880000 -4.160000 4.200000 26.383854 -16.774700 977.498291
7.880000 -4.120000 3.800000 6.082403 -46.254444 2176.469238
7.880000 -4.120000 3.840000 20.061760 -30.420382 1327.873779
7.880000 -4.120000 3.880000 20.520889 -8.624699 495.492340
7.880000 -4.120000 3.920000 5.025143 7.129669 76.084244
7.880000 -4.120000 3.960000 -17.701036 5.360989 342.066895
7.880000 -4.120000 4.000000 -31.441711 -14.908268 1210.837646
7.880000 -4.120000 4.040000 -23.975948 -40.828495 2241.812012
7.880000 -4.120000 4.080000 2.488129 -53.688217 2888.615234
7.880000 -4.120000 4.120000 31.502762 -42.890335 2832.004883
7.880000 -4.120000 4.160000 44.126633 -14.535578 2158.442627
7.880000 -4.120000 4.200000 33.117012 12.947727 1264.380127
7.880000 -4.080000 3.800000 30.787603 -15.373499 1184.220947
7.880000 -4.080000 3.840000 21.892700 12.415699 633.439880
7.880000 -4.080000 3.880000 -7.535034 28.000874 840.825684
7.880000 -4.080000 3.920000 -43.337624 16.055485 2135.928223
7.880000 -4.080000 3.960000 -61.052887 -22.439117 4230.969238
7.880000 -4.080000 4.000000 -43.825294 -65.770340 6246.394531
7.880000 -4.080000 4.040000 2.029591 -84.859634 7205.276855
7.880000 -4.080000 4.080000 48.847862 -65.327744 6653.827148
7.880000 -4.080000 4.120000 67.489105 -19.559326 4937.346680
7.880000 -4.080000 4.160000 49.190598 22.479706 2925.052002
7.880000 -4.080000 4.200000 10.967880 36.193439 1430.259521
7.880000 -4.040000 3.800000 22.288338 19.267805 868.018311
7.880000 -4.040000 3.840000 -12.380282 38.345833 1623.674316
7.880000 -4.040000 3.880000 -58.717560 24.967813 4071.143555
7.880000 -4.040000 3.920000 -85.911064 -24.878716 7999.661621
7.880000 -4.040000 3.960000 -67.630966 -86.502045 12056.550781
7.880000 -4.040000 4.000000 -6.468445 -119.797249 14393.221680
7.880000 -4.040000 4.040000 62.576241 -99.626938 13841.312500
7.880000 -4.040000 4.080000 96.435127 -37.599514 10713.457031
7.880000 -4.040000 4.120000 77.018372 25.449417 6579.502441
7.880000 -4.040000 4.160000 24.339355 51.104507 3204.074951
7.880000 -4.040000 4.200000 -21.586929 31.912243 1484.386719
7.880000 -4.000000 3.800000 -6.597652 30.662226 983.701050
7.880000 -4.000000 3.840000 -52.837631 24.972635 3415.447754
7.880000 -4.000000 3.880000 -88.817131 -21.709557 8359.788086
7.880000 -4.000000 3.920000 -79.874832 -91.673447 14784.009766
7.880000 -4.000000 3.960000 -17.056374 -141.008942 20174.441406
7.880000 -4.000000 4.000000 68.048065 -131.557739 21937.978516
7.880000 -4.000000 4.040000 122.671417 -63.993473 19143.441406
7.880000 -4.000000 4.080000 113.410202 18.953312 13221.101562
7.880000 -4.000000 4.120000 52.898315 64.880585 7007.721680
7.880000 -4.000000 4.160000 -11.635913 52.399269 2881.077881
7.880000 -4.000000 4.200000 -37.676220 4.493361 1439.687866
7.880000 -3.960000 3.800000 -28.249786 15.215509 1029.562134
7.880000 -3.960000 3.840000 -64.986801 -14.728877 4440.224121
7.880000 -3.960000 3.880000 -70.066696 -76.043839 10692.007812
7.880000 -3.960000 3.920000 -21.985800 -132.921066 18151.384766
7.880000 -3.960000 3.960000 62.102081 -140.831665 23690.226562
7.880000 -3.960000 4.000000 132.096954 -84.197258 24538.783203
7.880000 -3.960000 4.040000 142.015244 5.671235 20200.492188
7.880000 -3.960000 4.080000 87.801231 71.973808 12889.285156
7.880000 -3.960000 4.120000 11.295588 76.953888 6049.491211
7.880000 -3.960000 4.160000 -34.414864 30.511705 2115.346924
7.880000 -3.960000 4.200000 -27.339273 -22.241755 1242.131470
7.880000 -3.920000 3.800000 -26.665724 -7.550529 768.071350
7.880000 -3.920000 3.840000 -41.684776 -46.142990 3866.796143
7.880000 -3.920000 3.880000 -17.675701 -95.578629 9447.705078
7.880000 -3.920000 3.920000 46.018883 -117.331589 15884.439453
7.880000 -3.920000 3.960000 115.148438 -84.253326 20357.785156
7.880000 -3.920000 4.000000 143.202713 -7.647083 20565.496094
7.880000 -3.920000 4.040000 109.253754 66.412994 16347.068359
7.880000 -3.920000 4.080000 37.227253 92.130692 9873.932617
7.880000 -3.920000 4.120000 -22.618586 60.638481 4188.625977
7.880000 -3.920000 4.160000 -34.640099 5.299730 1228.023560
7.880000 -3.920000 4.200000 -4.506035 -28.895542 855.256653
7.880000 -3.880000 3.800000 -9.410017 -16.674986 366.603577
7.880000 -3.880000 3.840000 -6.856364 -46.652637 2223.478271
7.880000 -3.880000 3.880000 26.140488 -70.808929 5697.229492
7.880000 -3.880000 3.920000 76.316040 -62.310387 9706.722656
7.880000 -3.880000 3.960000 110.530319 -14.915321 12439.417969
7.880000 -3.880000 4.000000 101.343536 46.830200 12463.580078
7.880000 -3.880000 4.040000 51.522564 84.168007 9738.828125
7.880000 -3.880000 4.080000 -5.880417 75.202026 5689.923828
7.880000 -3.880000 4.120000 -33.965843 32.875423 2234.471924
7.880000 -3.880000 4.160000 -21.803360 -7.079300 525.502991
7.880000 -3.880000 4.200000 9.350578 -17.276299 385.903809
7.880000 -3.840000 3.800000 4.627337 -8.992321 102.274086
7.880000 -3.840000 3.840000 10.893616 -24.394850 713.779541
7.880000 -3.840000 3.880000 33.369205 -30.429722 2039.471924
7.880000 -3.840000 3.920000 58.588142 -14.513573 3643.214111
7.880000 -3.840000 3.960000 66.281540 19.568619 4776.173340
7.880000 -3.840000 4.000000 46.499542 51.724499 4837.631348
7.880000 -3.840000 4.040000 9.794724 60.808174 3793.570557
7.880000 -3.840000 4.080000 -20.173607 42.450470 2209.016846
7.880000 -3.840000 4.120000 -26.157711 12.813175 848.403320
7.880000 -3.840000 4.160000 -11.186543 -5.887076 159.796402
7.880000 -3.840000 4.200000 6.218040 -4.614148 59.954380
7.880000 -3.800000 3.800000 5.832822 2.643111 41.007847
7.880000 -3.800000 3.840000 5.591870 -4.758046 53.908020
7.880000 -3.800000 3.880000 13.652573 -9.044815 268.201416
7.880000 -3.800000 3.920000 24.196629 -3.737850 599.448303
7.880000 -3.800000 3.960000 27.811916 10.120544 875.928101
7.880000 -3.800000 4.000000 19.566296 23.776396 948.156982
7.880000 -3.800000 4.040000 3.786621 27.849443 789.929993
7.880000 -3.800000 4.080000 -9.533588 20.394779 506.836334
7.880000 -3.800000 4.120000 -13.487936 8.007729 246.048141
7.880000 -3.800000 4.160000 -9.504232 -0.999164 91.328766
7.880000 -3.800000 4.200000 -4.047202 -4.119240 33.347980
7.920000 -4.200000 3.800000 -47.816360 -47.782410 4569.562988
7.920000 -4.200000 3.840000 -24.985634 -65.352119 4895.181152
7.920000 -4.200000 3.880000 5.183599 -66.004723 4383.493164
7.920000 -4.200000 3.920000 29.007359 -48.387672 3182.793945
7.920000 -4.200000 3.960000 35.471733 -21.695690 1728.946899
7.920000 -4.200000 4.000000 23.462049 -0.647160 550.886597
7.920000 -4.200000 4.040000 3.102732 3.643463 22.901768
7.920000 -4.200000 4.080000 -10.405758 -8.755878 184.945206
7.920000 -4.200000 4.120000 -7.135561 -26.178635 736.237183
7.920000 -4.200000 4.160000 10.133291 -33.444653 1221.228394
7.920000 -4.200000 4.200000 27.599621 -23.330114 1306.033325
7.920000 -4.160000 3.800000 -4.505321 -58.444481 3436.055176
7.920000 -4.160000 3.840000 18.285082 -52.591972 3100.259766
7.920000 -4.160000 3.880000 33.168587 -33.034718 2191.447754
7.920000 -4.160000 3.920000 31.283077 -9.179832 1062.900269
7.920000 -4.160000 3.960000 14.064641 4.935337 222.171692
7.920000 -4.160000 4.000000 -6.179806 0.700932 38.681305
7.920000 -4.160000 4.040000 -14.247295 -17.964956 525.725098
7.920000 -4.160000 4.080000 -3.109863 -36.430527 1336.854492
7.920000 -4.160000 4.120000 20.309971 -39.566818 1978.027954
7.920000 -4.160000 4.160000 39.612854 -23.015537 2098.893066
7.920000 -4.160000 4.200000 40.881126 3.157923 1681.239014
7.920000 -4.120000 3.800000 30.643831 -31.129335 1908.079834
7.920000 -4.120000 3.840000 33.447357 -6.662989 1163.121094
7.920000 -4.120000 3.880000 16.908512 14.746250 503.349670
7.920000 -4.120000 3.920000 -11.966494 17.246784 440.648560
7.920000 -4.120000 3.960000 -34.250679 -4.311661 1191.699463
7.920000 -4.120000 4.000000 -32.508774 -37.597813 2470.416016
7.920000 -4.120000 4.040000 -4.954597 -60.123623 3639.398193
7.920000 -4.120000 4.080000 31.874886 -55.613224 4108.838867
7.920000 -4.120000 4.120000 54.782764 -26.208673 3688.045898
7.920000 -4.120000 4.160000 50.650406 9.388948 2653.615967
7.920000 -4.120000 4.200000 24.968704 29.965343 1521.358032
7.920000 -4.080000 3.800000 30.236050 11.608812 1048.983154
7.920000 -4.080000 3.840000 2.477386 34.047493 1165.369263
7.920000 -4.080000 3.880000 -40.197922 29.152710 2465.753418
7.920000 -4.080000 3.920000 -70.378487 -10.335670 5059.957520
7.920000 -4.080000 3.960000 -62.163578 -65.124924 8105.566406
7.920000 -4.080000 4.000000 -14.169609 -100.000305 10200.838867
7.920000 -4.080000 4.040000 45.846786 -90.451233 10283.353516
7.920000 -4.080000 4.080000 80.801987 -42.529099 8337.685547
7.920000 -4.080000 4.120000 72.284248 11.819809 5364.720703
7.920000 -4.080000 4.160000 32.840233 39.888756 2669.593750
7.920000 -4.080000 4.200000 -6.844715 31.853054 1061.467163
7.920000 -4.040000 3.800000 -2.083321 34.751709 1212.021484
7.920000 -4.040000 3.840000 -50.881165 32.013885 3613.781738
7.920000 -4.040000 3.880000 -91.572540 -14.123451 8585.001953
7.920000 -4.040000 3.920000 -86.914673 -86.731972 15076.595703
7.920000 -4.040000 3.960000 -26.162952 -140.617889 20457.890625
7.920000 -4.040000 4.000000 59.375702 -136.118820 22053.808594
7.920000 -4.040000 4.040000 116.848579 -72.990860 18981.255859
7.920000 -4.040000 4.080000 112.897781 7.255768 12798.555664
7.920000 -4.040000 4.120000 59.139137 54.132347 6427.748535
7.920000 -4.040000 4.160000 -0.228221 47.208282 2228.673828
7.920000 -4.040000 4.200000 -26.170494 7.359385 739.055298
7.920000 -4.000000 3.800000 -36.077595 22.776739 1820.372803
7.920000 -4.000000 3.840000 -81.377594 -13.091743 6793.706543
7.920000 -4.000000 3.880000 -89.113220 -87.315819 15565.218750
7.920000 -4.000000 3.920000 -33.083076 -156.728333 25658.259766
7.920000 -4.000000 3.960000 65.761208 -168.246124 32631.294922
7.920000 -4.000000 4.000000 148.024338 -104.548172 32841.523438
7.920000 -4.000000 4.040000 161.355026 -3.298283 26046.324219
7.920000 -4.000000 4.080000 103.285629 70.782120 15678.029297
7.920000 -4.000000 4.120000 22.103001 77.592926 6509.204590
7.920000 -4.000000 4.160000 -25.004276 30.785063 1572.933838
7.920000 -4.000000 4.200000 -17.625092 -20.336037 724.198242
7.920000 -3.960000 3.800000 -44.152912 -8.180126 2016.394043
7.920000 -3.960000 3.840000 -64.452827 -63.756119 8219.009766
7.920000 -3.960000 3.880000 -29.862469 -133.585327 18736.806641
7.920000 -3.960000 3.920000 59.217247 -163.584351 30266.521484
7.920000 -3.960000 3.960000 153.731659 -117.809425 37512.484375
7.920000 -3.960000 4.000000 190.665833 -14.900023 36575.472656
7.920000 -3.960000 4.040000 145.472321 81.393112 27787.035156
7.920000 -3.960000 4.080000 53.926018 112.732697 15616.676758
7.920000 -3.960000 4.120000 -18.094921 72.831741 5631.888672
7.920000 -3.960000 4.160000 -29.446262 7.948339 930.258484
7.920000 -3.960000 4.200000 6.994173 -27.195700 788.524536
7.920000 -3.920000 3.800000 -25.606981 -28.821424 1486.391968
7.920000 -3.920000 3.840000 -17.792002 -80.633492 6818.314941
7.920000 -3.920000 3.880000 40.641647 -119.693382 15978.249023
7.920000 -3.920000 3.920000 124.508614 -102.231804 25953.736328
7.920000 -3.920000 3.960000 177.691376 -22.180607 32066.203125
7.920000 -3.920000 4.000000 158.778015 76.005241 30987.255859
7.920000 -3.920000 4.040000 78.641472 130.287857 23159.406250
7.920000 -3.920000 4.080000 -6.656750 112.068527 12603.666992
7.920000 -3.920000 4.120000 -42.764294 48.430199 4174.269043
7.920000 -3.920000 4.160000 -20.674627 -4.623268 448.814819
7.920000 -3.920000 4.200000 22.288034 -11.624996 631.896973
7.920000 -3.880000 3.800000 -2.660612 -25.262487 645.272156
7.920000 -3.880000 3.840000 18.771027 -58.254002 3745.880371
7.920000 -3.880000 3.880000 72.111420 -64.925743 9415.408203
7.920000 -3.880000 3.920000 123.502388 -22.811119 15773.187500
7.920000 -3.880000 3.960000 130.874756 51.962471 19828.298828
7.920000 -3.880000 4.000000 81.539032 112.880386 19390.595703
7.920000 -3.880000 4.040000 6.258171 120.807739 14633.674805
7.920000 -3.880000 4.080000 -45.468002 77.216438 8029.717773
7.920000 -3.880000 4.120000 -46.871597 21.427439 2656.081543
7.920000 -3.880000 4.160000 -13.619619 -5.213327 212.672821
7.920000 -3.880000 4.200000 15.321634 6.181286 272.960754
7.920000 -3.840000 3.800000 4.681564 -8.555040 95.105759
7.920000 -3.840000 3.840000 22.516336 -24.873096 1125.656250
7.920000 -3.840000 3.880000 55.029369 -17.920544 3349.377441
7.920000 -3.840000 3.920000 75.482368 18.577087 6042.696289
7.920000 -3.840000 3.960000 61.684181 64.517944 7967.502930
7.920000 -3.840000 4.000000 17.336201 88.485985 8130.313477
7.920000 -3.840000 4.040000 -29.367558 74.754623 6450.707520
7.920000 -3.840000 4.080000 -49.680687 36.771740 3820.331543
7.920000 -3.840000 4.120000 -38.297920 4.102570 1483.561768
7.920000 -3.840000 4.160000 -14.875854 -4.106278 238.152573
7.920000 -3.840000 4.200000 -3.029013 6.496489 51.379288
7.920000 -3.800000 3.800000 -2.923074 1.803786 11.798005
7.920000 -3.800000 3.840000 5.337248 -9.869871 125.900574
7.920000 -3.800000 3.880000 22.301411 -7.825054 558.584351
7.920000 -3.800000 3.920000 32.290104 10.411388 1151.047729
7.920000 -3.800000 3.960000 23.977833 32.821278 1652.172607
7.920000 -3.800000 4.000000 0.756332 43.053722 1854.195068
7.920000 -3.800000 4.040000 -22.461231 34.525620 1696.525391
7.920000 -3.800000 4.080000 -32.529335 14.980698 1282.578857
7.920000 -3.800000 4.120000 -28.309992 -2.081508 805.788330
7.920000 -3.800000 4.160000 -18.600079 -9.561707 437.389160
7.920000 -3.800000 4.200000 -11.610878 -10.422117 243.433014
7.960000 -4.200000 3.800000 -9.119197 -60.173046 3703.955078
7.960000 -4.200000 3.840000 17.167843 -61.360741 4059.875244
7.960000 -4.200000 3.880000 39.303871 -45.777603 3640.383301
7.960000 -4.200000 3.920000 46.444710 -20.694618 2585.378418
7.960000 -4.200000 3.960000 36.218025 0.730019 1312.278320
7.960000 -4.200000 4.000000 16.587929 7.442776 330.554291
7.960000 -4.200000 4.040000 1.335205 -2.415693 7.618347
7.960000 -4.200000 4.080000 1.410126 -19.689444 389.662659
7.960000 -4.200000 4.120000 17.137890 -29.635460 1171.967773
7.960000 -4.200000 4.160000 37.009075 -22.123285 1859.111328
7.960000 -4.200000 4.200000 45.257126 0.203295 2048.248779
7.960000 -4.160000 3.800000 28.867912 -42.233112 2616.992188
7.960000 -4.160000 3.840000 42.378563 -24.538506 2398.080811
7.960000 -4.160000 3.880000 40.690670 -1.472733 1657.899536
7.960000 -4.160000 3.920000 23.701687 13.517742 744.499329
7.960000 -4.160000 3.960000 2.163505 11.049011 126.761406
7.960000 -4.160000 4.000000 -9.125309 -6.917957 131.129395
7.960000 -4.160000 4.040000 -1.486454 -27.563700 761.967102
7.960000 -4.160000 4.080000 21.188782 -35.382217 1700.865845
7.960000 -4.160000 4.120000 44.311989 -22.709124 2479.256592
7.960000 -4.160000 4.160000 52.031990 4.516183 2727.723877
7.960000 -4.160000 4.200000 38.157230 30.147678 2364.856689
7.960000 -4.120000 3.800000 36.971336 -0.666788 1367.324341
7.960000 -4.120000 3.840000 23.659760 21.160362 1007.545166
7.960000 -4.120000 3.880000 -4.996729 27.342590 772.584534
7.960000 -4.120000 3.920000 -31.490458 8.564339 1064.996826
7.960000 -4.120000 3.960000 -35.823154 -26.453617 1983.092285
7.960000 -4.120000 4.000000 -11.651039 -55.394917 3204.343506
7.960000 -4.120000 4.040000 27.636532 -58.391365 4173.329590
7.960000 -4.120000 4.080000 58.144836 -32.599762 4443.566406
7.960000 -4.120000 4.120000 62.348740 6.222748 3926.087891
7.960000 -4.120000 4.160000 40.379852 35.543365 2893.863281
7.960000 -4.120000 4.200000 7.964940 41.413803 1778.543335
7.960000 -4.080000 3.800000 8.433116 29.691324 952.692139
7.960000 -4.080000 3.840000 -29.313862 32.522953 1917.044922
7.960000 -4.080000 3.880000 -64.501564 1.073994 4161.604980
7.960000 -4.080000 3.920000 -66.929092 -54.177334 7414.687012
7.960000 -4.080000 3.960000 -25.326675 -99.329330 10507.755859
7.960000 -4.080000 4.000000 39.324356 -102.320374 12015.864258
7.960000 -4.080000 4.040000 87.670364 -59.217449 11192.798828
7.960000 -4.080000 4.080000 91.965424 2.081741 8461.972656
7.960000 -4.080000 4.120000 56.165298 44.029606 5093.146973
7.960000 -4.080000 4.160000 9.607814 47.623810 2360.337402
7.960000 -4.080000 4.200000 -18.112190 22.790213 847.445190
7.960000 -4.040000 3.800000 -31.265356 24.202633 1563.289917
7.960000 -4.040000 3.840000 -72.657608 -6.305439 5318.886719
7.960000 -4.040000 3.880000 -81.868729 -72.133682 11905.756836
7.960000 -4.040000 3.920000 -34.306812 -135.464264 19527.523438
7.960000 -4.040000 3.960000 52.659702 -148.731232 24894.023438
7.960000 -4.040000 4.000000 127.117973 -95.451065 25269.886719
7.960000 -4.040000 4.040000 142.624481 -7.366581 20396.007812
7.960000 -4.040000 4.080000 95.581085 59.744518 12705.151367
7.960000 -4.040000 4.120000 26.106075 70.501694 5652.016113
7.960000 -4.040000 4.160000 -17.417376 34.740730 1510.283325
7.960000 -4.040000 4.200000 -16.647358 -7.519916 333.683655
7.960000 -4.000000 3.800000 -48.467796 -9.201550 2433.795654
7.960000 -4.000000 3.840000 -68.269211 -66.311142 9057.852539
7.960000 -4.000000 3.880000 -32.284668 -137.628174 19983.812500
7.960000 -4.000000 3.920000 58.885487 -168.021088 31698.585938
7.960000 -4.000000 3.960000 154.985474 -121.426468 38764.882812
7.960000 -4.000000 4.000000 192.483704 -17.582523 37359.121094
7.960000 -4.000000 4.040000 147.741028 78.985077 28066.054688
7.960000 -4.000000 4.080000 57.551907 110.777733 15583.927734
7.960000 -4.000000 4.120000 -12.918447 73.018570 5498.597656
7.960000 -4.000000 4.160000 -24.692425 11.901106 751.352173
7.960000 -4.000000 4.200000 8.084330 -20.267082 476.110992
7.960000 -3.960000 3.800000 -32.508377 -39.332848 2603.867432
7.960000 -3.960000 3.840000 -19.763458 -99.902153 10371.035156
7.960000 -3.960000 3.880000 51.343613 -143.271149 23162.787109
7.960000 -3.960000 3.920000 149.570099 -119.268875 36596.281250
7.960000 -3.960000 3.960000 208.946198 -23.545877 44212.921875
7.960000 -3.960000 4.000000 183.578064 89.751640 41756.261719
7.960000 -3.960000 4.040000 89.829292 149.248611 30344.449219
7.960000 -3.960000 4.080000 -5.781147 125.679611 15828.786133
7.960000 -3.960000 4.120000 -43.102905 53.972481 4770.889160
7.960000 -3.960000 4.160000 -16.518467 -1.706757 275.772766
7.960000 -3.960000 4.200000 28.777773 -5.034098 853.502380
7.960000 -3.920000 3.800000 -3.031908 -42.609604 1824.770874
7.960000 -3.920000 3.840000 32.312759 -85.111679 8288.112305
7.960000 -3.920000 3.880000 107.921776 -87.727219 19343.173828
7.960000 -3.920000 3.920000 174.874252 -23.463467 31131.539062
7.960000 -3.920000 3.960000 177.351746 80.363617 37911.953125
7.960000 -3.920000 4.000000 104.006973 158.270096 35866.875000
7.960000 -3.920000 4.040000 2.261835 161.041595 25939.509766
7.960000 -3.920000 4.080000 -60.877975 97.924469 13295.329102
7.960000 -3.920000 4.120000 -55.470261 26.148064 3760.670898
7.960000 -3.920000 4.160000 -9.506715 -1.541157 92.752792
7.960000 -3.920000 4.200000 23.422964 19.565712 931.452332
7.960000 -3.880000 3.800000 12.424253 -23.685066 715.344421
7.960000 -3.880000 3.840000 50.394855 -43.093521 4396.692871
7.960000 -3.880000 3.880000 104.441711 -19.060963 11271.391602
7.960000 -3.880000 3.920000 128.243164 50.408611 18987.335938
7.960000 -3.880000 3.960000 91.294464 124.450676 23822.648438
7.960000 -3.880000 4.000000 10.362415 151.646133 23103.927734
7.960000 -3.880000 4.040000 -61.893021 115.390045 17145.609375
7.960000 -3.880000 4.080000 -82.188576 48.386623 9096.227539
7.960000 -3.880000 4.120000 -52.595749 2.008980 2770.348633
7.960000 -3.880000 4.160000 -13.419418 0.755107 180.650986
7.960000 -3.880000 4.200000 -2.361712 25.636257 662.795349
7.960000 -3.840000 3.800000 5.710585 -6.105079 69.882767
7.960000 -3.840000 3.840000 33.390663 -12.792662 1278.588623
7.960000 -3.840000 3.880000 61.956451 13.547272 4022.130371
7.960000 -3.840000 3.920000 59.835533 62.093941 7435.948242
7.960000 -3.840000 3.960000 18.067337 98.145828 9959.032227
7.960000 -3.840000 4.000000 -38.820107 93.673203 10281.669922
7.960000 -3.840000 4.040000 -73.757835 52.869705 8235.423828
7.960000 -3.840000 4.080000 -69.812286 7.395393 4928.447266
7.960000 -3.840000 4.120000 -42.593460 -13.394981 1993.628418
7.960000 -3.840000 4.160000 -21.706255 -7.235899 523.519714
7.960000 -3.840000 4.200000 -21.802608 4.621614 496.713043
7.960000 -3.800000 3.800000 -7.821537 -5.542591 91.896759
7.960000 -3.800000 3.840000 10.682022 -11.608669 248.866791
7.960000 -3.800000 3.880000 27.301044 3.933493 760.819397
7.960000 -3.800000 3.920000 23.651344 30.579987 1494.521729
7.960000 -3.800000 3.960000 -1.634972 46.879574 2200.367432
7.960000 -3.800000 4.000000 -31.857113 39.870560 2604.537109
7.960000 -3.800000 4.040000 -47.983482 15.573425 2544.946045
7.960000 -3.800000 4.080000 -44.736313 -8.868187 2079.982422
7.960000 -3.800000 4.120000 -31.667988 -21.649742 1471.572754
7.960000 -3.800000 4.160000 -20.619434 -24.247898 1013.121643
7.960000 -3.800000 4.200000 -14.541603 -24.745577 823.801758
8.000000 -4.200000 3.800000 27.303442 -38.492702 2227.166016
8.000000 -4.200000 3.840000 42.553776 -25.394037 2455.680908
8.000000 -4.200000 3.880000 46.240875 -6.040414 2174.705078
8.000000 -4.200000 3.920000 37.590488 10.017788 1513.400879
8.000000 -4.200000 3.960000 22.375227 15.672539 746.279236
8.000000 -4.200000 4.000000 9.453018 9.523003 180.047119
8.000000 -4.200000 4.040000 6.560719 -3.467852 55.069023
8.000000 -4.200000 4.080000 16.132107 -13.756964 449.498901
8.000000 -4.200000 4.120000 32.579521 -11.994121 1205.284058
8.000000 -4.200000 4.160000 43.982857 4.292071 1952.913574
8.000000 -4.200000 4.200000 39.577465 26.869762 2288.359863
8.000000 -4.160000 3.800000 39.444649 -5.377245 1584.795166
8.000000 -4.160000 3.840000 36.648155 13.298784 1519.944946
8.000000 -4.160000 3.880000 21.109644 24.927500 1066.997314
8.000000 -4.160000 3.920000 2.221011 21.870335 483.244415
8.000000 -4.160000 3.960000 -8.051075 6.159393 102.757935
8.000000 -4.160000 4.000000 -3.032421 -12.145007 156.696777
8.000000 -4.160000 4.040000 14.879700 -21.222712 671.808960
8.000000 -4.160000 4.080000 35.637596 -14.116165 1469.304321
8.000000 -4.160000 4.120000 46.750847 7.273914 2238.551514
8.000000 -4.160000 4.160000 40.121212 32.444851 2662.379883
8.000000 -4.160000 4.200000 17.461208 47.500046 2561.148193
8.000000 -4.120000 3.800000 18.268265 24.569223 937.376221
8.000000 -4.120000 3.840000 -4.681993 32.045330 1048.824219
8.000000 -4.120000 3.880000 -29.525682 17.881420 1191.511108
8.000000 -4.120000 3.920000 -36.945316 -13.467194 1546.321777
8.000000 -4.120000 3.960000 -18.006329 -42.859749 2161.186035
8.000000 -4.120000 4.000000 17.922813 -50.597244 2881.308350
8.000000 -4.120000 4.040000 49.768814 -30.902985 3431.929199
8.000000 -4.120000 4.080000 59.664207 4.687172 3581.787109
8.000000 -4.120000 4.120000 44.141258 36.325172 3267.968750
8.000000 -4.120000 4.160000 14.259408 49.042519 2608.499512
8.000000 -4.120000 4.200000 -13.329527 40.520676 1819.601440
8.000000 -4.080000 3.800000 -19.231495 24.339783 962.275452
8.000000 -4.080000 3.840000 -49.235935 6.040543 2460.665283
8.000000 -4.080000 3.880000 -58.736420 -38.123016 4903.331543
8.000000 -4.080000 3.920000 -29.457756 -82.885246 7737.723145
8.000000 -4.080000 3.960000 28.405277 -95.442932 9916.212891
8.000000 -4.080000 4.000000 80.847710 -62.928905 10496.399414
8.000000 -4.080000 4.040000 96.001358 -4.141426 9233.412109
8.000000 -4.080000 4.080000 68.493942 45.091866 6724.696289
8.000000 -4.080000 4.120000 21.302349 59.545395 3999.444092
8.000000 -4.080000 4.160000 -14.723028 41.073669 1903.813843
8.000000 -4.080000 4.200000 -24.215576 11.714550 723.624756
8.000000 -4.040000 3.800000 -40.702995 -6.305573 1696.494141
8.000000 -4.040000 3.840000 -56.279022 -49.992714 5666.599609
8.000000 -4.040000 3.880000 -28.933468 -105.496994 11966.761719
8.000000 -4.040000 3.920000 41.635372 -129.908966 18609.843750
8.000000 -4.040000 3.960000 116.920280 -94.719276 22642.093750
8.000000 -4.040000 4.000000 147.701508 -14.365479 22022.101562
8.000000 -4.040000 4.040000 114.870636 62.044903 17044.832031
8.000000 -4.040000 4.080000 45.281521 89.994980 10149.511719
8.000000 -4.040000 4.120000 -12.020599 64.156342 4260.530762
8.000000 -4.040000 4.160000 -26.447319 17.682177 1012.120056
8.000000 -4.040000 4.200000 -6.312444 -10.504971 150.201355
8.000000 -4.000000 3.800000 -28.767101 -40.351234 2455.768311
8.000000 -4.000000 3.840000 -15.613718 -92.338791 8770.240234
8.000000 -4.000000 3.880000 48.042282 -128.642609 18856.980469
8.000000 -4.000000 3.920000 134.522827 -105.444855 29215.007812
8.000000 -4.000000 3.960000 185.761292 -19.532078 34888.761719
8.000000 -4.000000 4.000000 161.906387 80.915100 32760.931641
8.000000 -4.000000 4.040000 78.105652 133.208496 23844.996094
8.000000 -4.000000 4.080000 -6.884430 112.232422 12643.511719
8.000000 -4.000000 4.120000 -40.620613 49.100731 4060.916016
8.000000 -4.000000 4.160000 -18.696812 -0.165550 349.598175
8.000000 -4.000000 4.200000 19.359610 -4.444478 394.547882
8.000000 -3.960000 3.800000 3.197107 -49.589188 2469.309082
8.000000 -3.960000 3.840000 41.586678 -88.370514 9538.799805
8.000000 -3.960000 3.880000 117.628769 -85.937714 21221.818359
8.000000 -3.960000 3.920000 181.725113 -17.189280 33319.488281
8.000000 -3.960000 3.960000 179.044586 88.248306 39844.726562
8.000000 -3.960000 4.000000 100.990112 163.914703 37067.031250
8.000000 -3.960000 4.040000 -2.285501 162.210358 26317.421875
8.000000 -3.960000 4.080000 -63.366104 95.662575 13166.591797
8.000000 -3.960000 4.120000 -54.736206 23.755392 3560.370850
8.000000 -3.960000 4.160000 -7.601486 -1.483826 59.984333
8.000000 -3.960000 4.200000 23.318323 21.606543 1010.586914
8.000000 -3.920000 3.800000 25.618103 -31.043423 1619.981323
8.000000 -3.920000 3.840000 72.176239 -46.266026 7349.955078
8.000000 -3.920000 3.880000 131.753159 -10.491463 17468.964844
8.000000 -3.920000 3.920000 151.146469 74.135506 28341.328125
8.000000 -3.920000 3.960000 99.186363 157.140854 34531.183594
8.000000 -3.920000 4.000000 0.962078 180.196960 32471.871094
8.000000 -3.920000 4.040000 -79.709290 129.563751 23140.335938
8.000000 -3.920000 4.080000 -95.344772 48.926365 11484.415039
8.000000 -3.920000 4.120000 -54.583420 -0.805367 2979.998291
8.000000 -3.920000 4.160000 -8.870108 4.641569 100.222977
8.000000 -3.920000 4.200000 -1.329927 37.227364 1387.645264
8.000000 -3.880000 3.800000 22.272568 -7.229904 548.338745
8.000000 -3.880000 3.840000 60.996559 -4.451832 3740.399170
8.000000 -3.880000 3.880000 91.416077 41.908684 10113.237305
8.000000 -3.880000 3.920000 73.853584 109.633751 17473.912109
8.000000 -3.880000 3.960000 4.915215 148.903015 22196.267578
8.000000 -3.880000 4.000000 -73.808029 127.133636 21610.585938
8.000000 -3.880000 4.040000 -111.018112 60.344734 15966.508789
8.000000 -3.880000 4.080000 -91.308075 -1.200544 8338.606445
8.000000 -3.880000 4.120000 -46.151558 -19.156229 2496.927490
8.000000 -3.880000 4.160000 -20.617271 0.810400 425.728607
8.000000 -3.880000 4.200000 -30.792805 21.193970 1397.381226
8.000000 -3.840000 3.800000 4.224887 -1.173077 19.225782
8.000000 -3.840000 3.840000 30.924221 7.252604 1008.907715
8.000000 -3.840000 3.880000 40.268547 44.434868 3596.013428
8.000000 -3.840000 3.920000 11.349564 82.992661 7016.594238
8.000000 -3.840000 3.960000 -43.065002 88.540161 9693.955078
8.000000 -3.840000 4.000000 -86.163216 52.675732 10198.832031
8.000000 -3.840000 4.040000 -90.851570 1.173180 8255.383789
8.000000 -3.840000 4.080000 -63.488152 -30.973459 4990.100586
8.000000 -3.840000 4.120000 -34.261734 -31.622883 2173.873047
8.000000 -3.840000 4.160000 -25.966469 -18.442207 1014.372559
8.000000 -3.840000 4.200000 -34.202400 -16.183674 1431.715454
8.000000 -3.800000 3.800000 -5.135419 -13.322961 203.873810
8.000000 -3.800000 3.840000 14.850800 -6.184744 258.797302
8.000000 -3.800000 3.880000 18.439049 17.979519 663.261597
8.000000 -3.800000 3.920000 -2.383007 37.415161 1405.572998
8.000000 -3.800000 3.960000 -33.527615 33.740513 2262.523193
8.000000 -3.800000 4.000000 -52.761299 8.701111 2859.463867
8.000000 -3.800000 4.040000 -50.243454 -19.726542 2913.541260
8.000000 -3.800000 4.080000 -34.532425 -35.926033 2483.168213
8.000000 -3.800000 4.120000 -20.065956 -39.415939 1956.258911
8.000000 -3.800000 4.160000 -11.958321 -39.832039 1729.592773
8.000000 -3.800000 4.200000 -4.566656 -42.748051 1848.250244
8.040000 -4.200000 3.800000 33.537807 2.666543 1131.895020
8.040000 -4.200000 3.840000 30.501690 16.128288 1190.474731
8.040000 -4.200000 3.880000 20.307549 22.900415 936.825562
8.040000 -4.200000 3.920000 10.364241 21.425722 566.479004
8.040000 -4.200000 3.960000 5.130772 15.449581 265.014374
8.040000 -4.200000 4.000000 4.891792 8.848298 102.222015
8.040000 -4.200000 4.040000 8.901817 3.683815 92.812851
8.040000 -4.200000 4.080000 16.694042 2.333220 284.134949
8.040000 -4.200000 4.120000 25.452072 8.224924 715.457336
8.040000 -4.200000 4.160000 28.387211 21.885721 1284.818604
8.040000 -4.200000 4.200000 19.200642 36.715614 1716.701050
8.040000 -4.160000 3.800000 18.474739 25.561092 994.685425
8.040000 -4.160000 3.840000 4.153503 32.332024 1062.611328
8.040000 -4.160000 3.880000 -10.918174 25.815622 785.652893
8.040000 -4.160000 3.920000 -16.287773 10.531679 376.207825
8.040000 -4.160000 3.960000 -9.360565 -3.419690 99.314461
8.040000 -4.160000 4.000000 4.734547 -8.550894 95.533714
8.040000 -4.160000 4.040000 18.610950 -3.331886 357.468933
8.040000 -4.160000 4.080000 26.664902 9.722523 805.544434
8.040000 -4.160000 4.120000 25.360168 26.285837 1334.083374
8.040000 -4.160000 4.160000 13.294981 40.230190 1795.224731
8.040000 -4.160000 4.200000 -6.600457 44.270966 2003.484375
8.040000 -4.120000 3.800000 -11.735860 26.191694 823.735229
8.040000 -4.120000 3.840000 -30.720762 17.262928 1241.773926
8.040000 -4.120000 3.880000 -37.832016 -7.286146 1484.349365
8.040000 -4.120000 3.920000 -23.288483 -32.198601 1579.103271
8.040000 -4.120000 3.960000 6.382805 -40.059685 1645.518555
8.040000 -4.120000 4.000000 33.697796 -25.103535 1765.729004
8.040000 -4.120000 4.040000 43.665062 3.559464 1919.307495
8.040000 -4.120000 4.080000 33.239635 30.173866 2015.335693
8.040000 -4.120000 4.120000 10.517617 43.173298 1974.553833
8.040000 -4.120000 4.160000 -12.763297 40.210850 1779.814209
8.040000 -4.120000 4.200000 -28.015509 26.155764 1468.992676
8.040000 -4.080000 3.800000 -31.175035 0.339313 971.997925
8.040000 -4.080000 3.840000 -41.629639 -25.747602 2395.965820
8.040000 -4.080000 3.880000 -25.693485 -59.696510 4223.828613
8.040000 -4.080000 3.920000 16.623913 -74.886086 5884.280273
8.040000 -4.080000 3.960000 61.878136 -54.370724 6785.079102
8.040000 -4.080000 4.000000 81.096420 -6.856178 6623.636719
8.040000 -4.080000 4.040000 63.095047 39.395660 5533.002930
8.040000 -4.080000 4.080000 22.356285 58.916756 3970.987549
8.040000 -4.080000 4.120000 -14.392115 47.356087 2449.731934
8.040000 -4.080000 4.160000 -29.420948 20.802034 1298.316772
8.040000 -4.080000 4.200000 -24.319347 -0.598326 591.788635
8.040000 -4.040000 3.800000 -21.658527 -31.610912 1468.341553
8.040000 -4.040000 3.840000 -12.509939 -65.120171 4397.135254
8.040000 -4.040000 3.880000 30.326532 -88.455467 8744.068359
8.040000 -4.040000 3.920000 88.333183 -71.857956 12966.317383
8.040000 -4.040000 3.960000 122.392281 -13.125610 15152.151367
8.040000 -4.040000 4.000000 105.696518 55.395157 14240.376953
8.040000 -4.040000 4.040000 48.156464 91.650391 10718.838867
8.040000 -4.040000 4.080000 -11.267128 78.356857 6266.745117
8.040000 -4.040000 4.120000 -37.327278 35.274593 2637.622559
8.040000 -4.040000 4.160000 -25.791576 -0.965127 666.136841
8.040000 -4.040000 4.200000 -1.234545 -9.044934 83.334938
8.040000 -4.000000 3.800000 9.222045 -42.855721 1921.658936
8.040000 -4.000000 3.840000 38.209213 -68.442169 6144.274414
8.040000 -4.000000 3.880000 94.250015 -63.622162 12930.844727
8.040000 -4.000000 3.920000 140.348877 -9.614562 19790.246094
8.040000 -4.000000 3.960000 135.353287 71.024750 23365.027344
8.040000 -4.000000 4.000000 73.148033 127.784409 21679.490234
8.040000 -4.000000 4.040000 -7.662971 124.555672 15572.835938
8.040000 -4.000000 4.080000 -55.299061 71.181839 8124.839844
8.040000 -4.000000 4.120000 -48.535320 13.574070 2539.932617
8.040000 -4.000000 4.160000 -11.345253 -7.928648 191.578232
8.040000 -4.000000 4.200000 13.913633 8.263855 261.880493
8.040000 -3.960000 3.800000 34.752007 -25.578495 1861.961304
8.040000 -3.960000 3.840000 72.660637 -33.095917 6374.908203
8.040000 -3.960000 3.880000 119.208183 1.216393 14212.070312
8.040000 -3.960000 3.920000 130.090454 74.607178 22489.755859
8.040000 -3.960000 3.960000 80.149658 143.507919 27018.492188
8.040000 -3.960000 4.000000 -7.396514 158.441681 25158.474609
8.040000 -3.960000 4.040000 -76.531769 109.286667 17800.687500
8.040000 -3.960000 4.080000 -86.642982 35.922009 8797.397461
8.040000 -3.960000 4.120000 -47.129265 -7.606640 2279.028809
8.040000 -3.960000 4.160000 -4.963299 -0.810156 25.290688
8.040000 -3.960000 4.200000 1.279648 29.687504 882.985413
8.040000 -3.920000 3.800000 34.732635 1.914842 1210.022583
8.040000 -3.920000 3.840000 68.230995 11.196381 4780.827637
8.040000 -3.920000 3.880000 90.028168 59.597694 11656.956055
8.040000 -3.920000 3.920000 64.061073 123.539192 19365.753906
8.040000 -3.920000 3.960000 -9.290012 154.555740 23973.781250
8.040000 -3.920000 4.000000 -86.380890 123.687988 22760.376953
8.040000 -3.920000 4.040000 -116.846291 51.186672 16273.130859
8.040000 -3.920000 4.080000 -88.988220 -10.169783 8022.327637
8.040000 -3.920000 4.120000 -38.804337 -22.921017 2031.149414
8.040000 -3.920000 4.160000 -13.846043 3.256096 202.315048
8.040000 -3.920000 4.200000 -28.757448 26.289152 1518.110352
8.040000 -3.880000 3.800000 14.459189 13.892965 402.082642
8.040000 -3.880000 3.840000 37.191368 31.093241 2349.987549
8.040000 -3.880000 3.880000 35.646465 74.451736 6813.731445
8.040000 -3.880000 3.920000 -8.191891 110.581467 12295.368164
8.040000 -3.880000 3.960000 -73.498817 103.150513 16042.104492
8.040000 -3.880000 4.000000 -115.813881 49.644707 15877.452148
8.040000 -3.880000 4.040000 -107.890930 -13.500755 11822.723633
8.040000 -3.880000 4.080000 -64.957733 -44.269032 6179.254395
8.040000 -3.880000 4.120000 -28.401470 -33.504101 1929.168213
8.040000 -3.880000 4.160000 -25.122091 -9.708498 725.374390
8.040000 -3.880000 4.200000 -44.262749 -7.019406 2008.463013
8.040000 -3.840000 3.800000 -2.213943 2.726948 12.337790
8.040000 -3.840000 3.840000 11.715261 20.373808 552.339355
8.040000 -3.840000 3.880000 -0.676483 49.542515 2454.918213
8.040000 -3.840000 3.920000 -40.129997 60.057541 5217.324707
8.040000 -3.840000 3.960000 -79.555458 34.710140 7533.864746
8.040000 -3.840000 4.000000 -89.214272 -12.265709 8109.633789
8.040000 -3.840000 4.040000 -65.310669 -48.531052 6620.746094
8.040000 -3.840000 4.080000 -32.053093 -54.893135 4040.657227
8.040000 -3.840000 4.120000 -15.804737 -41.637745 1983.491455
8.040000 -3.840000 4.160000 -19.509354 -33.960293 1533.916382
8.040000 -3.840000 4.200000 -23.849758 -43.949257 2500.348145
8.040000 -3.800000 3.800000 1.780685 -14.958085 226.915146
8.040000 -3.800000 3.840000 10.777020 1.620700 118.770821
8.040000 -3.800000 3.880000 -1.794628 19.398502 379.522583
8.040000 -3.800000 3.920000 -27.340660 18.663231 1095.827881
8.040000 -3.800000 3.960000 -44.727604 -3.291031 2011.389526
8.040000 -3.800000 4.000000 -41.318108 -30.587704 2642.793701
8.040000 -3.800000 4.040000 -23.632942 -46.040825 2678.273438
8.040000 -3.800000 4.080000 -7.252432 -47.440052 2303.156250
8.040000 -3.800000 4.120000 0.878548 -45.560234 2076.506592
8.040000 -3.800000 4.160000 7.423228 -48.434776 2401.031738
8.040000 -3.800000 4.200000 20.761702 -51.510979 3084.429199
8.080000 -4.200000 3.800000 5.897090 30.672689 975.589600
8.080000 -4.200000 3.840000 -8.034439 30.105253 970.878479
8.080000 -4.200000 3.880000 -15.757019 18.812984 602.212036
8.080000 -4.200000 3.920000 -11.990808 7.306162 197.159470
8.080000 -4.200000 3.960000 -2.978563 4.263535 27.049570
8.080000 -4.200000 4.000000 2.087728 8.072533 69.524391
8.080000 -4.200000 4.040000 1.556882 11.024779 123.969643
8.080000 -4.200000 4.080000 1.389296 9.956528 101.062592
8.080000 -4.200000 4.120000 5.630817 9.934569 130.401764
8.080000 -4.200000 4.160000 9.712745 16.635288 371.070221
8.080000 -4.200000 4.200000 5.363858 27.160202 766.447571
8.080000 -4.160000 3.800000 -16.495176 27.555401 1031.390991
8.080000 -4.160000 3.840000 -28.923000 18.538406 1180.212524
8.080000 -4.160000 3.880000 -29.687120 1.697643 884.207153
8.080000 -4.160000 3.920000 -17.591736 -9.848534 406.462799
8.080000 -4.160000 3.960000 -2.541176 -8.887384 85.443176
8.080000 -4.160000 4.000000 5.568009 0.423361 31.181961
8.080000 -4.160000 4.040000 5.634538 9.472002 121.466843
8.080000 -4.160000 4.080000 2.910625 14.830946 228.428696
8.080000 -4.160000 4.120000 0.281798 19.312668 373.058533
8.080000 -4.160000 4.160000 -5.115784 24.760752 639.266113
8.080000 -4.160000 4.200000 -16.083391 26.976746 986.420288
8.080000 -4.120000 3.800000 -29.612904 5.108405 903.019897
8.080000 -4.120000 3.840000 -35.054604 -10.852013 1346.591431
8.080000 -4.120000 3.880000 -24.164089 -29.094978 1430.420898
8.080000 -4.120000 3.920000 -0.936201 -34.275436 1175.682007
8.080000 -4.120000 3.960000 19.638088 -21.223476 836.090454
8.080000 -4.120000 4.000000 25.225481 1.246471 637.878601
8.080000 -4.120000 4.040000 15.552333 19.415358 618.831177
8.080000 -4.120000 4.080000 -0.332979 26.049080 678.665466
8.080000 -4.120000 4.120000 -13.751973 23.203829 727.534424
8.080000 -4.120000 4.160000 -22.215580 16.298103 759.160156
8.080000 -4.120000 4.200000 -27.125860 7.951708 799.041992
8.080000 -4.080000 3.800000 -19.365490 -21.372656 831.812622
8.080000 -4.080000 3.840000 -14.067322 -38.785641 1702.215454
8.080000 -4.080000 3.880000 9.531146 -49.851398 2576.004639
8.080000 -4.080000 3.920000 39.631050 -38.860126 3080.729492
8.080000 -4.080000 3.960000 55.105186 -6.896248 3084.139893
8.080000 -4.080000 4.000000 44.024441 27.633757 2701.775879
8.080000 -4.080000 4.040000 13.839596 44.233810 2148.164307
8.080000 -4.080000 4.080000 -15.677756 36.636753 1588.043701
8.080000 -4.080000 4.120000 -29.110823 15.602715 1090.884766
8.080000 -4.080000 4.160000 -25.922792 -2.647003 678.997803
8.080000 -4.080000 4.200000 -16.757221 -10.095738 382.728394
8.080000 -4.040000 3.800000 8.947846 -30.142601 988.640381
8.080000 -4.040000 3.840000 23.947443 -41.796989 2320.468262
8.080000 -4.040000 3.880000 53.833565 -37.162384 4279.095703
8.080000 -4.040000 3.920000 77.592163 -5.402273 6049.728516
8.080000 -4.040000 3.960000 72.006920 40.333923 6811.821777
8.080000 -4.040000 4.000000 34.260006 71.198616 6242.991211
8.080000 -4.040000 4.040000 -13.098366 67.118690 4676.485840
8.080000 -4.040000 4.080000 -40.591831 34.341240 2827.017578
8.080000 -4.040000 4.120000 -36.458076 -0.762812 1329.773193
8.080000 -4.040000 4.160000 -14.427378 -15.332550 443.236328
8.080000 -4.040000 4.200000 1.619585 -8.431677 73.716232
8.080000 -4.000000 3.800000 33.229290 -13.144496 1276.963379
8.080000 -4.000000 3.840000 52.078671 -14.484018 2921.974854
8.080000 -4.000000 3.880000 76.316696 7.494423 5880.404785
8.080000 -4.000000 3.920000 79.191620 52.272461 9003.722656
8.080000 -4.000000 3.960000 44.731209 93.330856 10711.529297
8.080000 -4.000000 4.000000 -12.656006 99.468170 10054.091797
8.080000 -4.000000 4.040000 -57.031822 64.112495 7363.041016
8.080000 -4.000000 4.080000 -61.765022 13.261118 3990.775146
8.080000 -4.000000 4.120000 -32.851955 -17.108034 1371.935791
8.080000 -4.000000 4.160000 -1.808937 -12.768327 166.302414
8.080000 -4.000000 4.200000 4.658806 8.591143 95.512207
8.080000 -3.960000 3.800000 34.065460 15.282230 1394.002197
8.080000 -3.960000 3.840000 49.880157 23.403297 3035.744385
8.080000 -3.960000 3.880000 58.556976 55.041489 6458.484863
8.080000 -3.960000 3.920000 35.987446 95.538345 10422.671875
8.080000 -3.960000 3.960000 -17.814575 112.028107 12867.656250
8.080000 -3.960000 4.000000 -72.142197 84.368759 12322.583984
8.080000 -3.960000 4.040000 -90.719772 27.551353 8989.154297
8.080000 -3.960000 4.080000 -65.211189 -19.076693 4616.419434
8.080000 -3.960000 4.120000 -23.271214 -27.047655 1273.125000
8.080000 -3.960000 4.160000 -2.155044 -3.894739 19.813206
8.080000 -3.960000 4.200000 -13.972225 16.763191 476.227661
8.080000 -3.920000 3.800000 12.927183 30.896267 1121.691406
8.080000 -3.920000 3.840000 22.174938 43.872452 2416.519775
8.080000 -3.920000 3.880000 13.950657 73.157921 5546.702148
8.080000 -3.920000 3.920000 -24.407681 94.141533 9458.363281
8.080000 -3.920000 3.960000 -75.837036 79.784729 12116.859375
8.080000 -3.920000 4.000000 -104.842224 29.935343 11888.016602
8.080000 -3.920000 4.040000 -90.542084 -24.015575 8774.617188
8.080000 -3.920000 4.080000 -47.873184 -46.675224 4470.418457
8.080000 -3.920000 4.120000 -14.039784 -31.536064 1191.638916
8.080000 -3.920000 4.160000 -13.008006 -5.682924 201.503845
8.080000 -3.920000 4.200000 -33.978382 -1.543970 1156.914185
8.080000 -3.880000 3.800000 -9.102449 22.162157 574.015747
8.080000 -3.880000 3.840000 -5.848915 35.922058 1324.604126
8.080000 -3.880000 3.880000 -24.189468 54.595634 3565.813721
8.080000 -3.880000 3.920000 -61.709656 52.992382 6616.274414
8.080000 -3.880000 3.960000 -92.436195 19.285561 8916.382812
8.080000 -3.880000 4.000000 -90.623825 -29.242857 9067.822266
8.080000 -3.880000 4.040000 -57.108543 -60.312492 6898.982422
8.080000 -3.880000 4.080000 -19.671589 -57.405891 3682.407715
8.080000 -3.880000 4.120000 -5.939863 -35.199196 1274.265381
8.080000 -3.880000 4.160000 -16.863979 -23.346596 829.457336
8.080000 -3.880000 4.200000 -28.170635 -35.892437 2081.851807
8.080000 -3.840000 3.800000 -11.666775 0.864629 136.861221
8.080000 -3.840000 3.840000 -12.874954 14.154055 366.101715
8.080000 -3.840000 3.880000 -32.851318 21.416435 1537.872803
8.080000 -3.840000 3.920000 -57.775410 5.980560 3373.765137
8.080000 -3.840000 3.960000 -64.634537 -28.024593 4963.001465
8.080000 -3.840000 4.000000 -44.912838 -57.780624 5355.763672
8.080000 -3.840000 4.040000 -13.858488 -64.272659 4323.032227
8.080000 -3.840000 4.080000 5.304293 -51.034119 2632.616699
8.080000 -3.840000 4.120000 5.131972 -38.829327 1534.053711
8.080000 -3.840000 4.160000 -0.038033 -42.453163 1802.272583
8.080000 -3.840000 4.200000 8.292617 -55.321709 3129.259033
8.080000 -3.800000 3.800000 5.308900 -10.075583 129.701782
8.080000 -3.800000 3.840000 -0.664735 2.291580 5.693213
8.080000 -3.800000 3.880000 -17.661928 1.696966 314.823395
8.080000 -3.800000 3.920000 -28.714458 -16.049637 1082.110962
8.080000 -3.800000 3.960000 -21.839878 -38.046726 1924.533691
8.080000 -3.800000 4.000000 -2.370808 -48.091560 2318.418945
8.080000 -3.800000 4.040000 14.047291 -43.584473 2096.932617
8.080000 -3.800000 4.080000 19.337086 -36.378586 1697.324341
8.080000 -3.800000 4.120000 20.971884 -37.192852 1823.128174
8.080000 -3.800000 4.160000 31.098827 -42.332680 2759.192871
8.080000 -3.800000 4.200000 50.208408 -38.403549 3995.716797
8.120000 -4.200000 3.800000 -30.239733 24.079155 1494.247070
8.120000 -4.200000 3.840000 -39.059372 7.398314 1580.369629
8.120000 -4.200000 3.880000 -30.792810 -11.470737 1079.775024
8.120000 -4.200000 3.920000 -11.562288 -16.600151 409.251526
8.120000 -4.200000 3.960000 1.741255 -5.808678 36.772709
8.120000 -4.200000 4.000000 -0.482843 7.330383 53.967648
8.120000 -4.200000 4.040000 -10.742155 8.682140 190.773468
8.120000 -4.200000 4.080000 -13.637452 -1.097513 187.184631
8.120000 -4.200000 4.120000 -3.481394 -8.018290 76.413071
8.120000 -4.200000 4.160000 9.360826 -1.051315 88.730316
8.120000 -4.200000 4.200000 10.202168 15.173004 334.304291
8.120000 -4.160000 3.800000 -36.471313 2.225842 1335.111084
8.120000 -4.160000 3.840000 -36.289047 -14.159440 1517.384644
8.120000 -4.160000 3.880000 -21.218880 -25.931793 1122.698730
8.120000 -4.160000 3.920000 -2.251475 -21.803005 480.440186
8.120000 -4.160000 3.960000 5.440298 -6.144379 67.350235
8.120000 -4.160000 4.000000 -1.397905 6.043192 38.474308
8.120000 -4.160000 4.040000 -11.554667 5.474048 163.475510
8.120000 -4.160000 4.080000 -12.665087 -2.145850 165.009094
8.120000 -4.160000 4.120000 -4.960924 -3.963329 40.318745
8.120000 -4.160000 4.160000 -0.102644 4.634364 21.487867
8.120000 -4.160000 4.200000 -7.025423 14.639965 263.685150
8.120000 -4.120000 3.800000 -23.180813 -18.959827 896.825195
8.120000 -4.120000 3.840000 -16.947563 -29.670794 1167.575928
8.120000 -4.120000 3.880000 -0.494215 -32.303570 1043.764893
8.120000 -4.120000 3.920000 14.079456 -20.475441 617.474792
8.120000 -4.120000 3.960000 15.048003 -1.856829 229.890213
8.120000 -4.120000 4.000000 3.092086 9.715595 103.953789
8.120000 -4.120000 4.040000 -10.152214 8.133827 169.226593
8.120000 -4.120000 4.080000 -14.638544 -0.118348 214.300980
8.120000 -4.120000 4.120000 -11.400888 -4.530639 150.506943
8.120000 -4.120000 4.160000 -9.291436 -2.174638 91.059837
8.120000 -4.120000 4.200000 -13.749353 0.323888 189.149628
8.120000 -4.080000 3.800000 3.073236 -22.918957 534.723328
8.120000 -4.080000 3.840000 9.781651 -26.312008 788.002502
8.120000 -4.080000 3.880000 22.458832 -21.214270 954.444336
8.120000 -4.080000 3.920000 29.473877 -4.421914 888.262756
8.120000 -4.080000 3.960000 21.622835 14.757778 685.338989
8.120000 -4.080000 4.000000 2.057777 22.886414 528.022339
8.120000 -4.080000 4.040000 -16.149073 15.092196 488.566895
8.120000 -4.080000 4.080000 -21.999210 -0.812135 484.624847
8.120000 -4.080000 4.120000 -15.892874 -12.352864 405.176697
8.120000 -4.080000 4.160000 -7.435912 -13.928961 249.308731
8.120000 -4.080000 4.200000 -5.040665 -10.425725 134.104034
8.120000 -4.040000 3.800000 23.563187 -4.672699 577.057861
8.120000 -4.040000 3.840000 26.178087 -3.392401 696.800598
8.120000 -4.040000 3.880000 31.939772 5.687255 1052.493896
8.120000 -4.040000 3.920000 29.232933 23.231842 1394.282959
8.120000 -4.040000 3.960000 11.226717 37.635181 1542.446045
8.120000 -4.040000 4.000000 -14.809944 35.430592 1474.661255
8.120000 -4.040000 4.040000 -32.233009 15.147156 1268.403198
8.120000 -4.040000 4.080000 -29.948515 -9.757503 992.122437
8.120000 -4.040000 4.120000 -12.804813 -22.504555 670.418213
8.120000 -4.040000 4.160000 3.087562 -18.025047 334.435394
8.120000 -4.040000 4.200000 5.582384 -6.693470 75.965546
8.120000 -4.000000 3.800000 22.295851 22.942228 1023.450806
8.120000 -4.000000 3.840000 19.964266 24.416079 994.716797
8.120000 -4.000000 3.880000 18.366264 33.067917 1430.806885
8.120000 -4.000000 3.920000 6.180479 45.694237 2126.161621
8.120000 -4.000000 3.960000 -18.663656 48.268547 2678.184570
8.120000 -4.000000 4.000000 -42.800331 30.525652 2763.683594
8.120000 -4.000000 4.040000 -48.234505 -0.857030 2327.302002
8.120000 -4.000000 4.080000 -30.262281 -25.576450 1569.960449
8.120000 -4.000000 4.120000 -3.754750 -27.899834 792.498840
8.120000 -4.000000 4.160000 9.923664 -11.771658 237.051041
8.120000 -4.000000 4.200000 3.052056 2.949930 18.017136
8.120000 -3.960000 3.800000 0.314929 38.769421 1503.167114
8.120000 -3.960000 3.840000 -4.442171 37.713219 1442.019775
8.120000 -3.960000 3.880000 -11.562994 42.481979 1938.421509
8.120000 -3.960000 3.920000 -29.198116 44.993298 2876.926758
8.120000 -3.960000 3.960000 -51.921982 32.126732 3728.019043
8.120000 -3.960000 4.000000 -62.533585 2.202736 3915.301270
8.120000 -3.960000 4.040000 -49.013657 -28.762804 3229.637451
8.120000 -3.960000 4.080000 -19.040516 -40.127777 1972.779785
8.120000 -3.960000 4.120000 4.764764 -26.891842 745.874146
8.120000 -3.960000 4.160000 5.856252 -5.791243 67.834183
8.120000 -3.960000 4.200000 -10.018406 0.456589 100.576927
8.120000 -3.920000 3.800000 -24.310852 31.272551 1568.989990
8.120000 -3.920000 3.840000 -28.708071 28.435165 1632.711914
8.120000 -3.920000 3.880000 -38.496582 27.682278 2248.295410
8.120000 -3.920000 3.920000 -54.631813 18.377777 3322.377686
8.120000 -3.920000 3.960000 -65.157608 -5.829067 4279.491699
8.120000 -3.920000 4.000000 -56.276318 -35.796837 4448.437500
8.120000 -3.920000 4.040000 -28.688498 -52.441681 3573.159668
8.120000 -3.920000 4.080000 -0.419022 -45.222389 2045.239990
8.120000 -3.920000 4.120000 9.156177 -24.183371 668.670959
8.120000 -3.920000 4.160000 -1.526848 -11.401514 132.325790
8.120000 -3.920000 4.200000 -14.229538 -19.370644 577.701599
8.120000 -3.880000 3.800000 -31.902426 8.731802 1094.009155
8.120000 -3.880000 3.840000 -35.994865 6.556332 1338.615845
8.120000 -3.880000 3.880000 -45.848511 0.166769 2102.113770
8.120000 -3.880000 3.920000 -53.919579 -17.778288 3223.388672
8.120000 -3.880000 3.960000 -47.777496 -42.899696 4123.073242
8.120000 -3.880000 4.000000 -24.509245 -59.862644 4184.239258
8.120000 -3.880000 4.040000 3.053822 -56.894234 3246.279785
8.120000 -3.880000 4.080000 17.119036 -38.931274 1808.705566
8.120000 -3.880000 4.120000 12.571761 -24.123014 739.968994
8.120000 -3.880000 4.160000 2.570028 -25.985676 681.860413
8.120000 -3.880000 4.200000 5.263495 -39.591732 1595.209595
8.120000 -3.840000 3.800000 -18.455317 -8.247990 408.628021
8.120000 -3.840000 3.840000 -25.076683 -9.335116 715.984436
8.120000 -3.840000 3.880000 -32.971027 -20.879631 1523.047607
8.120000 -3.840000 3.920000 -30.069256 -41.117069 2594.773438
8.120000 -3.840000 3.960000 -11.321117 -56.873245 3362.733643
8.120000 -3.840000 4.000000 13.648792 -55.956963 3317.471191
8.120000 -3.840000 4.040000 28.660154 -40.498932 2461.567871
8.120000 -3.840000 4.080000 27.395857 -25.763380 1414.284668
8.120000 -3.840000 4.120000 20.170614 -24.505638 1007.380005
8.120000 -3.840000 4.160000 22.949352 -33.412422 1643.062744
8.120000 -3.840000 4.200000 40.026485 -36.614254 2942.723145
8.120000 -3.800000 3.800000 1.293646 -5.438075 31.246180
8.120000 -3.800000 3.840000 -9.889952 -8.868102 176.454376
8.120000 -3.800000 3.880000 -13.761286 -24.798122 804.319885
8.120000 -3.800000 3.920000 -1.391479 -41.189087 1698.477051
8.120000 -3.800000 3.960000 20.732941 -43.501343 2322.221680
8.120000 -3.800000 4.000000 36.373528 -30.283997 2240.153809
8.120000 -3.800000 4.040000 36.662945 -15.127287 1573.006348
8.120000 -3.800000 4.080000 29.711712 -11.775867 1021.456848
8.120000 -3.800000 4.120000 31.317986 -18.622673 1327.620117
8.120000 -3.800000 4.160000 46.642010 -20.274849 2586.546631
8.120000 -3.800000 4.200000 63.470398 -4.958488 4053.078125
8.160000 -4.200000 3.800000 -43.499249 -7.797655 1952.988037
8.160000 -4.200000 3.840000 -36.867764 -28.759312 2186.330078
8.160000 -4.200000 3.880000 -13.941890 -38.625263 1686.287354
8.160000 -4.200000 3.920000 8.236045 -27.389721 818.029297
8.160000 -4.200000 3.960000 11.801603 -5.507933 169.615173
8.160000 -4.200000 4.000000 -2.819665 5.800879 41.600704
8.160000 -4.200000 4.040000 -16.604490 -3.426842 287.452362
8.160000 -4.200000 4.080000 -11.582860 -21.079782 578.519897
8.160000 -4.200000 4.120000 10.087368 -25.358290 744.797852
8.160000 -4.200000 4.160000 28.009472 -7.505953 840.869873
8.160000 -4.200000 4.200000 24.348696 18.987690 953.391357
8.160000 -4.160000 3.800000 -27.185638 -25.972406 1413.624878
8.160000 -4.160000 3.840000 -15.170761 -36.912754 1592.703369
8.160000 -4.160000 3.880000 4.601722 -34.202072 1190.957520
8.160000 -4.160000 3.920000 15.521101 -16.303568 506.710907
8.160000 -4.160000 3.960000 7.888921 1.808433 65.505508
8.160000 -4.160000 4.000000 -9.332191 3.767262 101.282043
8.160000 -4.160000 4.040000 -16.955051 -10.339379 394.376526
8.160000 -4.160000 4.080000 -5.790641 -23.262482 574.674622
8.160000 -4.160000 4.120000 13.160028 -18.497562 515.346191
8.160000 -4.160000 4.160000 19.880440 2.187543 400.017212
8.160000 -4.160000 4.200000 6.070811 20.319019 449.717285
8.160000 -4.120000 3.800000 -1.957826 -25.848772 671.992065
8.160000 -4.120000 3.840000 5.982075 -26.651596 746.092773
8.160000 -4.120000 3.880000 14.916184 -18.086365 549.609131
8.160000 -4.120000 3.920000 13.930383 -3.292738 204.897690
8.160000 -4.120000 3.960000 1.022877 5.246936 28.576612
8.160000 -4.120000 4.000000 -12.770368 -0.693959 163.563873
8.160000 -4.120000 4.040000 -14.175281 -15.066359 427.933746
8.160000 -4.120000 4.080000 -1.947131 -22.798960 523.583862
8.160000 -4.120000 4.120000 11.123757 -15.283628 357.327271
8.160000 -4.120000 4.160000 11.152116 0.497422 124.617119
8.160000 -4.120000 4.200000 -2.667260 8.989626 87.927658
8.160000 -4.080000 3.800000 14.686655 -6.003681 251.742004
8.160000 -4.080000 3.840000 12.396490 -3.882746 168.748688
8.160000 -4.080000 3.880000 10.480105 0.640328 110.242630
8.160000 -4.080000 3.920000 3.837885 5.663848 46.808533
8.160000 -4.080000 3.960000 -7.024507 4.629143 70.772659
8.160000 -4.080000 4.000000 -14.571504 -5.249054 239.881287
8.160000 -4.080000 4.040000 -11.703517 -17.933632 458.587463
8.160000 -4.080000 4.080000 -0.039707 -23.285210 542.202576
8.160000 -4.080000 4.120000 10.434050 -17.097488 401.193481
8.160000 -4.080000 4.160000 10.643038 -5.790290 146.801712
8.160000 -4.080000 4.200000 1.287419 -0.540413 1.949493
8.160000 -4.040000 3.800000 10.064644 20.096327 505.159424
8.160000 -4.040000 3.840000 -0.711863 16.049824 258.103577
8.160000 -4.040000 3.880000 -6.464594 10.534763 152.772217
8.160000 -4.040000 3.920000 -10.680034 5.800583 147.709885
8.160000 -4.040000 3.960000 -15.062288 -0.748633 227.432983
8.160000 -4.040000 4.000000 -16.254372 -11.187288 389.360016
8.160000 -4.040000 4.040000 -9.795824 -21.977924 578.987305
8.160000 -4.040000 4.080000 3.167788 -25.779213 674.602661
8.160000 -4.040000 4.120000 14.547858 -19.044403 574.329468
8.160000 -4.040000 4.160000 16.066725 -7.148483 309.240479
8.160000 -4.040000 4.200000 7.721766 -0.681252 60.089767
8.160000 -4.000000 3.800000 -13.055461 33.625744 1301.135742
8.160000 -4.000000 3.840000 -24.452843 19.474728 977.206543
8.160000 -4.000000 3.880000 -25.956198 5.342018 702.261353
8.160000 -4.000000 3.920000 -23.172302 -4.292938 555.384888
8.160000 -4.000000 3.960000 -20.385984 -11.916556 557.592651
8.160000 -4.000000 4.000000 -15.683643 -20.756311 676.801147
8.160000 -4.000000 4.040000 -5.022091 -28.211742 821.123779
8.160000 -4.000000 4.080000 9.937771 -27.536661 857.026978
8.160000 -4.000000 4.120000 20.424269 -16.465897 688.276489
8.160000 -4.000000 4.160000 18.709377 -2.561323 356.601166
8.160000 -4.000000 4.200000 7.458425 2.305910 60.945316
8.160000 -3.960000 3.800000 -38.004013 25.134113 2076.028809
8.160000 -3.960000 3.840000 -42.826885 4.623239 1855.516479
8.160000 -3.960000 3.880000 -36.849823 -12.040983 1502.894653
8.160000 -3.960000 3.920000 -27.339668 -21.635881 1215.568848
8.160000 -3.960000 3.960000 -18.404182 -27.580612 1099.404053
8.160000 -3.960000 4.000000 -8.103945 -32.447845 1118.536621
8.160000 -3.960000 4.040000 5.686115 -33.114895 1128.928223
8.160000 -3.960000 4.080000 18.795790 -25.047001 980.633911
8.160000 -3.960000 4.120000 22.939957 -10.492226 636.328430
8.160000 -3.960000 4.160000 15.250334 0.319745 232.674911
8.160000 -3.960000 4.200000 4.064430 -1.590924 19.050632
8.160000 -3.920000 3.800000 -47.345375 2.023775 2245.680176
8.160000 -3.920000 3.840000 -44.843971 -17.618336 2321.387695
8.160000 -3.920000 3.880000 -33.855392 -32.073246 2174.880859
8.160000 -3.920000 3.920000 -19.876610 -39.681541 1969.704346
8.160000 -3.920000 3.960000 -5.595994 -42.120911 1805.486328
8.160000 -3.920000 4.000000 8.685648 -39.696228 1651.230957
8.160000 -3.920000 4.040000 20.831131 -31.031788 1396.907837
8.160000 -3.920000 4.080000 25.953768 -17.571438 982.353516
8.160000 -3.920000 4.120000 21.472105 -6.111196 498.398010
8.160000 -3.920000 4.160000 12.408554 -4.115579 170.910202
8.160000 -3.920000 4.200000 9.150785 -11.583429 217.912720
8.160000 -3.880000 3.800000 -36.670166 -17.816772 1662.138428
8.160000 -3.880000 3.840000 -32.073296 -32.860905 2108.535400
8.160000 -3.880000 3.880000 -19.893276 -45.197353 2438.543213
8.160000 -3.880000 3.920000 -2.317565 -50.897354 2595.911865
8.160000 -3.880000 3.960000 16.346830 -47.380608 2512.140625
8.160000 -3.880000 4.000000 30.149965 -35.105412 2141.410156
8.160000 -3.880000 4.040000 34.170982 -19.120289 1533.241455
8.160000 -3.880000 4.080000 28.678267 -7.415813 877.437256
8.160000 -3.880000 4.120000 20.522068 -5.417664 450.506348
8.160000 -3.880000 4.160000 18.711021 -10.846638 467.751892
8.160000 -3.880000 4.200000 26.821930 -14.616210 933.049561
8.160000 -3.840000 3.800000 -17.328690 -20.844805 734.789368
8.160000 -3.840000 3.840000 -15.751131 -34.196480 1417.497314
8.160000 -3.840000 3.880000 -2.777785 -47.313782 2246.310059
8.160000 -3.840000 3.920000 19.167313 -50.157005 2883.110840
8.160000 -3.840000 3.960000 39.300606 -37.918999 2982.388184
8.160000 -3.840000 4.000000 46.361465 -16.855839 2433.504883
8.160000 -3.840000 4.040000 38.757706 -0.374246 1502.299805
8.160000 -3.840000 4.080000 26.789505 2.492238 723.888794
8.160000 -3.840000 4.120000 23.602345 -4.549389 577.767639
8.160000 -3.840000 4.160000 32.915985 -8.482298 1155.411377
8.160000 -3.840000 4.200000 45.605350 0.535805 2080.135010
8.160000 -3.800000 3.800000 -6.052719 -8.379150 106.845566
8.160000 -3.800000 3.840000 -6.782284 -25.924557 718.082031
8.160000 -3.800000 3.880000 10.311386 -40.597187 1754.456299
8.160000 -3.800000 3.920000 36.280411 -37.440918 2718.090576
8.160000 -3.800000 3.960000 52.569157 -15.831998 3014.168213
8.160000 -3.800000 4.000000 48.413212 8.403799 2414.462891
8.160000 -3.800000 4.040000 31.747477 17.783264 1324.146729
8.160000 -3.800000 4.080000 21.412949 10.435507 567.414185
8.160000 -3.800000 4.120000 27.952988 1.683492 784.203674
8.160000 -3.800000 4.160000 42.910259 7.851787 1902.940918
8.160000 -3.800000 4.200000 47.992538 29.181377 3154.836426
8.200000 -4.200000 3.800000 -25.160414 -34.687122 1836.242920
8.200000 -4.200000 3.840000 -7.200751 -45.516792 2123.629150
8.200000 -4.200000 3.880000 16.414314 -38.869926 1780.300903
8.200000 -4.200000 3.920000 27.080605 -16.216021 996.318481
8.200000 -4.200000 3.960000 16.079235 3.960920 274.230713
8.200000 -4.200000 4.000000 -4.134085 3.704130 30.811234
8.200000 -4.200000 4.040000 -10.617122 -15.043173 339.020325
8.200000 -4.200000 4.080000 6.833513 -30.467979 974.994690
8.200000 -4.200000 4.120000 33.948944 -21.962076 1634.863525
8.200000 -4.200000 4.160000 44.883408 8.769184 2091.418945
8.200000 -4.200000 4.200000 27.277086 38.413841 2219.662598
8.200000 -4.160000 3.800000 -0.868397 -33.091003 1095.768677
8.200000 -4.160000 3.840000 12.782600 -32.730289 1234.666748
8.200000 -4.160000 3.880000 24.458527 -19.197378 966.758911
8.200000 -4.160000 3.920000 21.158722 0.203669 447.733002
8.200000 -4.160000 3.960000 3.482972 8.479918 84.040100
8.200000 -4.160000 4.000000 -11.679105 -2.855961 144.557999
8.200000 -4.160000 4.040000 -7.228234 -22.315807 550.242615
8.200000 -4.160000 4.080000 15.309031 -27.867737 1010.977234
8.200000 -4.160000 4.120000 35.041931 -9.074770 1310.288330
8.200000 -4.160000 4.160000 31.407867 21.054531 1429.747437
8.200000 -4.160000 4.200000 4.652133 37.663826 1440.206177
8.200000 -4.120000 3.800000 13.272335 -13.143417 348.904297
8.200000 -4.120000 3.840000 15.116806 -9.332436 315.612183
8.200000 -4.120000 3.880000 13.729355 -0.976248 189.448242
8.200000 -4.120000 3.920000 3.904514 5.294815 43.280293
8.200000 -4.120000 3.960000 -9.058821 0.307860 82.157013
8.200000 -4.120000 4.000000 -12.291165 -15.203193 382.209808
8.200000 -4.120000 4.040000 0.850729 -27.730352 769.696228
8.200000 -4.120000 4.080000 21.166698 -23.053146 979.476685
8.200000 -4.120000 4.120000 30.214508 -1.530827 915.259949
8.200000 -4.120000 4.160000 17.849537 20.153763 724.780151
8.200000 -4.120000 4.200000 -7.143694 23.920864 623.240112
8.200000 -4.080000 3.800000 6.420313 10.905569 160.151855
8.200000 -4.080000 3.840000 -2.268482 7.030827 54.578533
8.200000 -4.080000 3.880000 -7.856863 1.472837 63.899548
8.200000 -4.080000 3.920000 -11.655567 -5.958235 171.352814
8.200000 -4.080000 3.960000 -11.436619 -16.368248 398.715820
8.200000 -4.080000 4.000000 -3.265296 -26.411573 708.233398
8.200000 -4.080000 4.040000 11.878242 -28.425169 949.082886
8.200000 -4.080000 4.080000 25.217377 -17.773186 951.802246
8.200000 -4.080000 4.120000 26.266739 0.351012 690.064819
8.200000 -4.080000 4.160000 12.916053 13.114634 338.818024
8.200000 -4.080000 4.200000 -5.081401 10.778416 141.994888
8.200000 -4.040000 3.800000 -17.056625 21.411682 749.388611
8.200000 -4.040000 3.840000 -26.671705 3.805618 725.862610
8.200000 -4.040000 3.880000 -24.185116 -14.266499 788.452759
8.200000 -4.040000 3.920000 -13.746984 -26.301392 880.742798
8.200000 -4.040000 3.960000 -0.771755 -31.088757 967.106384
8.200000 -4.040000 4.000000 11.809067 -29.931885 1035.371826
8.200000 -4.040000 4.040000 22.483482 -23.357063 1051.059448
8.200000 -4.040000 4.080000 28.386906 -11.766469 944.266235
8.200000 -4.040000 4.120000 25.952076 1.366655 675.377991
8.200000 -4.040000 4.160000 15.255677 9.180730 317.021484
8.200000 -4.040000 4.200000 2.769855 6.333584 47.786385
8.200000 -4.000000 3.800000 -40.746826 10.847829 1777.979248
8.200000 -4.000000 3.840000 -40.825054 -16.752804 1947.341553
8.200000 -4.000000 3.880000 -24.035980 -37.364391 1973.826172
8.200000 -4.000000 3.920000 -1.068263 -42.772949 1830.666382
8.200000 -4.000000 3.960000 16.850319 -35.749023 1561.925903
8.200000 -4.000000 4.000000 26.073963 -24.466022 1278.437744
8.200000 -4.000000 4.040000 29.553967 -14.038264 1070.509766
8.200000 -4.000000 4.080000 30.038755 -4.353283 921.277893
8.200000 -4.000000 4.120000 26.510103 5.051021 728.298401
8.200000 -4.000000 4.160000 17.821890 10.763454 433.471710
8.200000 -4.000000 4.200000 7.969092 8.248220 131.539581
8.200000 -3.960000 3.800000 -49.026436 -12.802382 2567.492188
8.200000 -3.960000 3.840000 -36.429707 -40.460487 2964.174561
8.200000 -3.960000 3.880000 -9.030372 -53.656281 2960.543945
8.200000 -3.960000 3.920000 17.935310 -47.528683 2580.650879
8.200000 -3.960000 3.960000 32.733002 -30.325367 1991.077148
8.200000 -3.960000 4.000000 35.087658 -13.889503 1424.062134
8.200000 -3.960000 4.040000 32.143547 -3.334841 1044.328857
8.200000 -3.960000 4.080000 28.883856 3.767276 848.469482
8.200000 -3.960000 4.120000 24.370724 10.093503 695.810974
8.200000 -3.960000 4.160000 16.853462 13.447446 464.872986
8.200000 -3.960000 4.200000 9.759517 10.309303 201.529907
8.200000 -3.920000 3.800000 -38.739571 -33.141090 2599.086182
8.200000 -3.920000 3.840000 -19.101536 -53.443924 3221.121582
8.200000 -3.920000 3.880000 10.259352 -56.876728 3340.216553
8.200000 -3.920000 3.920000 34.113838 -42.319214 2954.669922
8.200000 -3.920000 3.960000 43.090996 -20.226379 2265.940186
8.200000 -3.920000 4.000000 39.371540 -2.408335 1555.918213
8.200000 -3.920000 4.040000 31.364437 6.941201 1031.908203
8.200000 -3.920000 4.080000 24.770235 10.892060 732.201538
8.200000 -3.920000 4.120000 19.735683 13.027867 559.222534
8.200000 -3.920000 4.160000 15.110640 13.403266 407.978943
8.200000 -3.920000 4.200000 12.593948 11.273052 285.689240
8.200000 -3.880000 3.800000 -20.213005 -38.543079 1894.134521
8.200000 -3.880000 3.840000 -1.458977 -52.301598 2737.585693
8.200000 -3.880000 3.880000 24.824623 -50.846146 3201.592529
8.200000 -3.880000 3.920000 44.942829 -33.170609 3120.147217
8.200000 -3.880000 3.960000 49.861511 -8.993299 2567.049805
8.200000 -3.880000 4.000000 41.228188 9.603061 1791.982178
8.200000 -3.880000 4.040000 28.081491 16.997631 1077.489624
8.200000 -3.880000 4.080000 18.777124 15.995096 608.423523
8.200000 -3.880000 4.120000 15.791378 13.046974 419.591156
8.200000 -3.880000 4.160000 16.646681 12.656271 437.293152
8.200000 -3.880000 4.200000 17.812288 15.692428 563.529907
8.200000 -3.840000 3.800000 -7.589144 -30.157982 967.098938
8.200000 -3.840000 3.840000 7.990703 -43.777306 1980.303833
8.200000 -3.840000 3.880000 33.312187 -42.335953 2902.034668
8.200000 -3.840000 3.920000 52.903503 -22.565777 3307.995117
8.200000 -3.840000 3.960000 54.632282 4.878335 3008.484375
8.200000 -3.840000 4.000000 39.719452 24.110981 2158.974365
8.200000 -3.840000 4.040000 21.063286 27.058764 1175.838745
8.200000 -3.840000 4.080000 11.698409 19.119503 502.408142
8.200000 -3.840000 4.120000 14.195996 12.829788 366.129761
8.200000 -3.840000 4.160000 20.329882 16.205563 675.924316
8.200000 -3.840000 4.200000 20.109634 26.717812 1118.238770
8.200000 -3.800000 3.800000 -7.562651 -18.810440 411.026337
8.200000 -3.800000 3.840000 9.727413 -36.375755 1417.818115
8.200000 -3.800000 3.880000 38.818966 -33.807289 2649.844727
8.200000 -3.800000 3.920000 58.388046 -8.450888 3480.581543
8.200000 -3.800000 3.960000 53.790947 23.197390 3431.584961
8.200000 -3.800000 4.000000 30.450108 39.848854 2515.140137
8.200000 -3.800000 4.040000 8.459939 34.570663 1266.701294
8.200000 -3.800000 4.080000 3.495265 19.979496 411.397156
8.200000 -3.800000 4.120000 12.863438 14.694777 381.404480
8.200000 -3.800000 4.160000 20.180618 24.999302 1032.222412
8.200000 -3.800000 4.200000 12.948474 40.142155 1779.055542
