#kx 	ky 	kz 	real 	imag 	intensity
3.800000 3.800000 3.800000 -14.444851 -5.466157 238.532593
3.800000 3.800000 3.840000 -12.417774 -6.627184 198.120682
3.800000 3.800000 3.880000 -12.638796 -8.350341 229.467361
3.800000 3.800000 3.920000 -12.010754 -13.414175 324.198303
3.800000 3.800000 3.960000 -6.044836 -19.585924 420.148468
3.800000 3.800000 4.000000 5.419352 -20.786051 461.429291
3.800000 3.800000 4.040000 16.521133 -13.090920 444.320038
3.800000 3.800000 4.080000 20.141348 0.697849 406.160889
3.800000 3.800000 4.120000 14.336455 13.101914 377.194092
3.800000 3.800000 4.160000 3.668779 18.551426 357.615326
3.800000 3.800000 4.200000 -5.816885 17.479691 339.375732
3.800000 3.840000 3.800000 -10.343197 -16.790739 388.910645
3.800000 3.840000 3.840000 -7.684095 -15.465931 298.240326
3.800000 3.840000 3.880000 -7.267278 -16.760700 333.734406
3.800000 3.840000 3.920000 -3.850276 -20.555828 437.366699
3.800000 3.840000 3.960000 4.223959 -21.506559 480.373932
3.800000 3.840000 4.000000 12.207718 -15.607237 392.614227
3.800000 3.840000 4.040000 13.883976 -5.494568 222.955063
3.800000 3.840000 4.080000 8.611767 1.882063 77.704689
3.800000 3.840000 4.120000 2.114025 2.808247 12.355351
3.800000 3.840000 4.160000 -0.168411 0.715385 0.540139
3.800000 3.840000 4.200000 0.495914 1.579472 2.740661
3.800000 3.880000 3.800000 1.874214 -24.210964 589.683472
3.800000 3.880000 3.840000 4.030537 -20.594006 440.358307
3.800000 3.880000 3.880000 5.241508 -20.407349 443.933289
3.800000 3.880000 3.920000 9.417838 -20.447292 506.787445
3.800000 3.880000 3.960000 14.252746 -16.478201 474.671875
3.800000 3.880000 4.000000 14.684231 -9.867263 312.989502
3.800000 3.880000 4.040000 10.422802 -6.526371 151.228317
3.800000 3.880000 4.080000 7.630936 -9.110056 141.224304
3.800000 3.880000 4.120000 11.732877 -12.210163 286.748474
3.800000 3.880000 4.160000 19.464273 -7.559246 436.000153
3.800000 3.880000 4.200000 20.433666 5.581768 448.690857
3.800000 3.920000 3.800000 18.098066 -21.376762 784.505981
3.800000 3.920000 3.840000 18.382439 -15.642513 582.602295
3.800000 3.920000 3.880000 18.528482 -13.174854 516.881470
3.800000 3.920000 3.920000 19.683432 -10.360338 494.774078
3.800000 3.920000 3.960000 18.806715 -6.669620 398.176361
3.800000 3.920000 4.000000 15.489729 -6.107797 277.236877
3.800000 3.920000 4.040000 15.223524 -10.609648 344.320312
3.800000 3.920000 4.080000 23.347542 -14.201897 746.801575
3.800000 3.920000 4.120000 36.085426 -7.158230 1353.398193
3.800000 3.920000 4.160000 40.582684 12.516278 1803.611450
3.800000 3.920000 4.200000 26.664406 33.072586 1804.786377
3.800000 3.960000 3.800000 29.292534 -6.794339 904.215576
3.800000 3.960000 3.840000 25.753439 -0.251970 663.303101
3.800000 3.960000 3.880000 22.399616 2.570388 508.349701
3.800000 3.960000 3.920000 19.348427 3.781428 388.660828
3.800000 3.960000 3.960000 16.419870 2.159617 274.276093
3.800000 3.960000 4.000000 17.497234 -3.109751 315.823761
3.800000 3.960000 4.040000 27.022440 -6.611639 773.926025
3.800000 3.960000 4.080000 41.613350 1.277987 1733.304199
3.800000 3.960000 4.120000 48.168266 23.810646 2887.128662
3.800000 3.960000 4.160000 34.164955 49.902145 3657.468262
3.800000 3.960000 4.200000 1.629641 60.046741 3608.266846
3.800000 4.000000 3.800000 27.326111 12.959539 914.665955
3.800000 4.000000 3.840000 19.072514 16.916502 649.928833
3.800000 4.000000 3.880000 12.606033 15.898571 411.676636
3.800000 4.000000 3.920000 9.182088 11.670801 220.518341
3.800000 4.000000 3.960000 10.996260 5.537113 151.577347
3.800000 4.000000 4.000000 20.489429 2.282225 425.025269
3.800000 4.000000 4.040000 34.420418 9.954185 1283.850952
3.800000 4.000000 4.080000 41.097984 31.909775 2707.278076
3.800000 4.000000 4.120000 27.933289 58.824154 4240.549805
3.800000 4.000000 4.160000 -5.416805 71.759064 5178.705078
3.800000 4.000000 4.200000 -42.045841 57.096661 5027.881348
3.800000 4.040000 3.800000 11.772474 26.579323 845.051514
3.800000 4.040000 3.840000 1.170147 23.954508 575.187683
3.800000 4.040000 3.880000 -3.842876 16.415390 284.232727
3.800000 4.040000 3.920000 -1.514253 8.124487 68.300247
3.800000 4.040000 3.960000 8.180824 4.393556 86.229225
3.800000 4.040000 4.000000 20.966076 11.376095 568.991821
3.800000 4.040000 4.040000 26.681488 31.046993 1675.817627
3.800000 4.040000 4.080000 14.563004 55.290237 3269.091309
3.800000 4.040000 4.120000 -16.379780 67.546852 4830.874512
3.800000 4.040000 4.160000 -52.017609 54.519619 5678.220703
3.800000 4.040000 4.200000 -70.892288 18.905233 5383.124023
3.800000 4.080000 3.800000 -8.854845 26.129681 761.168457
3.800000 4.080000 3.840000 -16.356966 15.671873 513.157959
3.800000 4.080000 3.880000 -14.125998 3.930862 214.995514
3.800000 4.080000 3.920000 -3.379803 -1.854741 14.863129
3.800000 4.080000 3.960000 9.746562 3.921315 110.372177
3.800000 4.080000 4.000000 15.252267 21.431225 691.929016
3.800000 4.080000 4.040000 4.342985 42.296307 1807.839111
3.800000 4.080000 4.080000 -22.895208 52.051079 3233.505371
3.800000 4.080000 4.120000 -53.997154 39.582340 4482.454102
3.800000 4.080000 4.160000 -70.489510 7.123112 5019.509766
3.800000 4.080000 4.200000 -61.243214 -28.768265 4578.344238
3.800000 4.120000 3.800000 -23.257298 12.922464 707.891968
3.800000 4.120000 3.840000 -22.485474 -1.936914 509.348175
3.800000 4.120000 3.880000 -10.947821 -11.290543 247.331116
3.800000 4.120000 3.920000 4.243337 -7.978871 81.668289
3.800000 4.120000 3.960000 11.824054 7.884025 201.966095
3.800000 4.120000 4.000000 3.218057 26.984863 738.538757
3.800000 4.120000 4.040000 -20.375753 35.210510 1654.951416
3.800000 4.120000 4.080000 -46.510929 23.170403 2700.134277
3.800000 4.120000 4.120000 -58.712730 -5.816702 3481.018799
3.800000 4.120000 4.160000 -48.219158 -36.444004 3653.252441
3.800000 4.120000 4.200000 -21.001154 -51.784908 3122.725098
3.800000 4.160000 3.800000 -25.695240 -4.235666 678.186218
3.800000 4.160000 3.840000 -15.532757 -17.224480 537.949219
3.800000 4.160000 3.880000 1.514331 -18.149126 331.683990
3.800000 4.160000 3.920000 13.257705 -4.721614 198.060379
3.800000 4.160000 3.960000 9.176275 14.256719 287.458069
3.800000 4.160000 4.000000 -10.539734 23.819586 678.458679
3.800000 4.160000 4.040000 -33.305626 14.004522 1305.391357
3.800000 4.160000 4.080000 -42.644688 -11.518442 1951.243896
3.800000 4.160000 4.120000 -30.810001 -37.226974 2335.103760
3.800000 4.160000 4.160000 -5.016544 -47.291786 2261.678711
3.800000 4.160000 4.200000 18.287251 -37.538685 1743.576416
3.800000 4.200000 3.800000 -19.036074 -16.701889 641.325195
3.800000 4.200000 3.840000 -3.010644 -22.981068 537.193420
3.800000 4.200000 3.880000 12.773386 -14.399061 370.492371
3.800000 4.200000 3.920000 15.427492 3.836052 252.722809
3.800000 4.200000 3.960000 1.273902 16.963757 289.391876
3.800000 4.200000 4.000000 -19.191444 12.476037 523.963013
3.800000 4.200000 4.040000 -28.816666 -8.415945 901.228333
3.800000 4.200000 4.080000 -18.192120 -30.657574 1270.840088
3.800000 4.200000 4.120000 5.986539 -37.586197 1448.560791
3.800000 4.200000 4.160000 26.459793 -24.843010 1317.295898
3.800000 4.200000 4.200000 30.000183 -3.508451 912.320190
3.840000 3.800000 3.800000 -14.300661 -1.230082 206.022018
3.840000 3.800000 3.840000 -14.507063 -6.154662 248.334747
3.840000 3.800000 3.880000 -12.300801 -12.034311 296.134338
3.840000 3.800000 3.920000 -6.345928 -17.205084 336.285736
3.840000 3.800000 3.960000 2.971409 -18.675781 357.614075
3.840000 3.800000 4.000000 12.640863 -14.177649 360.797180
3.840000 3.800000 4.040000 18.411057 -4.327568 357.694855
3.840000 3.800000 4.080000 17.562992 7.263807 361.221588
3.840000 3.800000 4.120000 10.589504 16.240768 375.900177
3.840000 3.800000 4.160000 0.382662 19.962589 398.651398
3.840000 3.800000 4.200000 -9.870514 18.076319 424.180359
3.840000 3.840000 3.800000 -7.751363 -13.232093 235.171906
3.840000 3.840000 3.840000 -0.543125 -15.152739 229.900467
3.840000 3.840000 3.880000 7.013359 -12.068970 194.847244
3.840000 3.840000 3.920000 10.836603 -4.616983 138.748505
3.840000 3.840000 3.960000 8.525637 3.040917 81.933655
3.840000 3.840000 4.000000 2.148149 6.038349 41.076210
3.840000 3.840000 4.040000 -2.832253 3.217939 18.376791
3.840000 3.840000 4.080000 -2.323448 -1.289093 7.060172
3.840000 3.840000 4.120000 2.146498 -1.621897 7.238001
3.840000 3.840000 4.160000 4.342919 3.892939 34.015919
3.840000 3.840000 4.200000 -0.718639 10.245405 105.484772
3.840000 3.880000 3.800000 7.675062 -17.085905 350.834747
3.840000 3.880000 3.840000 18.604176 -8.932496 425.904846
3.840000 3.880000 3.880000 21.210663 7.073257 499.923187
3.840000 3.880000 3.920000 9.972145 21.648514 568.101807
3.840000 3.880000 3.960000 -10.127634 22.853157 624.835754
3.840000 3.880000 4.000000 -24.715210 7.162334 662.140625
3.840000 3.880000 4.040000 -21.299366 -14.880239 675.084473
3.840000 3.880000 4.080000 -1.249546 -25.788910 666.629211
3.840000 3.880000 4.120000 19.645184 -16.121981 645.851501
3.840000 3.880000 4.160000 24.097092 6.388273 621.479858
3.840000 3.880000 4.200000 8.567047 22.884233 597.082458
3.840000 3.920000 3.800000 22.381363 -6.868508 548.101807
3.840000 3.920000 3.840000 26.926281 12.932076 892.263184
3.840000 3.920000 3.880000 13.378569 34.136459 1344.283936
3.840000 3.920000 3.920000 -15.868442 39.271423 1794.052246
3.840000 3.920000 3.960000 -42.125443 18.188747 2105.383301
3.840000 3.920000 4.000000 -43.224037 -18.712940 2218.491455
3.840000 3.920000 4.040000 -13.875416 -44.789749 2198.648682
3.840000 3.920000 4.080000 26.212772 -38.527557 2171.482178
3.840000 3.920000 4.120000 46.741592 -3.299843 2195.665283
3.840000 3.920000 4.160000 32.384037 33.900913 2197.997803
3.840000 3.920000 4.200000 -3.936657 45.034325 2043.587769
3.840000 3.960000 3.800000 24.379807 12.756702 757.108398
3.840000 3.960000 3.840000 13.766693 35.724506 1465.762207
3.840000 3.960000 3.880000 -16.293362 46.309696 2410.061523
3.840000 3.960000 3.920000 -49.954163 28.369135 3300.226318
3.840000 3.960000 3.960000 -60.134529 -14.179166 3817.210449
3.840000 3.960000 4.000000 -31.893236 -53.469719 3876.189209
3.840000 3.960000 4.040000 19.729515 -57.702637 3718.847900
3.840000 3.960000 4.080000 57.606213 -19.548485 3700.619141
3.840000 3.960000 4.120000 52.559326 34.348671 3942.313965
3.840000 3.960000 4.160000 8.874821 64.099701 4187.533691
3.840000 3.960000 4.200000 -39.076710 49.929634 4019.957520
3.840000 4.000000 3.800000 9.808305 28.252125 894.385376
3.840000 4.000000 3.840000 -14.427366 40.728729 1866.978271
3.840000 4.000000 3.880000 -47.212700 29.894165 3122.700195
3.840000 4.000000 3.920000 -64.471169 -7.894499 4218.854980
3.840000 4.000000 3.960000 -45.221668 -51.713589 4719.294434
3.840000 4.000000 4.000000 5.542062 -67.522179 4589.958984
3.840000 4.000000 4.040000 53.981346 -37.088367 4289.532715
3.840000 4.000000 4.080000 62.479927 22.034470 4389.259277
3.840000 4.000000 4.120000 22.301823 67.279739 5023.934570
3.840000 4.000000 4.160000 -37.054924 65.773987 5699.284668
3.840000 4.000000 4.200000 -72.163956 21.784100 5682.183594
3.840000 4.040000 3.800000 -12.461256 27.760830 925.946594
3.840000 4.040000 3.840000 -37.741905 22.047461 1910.541992
3.840000 4.040000 3.880000 -55.360802 -5.515177 3095.235596
3.840000 4.040000 3.920000 -45.864273 -43.669823 4010.584961
3.840000 4.040000 3.960000 -5.884011 -65.038391 4264.613770
3.840000 4.040000 4.000000 41.384109 -47.176975 3938.311523
3.840000 4.040000 4.040000 60.058723 4.246339 3625.081787
3.840000 4.040000 4.080000 31.620071 54.376766 3956.661621
3.840000 4.040000 4.120000 -26.283855 65.605789 4994.960938
3.840000 4.040000 4.160000 -72.120453 29.371517 6064.045898
3.840000 4.040000 4.200000 -74.544174 -26.316086 6249.370117
3.840000 4.080000 3.800000 -27.445583 11.179146 878.233398
3.840000 4.080000 3.840000 -39.641415 -7.410768 1626.361206
3.840000 4.080000 3.880000 -34.885696 -34.487183 2406.377441
3.840000 4.080000 3.920000 -7.980233 -52.986389 2871.241455
3.840000 4.080000 3.960000 28.541334 -44.680641 2810.967529
3.840000 4.080000 4.000000 48.581268 -7.982708 2423.863281
3.840000 4.080000 4.040000 32.575336 34.765556 2269.796387
3.840000 4.080000 4.080000 -13.121552 51.629719 2837.802979
3.840000 4.080000 4.120000 -57.506008 27.376637 4056.421143
3.840000 4.080000 4.160000 -68.808884 -22.098543 5223.008301
3.840000 4.080000 4.200000 -40.606579 -61.964378 5488.478516
3.840000 4.120000 3.800000 -26.321190 -9.901873 790.852112
3.840000 4.120000 3.840000 -21.094372 -27.302855 1190.418457
3.840000 4.120000 3.880000 -2.959847 -38.340343 1478.742676
3.840000 4.120000 3.920000 20.656473 -32.842392 1505.312500
3.840000 4.120000 3.960000 34.360039 -9.321942 1267.510864
3.840000 4.120000 4.000000 25.042305 19.445686 1005.251770
3.840000 4.120000 4.040000 -5.530838 32.630623 1095.347778
3.840000 4.120000 4.080000 -38.228474 17.310322 1761.063354
3.840000 4.120000 4.120000 -49.491051 -19.124182 2815.098389
3.840000 4.120000 4.160000 -30.226501 -52.757530 3696.998291
3.840000 4.120000 4.200000 6.227295 -61.642155 3838.534424
3.840000 4.160000 3.800000 -12.974290 -22.482822 673.809509
3.840000 4.160000 3.840000 1.722610 -27.628105 766.279602
3.840000 4.160000 3.880000 16.875954 -20.753866 715.520752
3.840000 4.160000 3.920000 22.850311 -4.181067 539.618042
3.840000 4.160000 3.960000 14.048985 12.446114 352.279724
3.840000 4.160000 4.000000 -5.862194 17.227444 331.150146
3.840000 4.160000 4.040000 -24.421566 4.428725 616.026489
3.840000 4.160000 4.080000 -28.127523 -19.899727 1187.156738
3.840000 4.160000 4.120000 -12.557138 -40.802563 1822.530884
3.840000 4.160000 4.160000 13.466726 -44.906216 2197.920898
3.840000 4.160000 4.200000 34.044502 -30.514105 2090.138672
3.840000 4.200000 3.800000 1.097811 -22.842241 522.973206
3.840000 4.200000 3.840000 13.373328 -15.716643 425.858765
3.840000 4.200000 3.880000 16.036737 -1.595213 259.721649
3.840000 4.200000 3.920000 6.472569 9.390790 130.081085
3.840000 4.200000 3.960000 -8.777582 8.327862 146.399231
3.840000 4.200000 4.000000 -18.172216 -5.408040 359.476349
3.840000 4.200000 4.040000 -13.630529 -23.065727 717.819092
3.840000 4.200000 4.080000 3.254842 -32.654308 1076.897827
3.840000 4.200000 4.120000 22.311007 -27.754421 1268.088867
3.840000 4.200000 4.160000 32.369011 -11.984060 1191.370483
3.840000 4.200000 4.200000 29.324312 4.247797 877.959045
3.880000 3.800000 3.800000 -18.714684 0.305484 350.332703
3.880000 3.800000 3.840000 -16.669298 -9.510927 368.323242
3.880000 3.800000 3.880000 -8.633863 -16.362000 342.258606
3.880000 3.800000 3.920000 1.762280 -17.142036 296.955048
3.880000 3.800000 3.960000 10.235584 -12.383900 258.128174
3.880000 3.800000 4.000000 14.715658 -4.921841 240.775116
3.880000 3.800000 4.040000 15.594635 2.879761 251.485657
3.880000 3.800000 4.080000 13.659512 10.328238 293.254761
3.880000 3.800000 4.120000 8.511925 17.004974 361.622009
3.880000 3.800000 4.160000 -0.410894 20.851326 434.946625
3.880000 3.800000 4.200000 -11.295192 18.632622 474.755951
3.880000 3.840000 3.800000 -8.246532 -10.956674 188.053986
3.880000 3.840000 3.840000 5.769522 -8.957603 113.526047
3.880000 3.840000 3.880000 12.955944 5.298525 195.930862
3.880000 3.840000 3.920000 4.739265 20.649254 448.852325
3.880000 3.840000 3.960000 -13.563774 22.907837 708.744934
3.880000 3.840000 4.000000 -26.287716 8.835819 769.115723
3.880000 3.840000 4.040000 -21.936611 -9.634747 574.043213
3.880000 3.840000 4.080000 -4.571808 -16.098999 280.079193
3.880000 3.840000 4.120000 9.624435 -5.296999 120.687958
3.880000 3.840000 4.160000 7.700827 11.792395 198.363312
3.880000 3.840000 4.200000 -7.780169 18.518541 403.467407
3.880000 3.880000 3.800000 8.180694 -8.769396 143.826050
3.880000 3.880000 3.840000 19.681835 14.520098 598.207886
3.880000 3.880000 3.880000 4.274734 43.940262 1949.019897
3.880000 3.880000 3.920000 -35.079651 51.371208 3869.583008
3.880000 3.880000 3.960000 -70.190331 22.312187 5424.516113
3.880000 3.880000 4.000000 -70.813171 -26.699932 5727.391602
3.880000 3.880000 4.040000 -33.197533 -59.505680 4643.001953
3.880000 3.880000 4.080000 14.428806 -51.837448 2895.311523
3.880000 3.880000 4.120000 36.189724 -13.103527 1481.398560
3.880000 3.880000 4.160000 20.043060 22.755426 919.533691
3.880000 3.880000 4.200000 -13.490814 28.351627 985.816833
3.880000 3.920000 3.800000 15.990194 7.275316 308.616547
3.880000 3.920000 3.840000 5.923653 44.265778 1994.548828
3.880000 3.920000 3.880000 -40.785492 63.719498 5723.630859
3.880000 3.920000 3.920000 -95.950241 35.197647 10445.323242
3.880000 3.920000 3.960000 -113.077629 -34.024284 13944.202148
3.880000 3.920000 4.000000 -69.615089 -97.569023 14365.974609
3.880000 3.920000 4.040000 8.190205 -107.515869 11626.741211
3.880000 3.920000 4.080000 64.697289 -57.220375 7459.910645
3.880000 3.920000 4.120000 62.490726 12.065540 4050.667969
3.880000 3.920000 4.160000 13.465946 47.914291 2477.111084
3.880000 3.920000 4.200000 -35.390724 31.748001 2260.438965
3.880000 3.960000 3.800000 6.002712 24.087795 616.254395
3.880000 3.960000 3.840000 -31.398600 52.395935 3731.206055
3.880000 3.960000 3.880000 -92.204277 37.388062 9899.496094
3.880000 3.960000 3.920000 -127.473679 -31.413534 17236.349609
3.880000 3.960000 3.960000 -95.776604 -114.592323 22304.558594
3.880000 3.960000 4.000000 -6.240967 -149.830139 22488.019531
3.880000 3.960000 4.040000 81.664444 -106.281815 17964.906250
3.880000 3.960000 4.080000 106.415329 -14.874622 11545.476562
3.880000 3.960000 4.120000 57.169701 56.740993 6487.915039
3.880000 3.960000 4.160000 -18.922325 62.203926 4227.382812
3.880000 3.960000 4.200000 -60.942287 13.052835 3884.338867
3.880000 4.000000 3.800000 -15.584456 25.692429 902.976196
3.880000 4.000000 3.840000 -64.737816 25.957962 4864.800781
3.880000 4.000000 3.880000 -107.509384 -24.403387 12153.792969
3.880000 4.000000 3.920000 -96.253525 -105.479553 20390.677734
3.880000 4.000000 3.960000 -18.554024 -159.158463 25675.667969
3.880000 4.000000 4.000000 81.225540 -136.795059 25310.476562
3.880000 4.000000 4.040000 133.160751 -46.129730 19859.736328
3.880000 4.000000 4.080000 101.070488 49.873955 12702.654297
3.880000 4.000000 4.120000 14.495579 84.973793 7430.666992
3.880000 4.000000 4.160000 -57.809055 44.957436 5363.058105
3.880000 4.000000 4.200000 -67.771217 -25.010983 5218.487305
3.880000 4.040000 3.800000 -31.296589 8.109245 1045.236328
3.880000 4.040000 3.840000 -66.654861 -18.810270 4796.696777
3.880000 4.040000 3.880000 -70.821823 -78.767342 11220.024414
3.880000 4.040000 3.920000 -19.452339 -133.042206 18078.621094
3.880000 4.040000 3.960000 67.007584 -132.569824 22064.773438
3.880000 4.040000 4.000000 130.783829 -63.636475 21154.011719
3.880000 4.040000 4.040000 123.088699 32.440212 16203.195312
3.880000 4.040000 4.080000 48.267838 89.360176 10315.025391
3.880000 4.040000 4.120000 -37.429955 71.080322 6453.413574
3.880000 4.040000 4.160000 -73.389587 1.240454 5387.570312
3.880000 4.040000 4.200000 -44.536491 -60.568977 5652.100098
3.880000 4.080000 3.800000 -27.768356 -16.226995 1034.396973
3.880000 4.080000 3.840000 -34.978279 -49.663986 3689.991455
3.880000 4.080000 3.880000 -8.611979 -87.957603 7810.706055
3.880000 4.080000 3.920000 48.630913 -97.412766 11854.212891
3.880000 4.080000 3.960000 102.676872 -57.183369 13812.477539
3.880000 4.080000 4.000000 111.543800 15.835007 12692.766602
3.880000 4.080000 4.040000 62.470341 73.983643 9376.123047
3.880000 4.080000 4.080000 -12.588833 76.388321 5993.654297
3.880000 4.080000 4.120000 -60.894760 24.116936 4289.798340
3.880000 4.080000 4.160000 -52.377625 -40.482536 4382.250977
3.880000 4.080000 4.200000 -2.851887 -70.423233 4967.564941
3.880000 4.120000 3.800000 -7.745944 -29.458088 927.778564
3.880000 4.120000 3.840000 5.407786 -47.006550 2238.859863
3.880000 4.120000 3.880000 34.271416 -52.428074 3923.232910
3.880000 4.120000 3.920000 64.934471 -32.748337 5288.938965
3.880000 4.120000 3.960000 74.454094 8.506546 5615.773438
3.880000 4.120000 4.000000 49.514751 47.805038 4737.032227
3.880000 4.120000 4.040000 1.591179 57.200790 3274.462158
3.880000 4.120000 4.080000 -38.031944 27.888710 2224.208984
3.880000 4.120000 4.120000 -42.215080 -20.065990 2184.757080
3.880000 4.120000 4.160000 -10.374828 -52.764587 2891.738525
3.880000 4.120000 4.200000 31.475357 -49.913460 3482.051758
3.880000 4.160000 3.800000 13.050570 -24.277096 759.694763
3.880000 4.160000 3.840000 25.967175 -20.139538 1079.895142
3.880000 4.160000 3.880000 34.743103 -7.458897 1262.718384
3.880000 4.160000 3.920000 33.614563 9.742336 1224.851929
3.880000 4.160000 3.960000 20.418982 23.379837 963.551575
3.880000 4.160000 4.000000 -0.143219 24.647583 607.523865
3.880000 4.160000 4.040000 -16.908497 10.255335 391.069153
3.880000 4.160000 4.080000 -18.568949 -13.079702 515.884460
3.880000 4.160000 4.120000 -2.408422 -31.264641 983.278259
3.880000 4.160000 4.160000 22.161137 -32.450737 1544.166260
3.880000 4.160000 4.200000 39.755779 -16.290068 1845.888306
3.880000 4.200000 3.800000 21.017719 -9.346168 529.095398
3.880000 4.200000 3.840000 19.785879 4.230745 409.380219
3.880000 4.200000 3.880000 8.598295 11.921598 216.055191
3.880000 4.200000 3.920000 -4.174015 8.270248 85.819412
3.880000 4.200000 3.960000 -9.585579 -3.544096 104.443939
3.880000 4.200000 4.000000 -4.777390 -15.296468 256.805389
3.880000 4.200000 4.040000 6.307541 -20.411396 456.410156
3.880000 4.200000 4.080000 17.378235 -17.699459 615.273926
3.880000 4.200000 4.120000 24.335201 -10.073755 693.682556
3.880000 4.200000 4.160000 26.382196 -1.106540 697.244690
3.880000 4.200000 4.200000 24.435453 6.881836 644.451050
3.920000 3.800000 3.800000 -23.097811 -2.584394 540.187927
3.920000 3.800000 3.840000 -15.550831 -13.916199 435.488922
3.920000 3.800000 3.880000 -2.792004 -17.057652 298.758759
3.920000 3.800000 3.920000 7.559227 -11.853889 197.656616
3.920000 3.800000 3.960000 11.601780 -3.718182 148.426178
3.920000 3.800000 4.000000 11.475827 2.394028 137.425980
3.920000 3.800000 4.040000 11.257315 6.537022 169.459778
3.920000 3.800000 4.080000 11.368023 12.030198 273.957611
3.920000 3.800000 4.120000 7.999565 19.684477 451.471680
3.920000 3.800000 4.160000 -1.578702 24.937136 624.353027
3.920000 3.800000 4.200000 -13.859571 21.806498 667.611023
3.920000 3.840000 3.800000 -9.827429 -9.860081 193.799545
3.920000 3.840000 3.840000 4.451237 1.927925 23.530405
3.920000 3.840000 3.880000 -0.078812 23.207581 538.598022
3.920000 3.840000 3.920000 -24.261055 31.686543 1592.635742
3.920000 3.840000 3.960000 -47.858475 14.394707 2497.641113
3.920000 3.840000 4.000000 -47.909149 -17.482582 2600.927246
3.920000 3.840000 4.040000 -21.602028 -37.441795 1868.535645
3.920000 3.840000 4.080000 9.717903 -28.541420 909.050293
3.920000 3.840000 4.120000 20.273685 0.288990 411.105835
3.920000 3.840000 4.160000 3.971723 22.978201 543.772339
3.920000 3.840000 4.200000 -20.908056 21.250538 888.732178
3.920000 3.880000 3.800000 2.432610 -1.948845 9.715586
3.920000 3.880000 3.840000 -1.710197 33.651432 1135.343628
3.920000 3.880000 3.880000 -44.557152 54.748779 4982.768555
3.920000 3.880000 3.920000 -97.871002 28.405617 10385.612305
3.920000 3.880000 3.960000 -114.094002 -38.491463 14499.034180
3.920000 3.880000 4.000000 -71.112900 -99.119637 14881.746094
3.920000 3.880000 4.040000 3.598099 -106.845184 11428.839844
3.920000 3.880000 4.080000 55.342808 -57.854561 6409.976562
3.920000 3.880000 4.120000 50.709633 5.620701 2603.059082
3.920000 3.880000 4.160000 5.384846 34.651592 1229.729370
3.920000 3.880000 4.200000 -34.517769 16.673315 1469.475708
3.920000 3.920000 3.800000 0.091036 12.921194 166.965546
3.920000 3.920000 3.840000 -39.593990 48.856922 3954.682861
3.920000 3.920000 3.880000 -110.776810 33.485020 13392.748047
3.920000 3.920000 3.920000 -152.683365 -47.316566 25551.066406
3.920000 3.920000 3.960000 -114.955711 -145.404495 34357.281250
3.920000 3.920000 4.000000 -9.842766 -186.447083 34859.394531
3.920000 3.920000 4.040000 91.660309 -136.368027 26997.851562
3.920000 3.920000 4.080000 120.080673 -33.896999 15568.375000
3.920000 3.920000 4.120000 67.417236 43.685410 6453.499023
3.920000 3.920000 4.160000 -10.342014 48.727650 2481.341064
3.920000 3.920000 4.200000 -48.239586 -0.096339 2327.066895
3.920000 3.960000 3.800000 -16.600422 17.653683 587.226562
3.920000 3.960000 3.840000 -81.774292 23.434113 7236.192383
3.920000 3.960000 3.880000 -141.981232 -42.907295 21999.705078
3.920000 3.960000 3.920000 -128.139359 -154.133316 40176.773438
3.920000 3.960000 3.960000 -22.606405 -228.799805 52860.402344
3.920000 3.960000 4.000000 113.066925 -200.747726 53083.777344
3.920000 3.960000 4.040000 185.103851 -82.297714 41036.351562
3.920000 3.960000 4.080000 148.424820 42.310196 23820.080078
3.920000 3.960000 4.120000 44.468903 89.571548 10000.545898
3.920000 3.960000 4.160000 -39.710907 46.472885 3736.685059
3.920000 3.960000 4.200000 -49.703854 -27.515352 3227.567871
3.920000 4.000000 3.800000 -31.767735 3.115250 1018.893738
3.920000 4.000000 3.840000 -90.135269 -31.788794 9134.894531
3.920000 4.000000 3.880000 -102.079094 -124.672073 25963.267578
3.920000 4.000000 3.920000 -24.698353 -213.023911 45989.195312
3.920000 4.000000 3.960000 110.856621 -217.195389 59463.027344
3.920000 4.000000 4.000000 214.219528 -114.869766 59085.070312
3.920000 4.000000 4.040000 210.879700 30.741566 45415.289062
3.920000 4.000000 4.080000 108.296707 120.988373 26366.363281
3.920000 4.000000 4.120000 -11.058968 105.373245 11225.821289
3.920000 4.000000 4.160000 -63.215858 19.984507 4395.625488
3.920000 4.000000 4.200000 -32.053951 -53.031193 3839.763184
3.920000 4.040000 3.800000 -28.342319 -21.393408 1260.964966
3.920000 4.040000 3.840000 -51.878220 -77.024170 8624.072266
3.920000 4.040000 3.880000 -12.677086 -151.252960 23038.166016
3.920000 4.040000 3.920000 89.849953 -177.609360 39618.097656
3.920000 4.040000 3.960000 193.951172 -112.600304 50295.886719
3.920000 4.040000 4.000000 221.503052 16.580822 49338.523438
3.920000 4.040000 4.040000 146.957550 126.456665 37587.808594
3.920000 4.040000 4.080000 23.283552 145.713318 21774.494141
3.920000 4.040000 4.120000 -62.286869 74.959930 9498.645508
3.920000 4.040000 4.160000 -61.905388 -18.241535 4165.030762
3.920000 4.040000 4.200000 -1.370999 -62.326443 3886.465088
3.920000 4.080000 3.800000 -5.013202 -35.638947 1295.266724
3.920000 4.080000 3.840000 6.708778 -78.608376 6224.284668
3.920000 4.080000 3.880000 63.566505 -105.749489 15223.654297
3.920000 4.080000 3.920000 138.564484 -76.929794 25118.308594
3.920000 4.080000 3.960000 176.030518 9.213631 31071.632812
3.920000 4.080000 4.000000 138.276505 103.842407 29903.636719
3.920000 4.080000 4.040000 42.953289 143.575821 22459.000000
3.920000 4.080000 4.080000 -46.993622 103.763420 12975.248047
3.920000 4.080000 4.120000 -74.616478 19.726015 5956.734375
3.920000 4.080000 4.160000 -34.828274 -44.576939 3200.112305
3.920000 4.080000 4.200000 26.964317 -50.817230 3309.465332
3.920000 4.120000 3.800000 21.599087 -27.313948 1212.572266
3.920000 4.120000 3.840000 43.484756 -39.312023 3436.359375
3.920000 4.120000 3.880000 78.463242 -29.049789 7000.370605
3.920000 4.120000 3.920000 102.190163 12.035355 10587.678711
3.920000 4.120000 3.960000 89.147598 66.910271 12424.279297
3.920000 4.120000 4.000000 36.953346 100.705299 11507.107422
3.920000 4.120000 4.040000 -25.946571 87.892113 8398.248047
3.920000 4.120000 4.080000 -59.966843 35.438522 4851.911133
3.920000 4.120000 4.120000 -46.001823 -20.694046 2544.411133
3.920000 4.120000 4.160000 -0.516369 -44.273125 1960.376221
3.920000 4.120000 4.200000 39.818455 -27.138704 2322.018555
3.920000 4.160000 3.800000 32.305115 -3.644365 1056.901855
3.920000 4.160000 3.840000 38.233902 5.859093 1496.160278
3.920000 4.160000 3.880000 38.575104 19.764374 1878.669067
3.920000 4.160000 3.920000 30.126408 34.352295 2087.680664
3.920000 4.160000 3.960000 12.273033 43.050945 2004.011230
3.920000 4.160000 4.000000 -9.859695 38.836948 1605.522217
3.920000 4.160000 4.040000 -25.564644 19.999046 1053.512939
3.920000 4.160000 4.080000 -24.702435 -5.632637 641.936890
3.920000 4.160000 4.120000 -6.211397 -23.730736 601.729309
3.920000 4.160000 4.160000 19.088545 -23.387146 911.331177
3.920000 4.160000 4.200000 35.496086 -5.863905 1294.357544
3.920000 4.200000 3.800000 23.090296 15.999517 789.146301
3.920000 4.200000 3.840000 8.108309 23.520813 618.973328
3.920000 4.200000 3.880000 -7.573950 16.517277 330.185150
3.920000 4.200000 3.920000 -11.881329 0.663877 141.606705
3.920000 4.200000 3.960000 -3.280548 -11.291072 138.250305
3.920000 4.200000 4.000000 8.925858 -11.988045 223.384155
3.920000 4.200000 4.040000 14.938215 -5.319107 251.443176
3.920000 4.200000 4.080000 13.909060 -0.339626 193.577271
3.920000 4.200000 4.120000 12.782141 -0.763191 163.965576
3.920000 4.200000 4.160000 16.848558 -1.660229 286.630280
3.920000 4.200000 4.200000 23.115776 3.658138 547.721069
3.960000 3.800000 3.800000 -24.517773 -7.140144 652.102844
3.960000 3.800000 3.840000 -12.690689 -15.715345 408.025665
3.960000 3.800000 3.880000 0.400467 -13.847189 191.905014
3.960000 3.800000 3.920000 7.284775 -5.601082 84.440063
3.960000 3.800000 3.960000 7.590779 1.693283 60.487137
3.960000 3.800000 4.000000 6.628960 5.116714 70.123871
3.960000 3.800000 4.040000 8.129303 8.214798 133.568466
3.960000 3.800000 4.080000 9.392700 15.400185 325.388489
3.960000 3.800000 4.120000 4.465181 25.135494 651.730957
3.960000 3.800000 4.160000 -8.025072 29.987854 963.673157
3.960000 3.800000 4.200000 -21.258816 24.172974 1036.269897
3.960000 3.840000 3.800000 -13.081721 -9.507584 261.525574
3.960000 3.840000 3.840000 -7.967064 8.547825 136.539413
3.960000 3.840000 3.880000 -26.697044 23.180748 1250.079346
3.960000 3.840000 3.920000 -54.909523 12.076820 3160.905273
3.960000 3.840000 3.960000 -63.791534 -23.272865 4610.986328
3.960000 3.840000 4.000000 -38.697403 -55.556282 4583.989258
3.960000 3.840000 4.040000 4.253777 -56.374458 3196.174316
3.960000 3.840000 4.080000 31.556473 -23.799862 1562.244385
3.960000 3.840000 4.120000 23.282120 15.129910 770.971313
3.960000 3.840000 4.160000 -8.993330 29.772541 967.284180
3.960000 3.840000 4.200000 -34.717644 13.828399 1396.539429
3.960000 3.880000 3.800000 -8.712978 -1.666882 78.694489
3.960000 3.880000 3.840000 -35.620937 28.279835 2068.600098
3.960000 3.880000 3.880000 -90.814529 18.173012 8577.537109
3.960000 3.880000 3.920000 -123.774773 -45.578781 17397.619141
3.960000 3.880000 3.960000 -92.141907 -123.516190 23746.378906
3.960000 3.880000 4.000000 -6.355179 -154.180344 23811.966797
3.960000 3.880000 4.040000 74.390709 -110.558662 17757.195312
3.960000 3.880000 4.080000 93.763741 -26.444016 9490.924805
3.960000 3.880000 4.120000 47.908150 34.110550 3458.720703
3.960000 3.880000 4.160000 -14.851548 34.318474 1398.326172
3.960000 3.880000 4.200000 -41.948502 -6.819417 1806.181152
3.960000 3.920000 3.800000 -16.895987 3.330791 296.568542
3.960000 3.920000 3.840000 -78.003166 11.816509 6224.124023
3.960000 3.920000 3.880000 -136.552963 -51.620678 21311.406250
3.960000 3.920000 3.920000 -122.163651 -160.199448 40587.820312
3.960000 3.920000 3.960000 -17.368484 -232.091309 54168.039062
3.960000 3.920000 4.000000 115.490234 -202.298523 54262.687500
3.960000 3.920000 4.040000 183.894287 -85.356224 41102.792969
3.960000 3.920000 4.080000 146.371475 34.413036 22608.867188
3.960000 3.920000 4.120000 46.906643 77.315445 8177.911133
3.960000 3.920000 4.160000 -29.589161 35.395592 2128.366211
3.960000 3.920000 4.200000 -34.891495 -30.669537 2158.036865
3.960000 3.960000 3.800000 -27.679518 -6.124847 803.669434
3.960000 3.960000 3.840000 -94.478378 -42.170895 10704.548828
3.960000 3.960000 3.880000 -109.194199 -147.352936 33636.257812
3.960000 3.960000 3.920000 -20.549026 -248.276611 62063.539062
3.960000 3.960000 3.960000 134.702118 -252.232422 81765.859375
3.960000 3.960000 4.000000 251.911072 -135.055695 81699.226562
3.960000 3.960000 4.040000 247.772324 29.052195 62235.156250
3.960000 3.960000 4.080000 134.328842 129.032913 34693.730469
3.960000 3.960000 4.120000 5.857395 112.473495 12684.595703
3.960000 3.960000 4.160000 -47.476379 24.042156 2832.031738
3.960000 3.960000 4.200000 -14.494678 -46.013603 2327.347412
3.960000 4.000000 3.800000 -24.636604 -26.329315 1300.195068
3.960000 4.000000 3.840000 -59.845375 -96.899017 12970.888672
3.960000 4.000000 3.880000 -10.890156 -196.177109 38604.050781
3.960000 4.000000 3.920000 124.368027 -232.881210 69701.062500
3.960000 4.000000 3.960000 262.588562 -148.213699 90920.046875
3.960000 4.000000 4.000000 300.233582 20.610882 90565.007812
3.960000 4.000000 4.040000 205.966827 163.573303 69178.562500
3.960000 4.000000 4.080000 50.712357 190.701904 38938.957031
3.960000 4.000000 4.120000 -55.061192 107.081741 14498.234375
3.960000 4.000000 4.160000 -56.306305 -0.203796 3170.441406
3.960000 4.000000 4.200000 9.348399 -46.245934 2226.078857
3.960000 4.040000 3.800000 -2.299040 -39.515015 1566.722046
3.960000 4.040000 3.840000 8.166233 -108.336243 11803.428711
3.960000 4.040000 3.880000 94.152222 -156.641052 33401.062500
3.960000 4.040000 3.920000 213.250763 -116.651527 59083.464844
3.960000 4.040000 3.960000 275.806305 15.202400 76300.226562
3.960000 4.040000 4.000000 222.378052 162.073944 75719.960938
3.960000 4.040000 4.040000 81.219879 226.658829 57970.894531
3.960000 4.040000 4.080000 -52.115593 174.005829 32994.062500
3.960000 4.040000 4.120000 -95.889999 58.917168 12666.124023
3.960000 4.040000 4.160000 -47.546619 -26.853531 2981.792969
3.960000 4.040000 4.200000 25.965206 -34.727676 1880.203369
3.960000 4.080000 3.800000 26.002907 -30.530622 1608.270020
3.960000 4.080000 3.840000 61.787506 -66.015732 8175.772461
3.960000 4.080000 3.880000 134.404785 -58.015076 21430.394531
3.960000 4.080000 3.920000 191.039948 17.556248 36804.484375
3.960000 4.080000 3.960000 175.100952 127.292450 46863.710938
3.960000 4.080000 4.000000 79.698868 199.785980 46266.347656
3.960000 4.080000 4.040000 -39.363747 184.384186 35547.031250
3.960000 4.080000 4.080000 -107.245605 95.387169 20600.332031
3.960000 4.080000 4.120000 -91.457718 -0.575514 8364.845703
3.960000 4.080000 4.160000 -24.327648 -41.998474 2355.706299
3.960000 4.080000 4.200000 31.894932 -20.558075 1439.921143
3.960000 4.120000 3.800000 39.225933 -2.553681 1545.195068
3.960000 4.120000 3.840000 65.545250 -3.271511 4306.882324
3.960000 4.120000 3.880000 93.502029 26.159969 9426.973633
3.960000 4.120000 3.920000 92.880493 80.502113 15107.376953
3.960000 4.120000 3.960000 47.816193 127.939941 18655.017578
3.960000 4.120000 4.000000 -24.268021 132.829987 18232.742188
3.960000 4.120000 4.040000 -81.766548 86.287437 14131.291016
3.960000 4.120000 4.080000 -90.856346 16.204788 8517.470703
3.960000 4.120000 4.120000 -52.395855 -33.977356 3899.786377
3.960000 4.120000 4.160000 0.513735 -39.397842 1552.453857
3.960000 4.120000 4.200000 31.329048 -10.327490 1088.166260
3.960000 4.160000 3.800000 28.313715 24.685883 1411.059326
3.960000 4.160000 3.840000 26.903761 33.678234 1858.035889
3.960000 4.160000 3.880000 20.031666 44.247799 2359.135254
3.960000 4.160000 3.920000 5.747269 52.577087 2797.381104
3.960000 4.160000 3.960000 -14.911278 52.689331 2998.511719
3.960000 4.160000 4.000000 -35.486267 39.457115 2816.139160
3.960000 4.160000 4.040000 -45.507446 13.983856 2266.476074
3.960000 4.160000 4.080000 -37.172012 -13.762436 1571.163208
3.960000 4.160000 4.120000 -12.725170 -29.572807 1036.480835
3.960000 4.160000 4.160000 14.827940 -24.927036 841.224915
3.960000 4.160000 4.200000 30.008877 -4.053383 916.962646
3.960000 4.200000 3.800000 4.718929 33.118248 1119.086670
3.960000 4.200000 3.840000 -14.267666 27.087185 937.281860
3.960000 4.200000 3.880000 -22.417488 7.646870 561.018372
3.960000 4.200000 3.920000 -12.987732 -10.197719 272.674652
3.960000 4.200000 3.960000 4.386475 -12.999802 188.236008
3.960000 4.200000 4.000000 13.630919 -2.503098 192.067444
3.960000 4.200000 4.040000 8.994915 6.868019 128.078186
3.960000 4.200000 4.080000 0.501091 4.021919 16.426928
3.960000 4.200000 4.120000 2.234138 -6.681431 49.632893
3.960000 4.200000 4.160000 16.245962 -10.343565 370.920593
3.960000 4.200000 4.200000 29.564461 1.895666 877.650879
4.000000 3.800000 3.800000 -24.229237 -10.374718 694.690674
4.000000 3.800000 3.840000 -11.968372 -15.406782 380.610901
4.000000 3.800000 3.880000 -1.300842 -11.518822 134.375443
4.000000 3.800000 3.920000 3.201954 -4.091209 26.990505
4.000000 3.800000 3.960000 3.466583 1.461815 14.154102
4.000000 3.800000 4.000000 4.025620 5.002899 41.234612
4.000000 3.800000 4.040000 5.712097 10.493063 142.732422
4.000000 3.800000 4.080000 4.177273 19.776489 408.559143
4.000000 3.800000 4.120000 -4.890270 28.546677 838.827454
4.000000 3.800000 4.160000 -19.479900 29.566435 1253.640625
4.000000 3.800000 4.200000 -31.305311 20.240162 1389.686646
4.000000 3.840000 3.800000 -18.642056 -12.245140 497.469696
4.000000 3.840000 3.840000 -24.450119 1.049774 598.910400
4.000000 3.840000 3.880000 -45.957527 -1.271042 2113.709717
4.000000 3.840000 3.920000 -59.357246 -28.597626 4341.106934
4.000000 3.840000 3.960000 -42.721436 -63.044811 5799.769531
4.000000 3.840000 4.000000 -0.344666 -73.982040 5473.460938
4.000000 3.840000 4.040000 37.785072 -47.607437 3694.179688
4.000000 3.840000 4.080000 42.565399 -1.887985 1815.377686
4.000000 3.840000 4.120000 12.642836 28.881462 993.980164
4.000000 3.840000 4.160000 -24.993908 25.073099 1253.355713
4.000000 3.840000 4.200000 -40.918468 -2.109646 1678.771606
4.000000 3.880000 3.800000 -19.003305 -12.391767 514.681519
4.000000 3.880000 3.840000 -56.277313 -5.707508 3199.711670
4.000000 3.880000 3.880000 -93.650482 -47.651234 11041.052734
4.000000 3.880000 3.920000 -81.360931 -120.580948 21159.365234
4.000000 3.880000 3.960000 -6.978569 -167.116211 27976.529297
4.000000 3.880000 4.000000 85.007561 -141.926056 27369.291016
4.000000 3.880000 4.040000 129.188110 -56.748840 19910.000000
4.000000 3.880000 4.080000 97.684631 27.342567 10289.903320
4.000000 3.880000 4.120000 24.072685 54.167759 3513.640137
4.000000 3.880000 4.160000 -30.060276 20.332314 1317.023193
4.000000 3.880000 4.200000 -31.505306 -28.585979 1809.742554
4.000000 3.920000 3.800000 -21.686756 -19.502556 850.665039
4.000000 3.920000 3.840000 -75.057274 -47.723885 7911.163086
4.000000 3.920000 3.880000 -85.525711 -134.737610 25468.871094
4.000000 3.920000 3.920000 -8.651688 -217.673370 47456.546875
4.000000 3.920000 3.960000 123.367569 -217.245483 62415.156250
4.000000 3.920000 4.000000 220.398560 -114.358192 61653.320312
4.000000 3.920000 4.040000 212.649261 25.484375 45869.160156
4.000000 3.920000 4.080000 113.549644 107.426636 24434.003906
4.000000 3.920000 4.120000 5.578053 89.738770 8084.161621
4.000000 3.920000 4.160000 -35.961964 14.174892 1494.190430
4.000000 3.920000 4.200000 -5.797130 -41.713890 1773.655273
4.000000 3.960000 3.800000 -15.669899 -33.306911 1354.896118
4.000000 3.960000 3.840000 -50.000698 -100.271217 12554.386719
4.000000 3.960000 3.880000 -1.161926 -196.836273 38745.871094
4.000000 3.960000 3.920000 133.187668 -230.944550 71074.343750
4.000000 3.960000 3.960000 268.837067 -144.426758 93132.453125
4.000000 3.960000 4.000000 303.044067 23.524376 92389.101562
4.000000 3.960000 4.040000 207.625244 162.595184 69545.437500
4.000000 3.960000 4.080000 55.891056 186.168411 37782.484375
4.000000 3.960000 4.120000 -43.657944 103.936165 12708.742188
4.000000 3.960000 4.160000 -41.750534 3.918629 1758.462646
4.000000 3.960000 4.200000 19.524174 -33.867645 1528.210815
4.000000 4.000000 3.800000 4.647156 -41.649021 1756.237061
4.000000 4.000000 3.840000 14.259972 -119.630638 14514.835938
4.000000 4.000000 3.880000 112.318237 -175.484818 43410.308594
4.000000 4.000000 3.920000 249.112930 -129.069733 78716.250000
4.000000 4.000000 3.960000 319.840271 22.854210 102820.109375
4.000000 4.000000 4.000000 257.346069 189.902039 102289.781250
4.000000 4.000000 4.040000 97.315376 261.239319 77716.265625
4.000000 4.000000 4.080000 -50.006504 201.282761 43015.398438
4.000000 4.000000 4.120000 -95.664558 76.274208 14969.462891
4.000000 4.000000 4.160000 -43.280666 -11.528240 2006.116455
4.000000 4.000000 4.200000 29.154461 -14.740334 1067.260010
4.000000 4.040000 3.800000 30.175571 -31.443249 1899.243042
4.000000 4.040000 3.840000 75.929550 -83.617485 12757.179688
4.000000 4.040000 3.880000 176.092957 -76.327812 36834.664062
4.000000 4.040000 3.920000 255.587723 25.624378 65981.695312
4.000000 4.040000 3.960000 235.177338 174.833496 85875.132812
4.000000 4.040000 4.000000 107.322052 272.327209 85680.132812
4.000000 4.040000 4.040000 -49.649261 251.660950 65798.281250
4.000000 4.040000 4.080000 -136.389053 136.749176 37302.312500
4.000000 4.040000 4.120000 -115.691139 17.972229 13707.440430
4.000000 4.040000 4.160000 -35.862236 -28.763294 2113.427002
4.000000 4.040000 4.200000 23.243862 -1.515148 542.572754
4.000000 4.080000 3.800000 42.759567 -3.214071 1838.710815
4.000000 4.080000 3.840000 91.391617 -14.764034 8570.404297
4.000000 4.080000 3.880000 148.843277 32.024590 23179.894531
4.000000 4.080000 3.920000 155.216217 128.718475 40660.519531
4.000000 4.080000 3.960000 80.251709 214.812088 52584.570312
4.000000 4.080000 4.000000 -42.260208 225.597107 52679.980469
4.000000 4.080000 4.040000 -137.464249 149.135849 41137.921875
4.000000 4.080000 4.080000 -150.996979 37.973030 24242.039062
4.000000 4.080000 4.120000 -92.003136 -36.044548 9763.787109
4.000000 4.080000 4.160000 -18.812738 -40.729729 2012.829834
4.000000 4.080000 4.200000 15.677551 -1.981321 249.711243
4.000000 4.120000 3.800000 31.698273 26.462044 1705.020264
4.000000 4.120000 3.840000 54.195522 38.287102 4403.056641
4.000000 4.120000 3.880000 62.231968 78.103874 9973.033203
4.000000 4.120000 3.920000 31.854462 124.362320 16480.693359
4.000000 4.120000 3.960000 -33.113434 140.797806 20920.521484
4.000000 4.120000 4.000000 -98.629364 106.676628 21107.654297
4.000000 4.120000 4.040000 -125.413467 36.587044 17067.150391
4.000000 4.120000 4.080000 -100.118988 -29.335793 10884.400391
4.000000 4.120000 4.120000 -44.878891 -56.657707 5224.210449
4.000000 4.120000 4.160000 2.549059 -41.469902 1726.250488
4.000000 4.120000 4.200000 18.799509 -8.047276 418.180176
4.000000 4.160000 3.800000 4.773037 38.682796 1519.140625
4.000000 4.160000 3.840000 -0.566635 43.882912 1926.031006
4.000000 4.160000 3.880000 -11.450439 48.407501 2474.398682
4.000000 4.160000 3.920000 -27.614212 47.550690 3023.612793
4.000000 4.160000 3.960000 -45.201023 36.947052 3408.217041
4.000000 4.160000 4.000000 -56.942726 15.387756 3479.257080
4.000000 4.160000 4.040000 -55.001999 -12.342407 3177.554932
4.000000 4.160000 4.080000 -36.310257 -35.609131 2586.445068
4.000000 4.160000 4.120000 -6.842346 -43.119694 1906.125732
4.000000 4.160000 4.160000 19.898003 -30.742748 1341.047119
4.000000 4.160000 4.200000 30.846621 -5.768567 984.790344
4.000000 4.200000 3.800000 -18.175093 29.255104 1186.195068
4.000000 4.200000 3.840000 -30.271078 12.940252 1083.788330
4.000000 4.200000 3.880000 -25.765434 -8.890816 742.904236
4.000000 4.200000 3.920000 -6.762173 -19.198223 414.298767
4.000000 4.200000 3.960000 10.178514 -11.247879 230.116943
4.000000 4.200000 4.000000 11.007849 3.471909 133.226883
4.000000 4.200000 4.040000 -0.528008 7.120567 50.981274
4.000000 4.200000 4.080000 -6.569145 -4.928406 67.442848
4.000000 4.200000 4.120000 5.301924 -18.216858 359.964294
4.000000 4.200000 4.160000 27.447538 -14.188036 954.667725
4.000000 4.200000 4.200000 38.727001 9.430124 1588.707886
4.040000 3.800000 3.800000 -24.993856 -12.785797 788.169495
4.040000 3.800000 3.840000 -14.090036 -17.102707 491.031738
4.040000 3.800000 3.880000 -4.151651 -14.353867 223.269699
4.040000 3.800000 3.920000 1.612000 -7.863876 64.439095
4.040000 3.800000 3.960000 3.645958 -0.904427 14.110997
4.040000 3.800000 4.000000 3.623459 5.883007 47.739227
4.040000 3.800000 4.040000 1.389816 13.385544 181.104385
4.040000 3.800000 4.080000 -5.095976 20.818153 459.364471
4.040000 3.800000 4.120000 -16.499819 24.454172 870.250549
4.040000 3.800000 4.160000 -29.328716 20.479099 1279.567139
4.040000 3.800000 4.200000 -37.393017 9.313519 1484.979370
4.040000 3.840000 3.800000 -23.289082 -21.125175 988.654419
4.040000 3.840000 3.840000 -30.722158 -20.223354 1352.835083
4.040000 3.840000 3.880000 -39.158401 -35.117996 2766.654053
4.040000 3.840000 3.920000 -29.662056 -60.147720 4497.585938
4.040000 3.840000 3.960000 2.548508 -73.163628 5359.411621
4.040000 3.840000 4.000000 39.089554 -56.471802 4717.057617
4.040000 3.840000 4.040000 52.806194 -16.044464 3045.918945
4.040000 3.840000 4.080000 32.590042 21.150341 1509.447754
4.040000 3.840000 4.120000 -5.801571 30.268314 949.829041
4.040000 3.840000 4.160000 -33.839821 9.970387 1244.541992
4.040000 3.840000 4.200000 -35.407684 -18.400566 1592.284912
4.040000 3.880000 3.800000 -18.546371 -31.645309 1345.393555
4.040000 3.880000 3.840000 -43.301647 -47.734016 4153.568848
4.040000 3.880000 3.880000 -44.053143 -95.990685 11154.891602
4.040000 3.880000 3.920000 4.897118 -139.908264 19598.304688
4.040000 3.880000 3.960000 83.652634 -133.255081 24754.679688
4.040000 3.880000 4.000000 138.050613 -66.296227 23453.162109
4.040000 3.880000 4.040000 127.225723 19.790878 16578.064453
4.040000 3.880000 4.080000 61.521805 67.095078 8286.681641
4.040000 3.880000 4.120000 -6.976322 51.443298 2695.082031
4.040000 3.880000 4.160000 -31.820641 0.419020 1012.728760
4.040000 3.880000 4.200000 -10.841822 -36.874466 1477.271240
4.040000 3.920000 3.800000 -5.786247 -42.083118 1804.469604
4.040000 3.920000 3.840000 -25.747299 -87.633057 8342.476562
4.040000 3.920000 3.880000 13.115826 -153.398193 23703.031250
4.040000 3.920000 3.920000 112.102386 -172.553421 42341.628906
4.040000 3.920000 3.960000 208.862030 -103.747902 54386.976562
4.040000 3.920000 4.000000 228.556290 22.124046 52727.449219
4.040000 3.920000 4.040000 152.919556 122.691139 38437.507812
4.040000 3.920000 4.080000 38.827847 135.397186 19840.000000
4.040000 3.920000 4.120000 -32.883747 70.585419 6063.642090
4.040000 3.920000 4.160000 -27.962460 -4.201983 799.555847
4.040000 3.920000 4.200000 19.229012 -30.182316 1280.727051
4.040000 3.960000 3.800000 15.959612 -43.957558 2186.976074
4.040000 3.960000 3.840000 25.943373 -106.364388 11986.441406
4.040000 3.960000 3.880000 110.227257 -149.858963 34607.757812
4.040000 3.960000 3.920000 225.815308 -105.746597 62174.898438
4.040000 3.960000 3.960000 282.379456 27.316597 80484.351562
4.040000 3.960000 4.000000 223.862305 169.850983 78963.687500
4.040000 3.960000 4.040000 84.137039 226.986084 58601.726562
4.040000 3.960000 4.080000 -40.250885 171.532913 31043.675781
4.040000 3.960000 4.120000 -74.921463 64.210632 9736.230469
4.040000 3.960000 4.160000 -27.677284 -6.790947 812.148987
4.040000 3.960000 4.200000 31.494129 -4.850479 1015.407349
4.040000 4.000000 3.800000 38.141262 -29.433853 2321.107422
4.040000 4.000000 3.840000 82.590889 -79.073471 13073.869141
4.040000 4.000000 3.880000 181.371948 -69.928421 37785.769531
4.040000 4.000000 3.920000 258.577087 33.470337 67982.375000
4.040000 4.000000 3.960000 234.968018 182.161194 88392.671875
4.040000 4.000000 4.000000 105.451599 276.330444 87478.554688
4.040000 4.000000 4.040000 -49.038239 252.020279 65918.968750
4.040000 4.000000 4.080000 -130.246094 137.569519 35889.417969
4.040000 4.000000 4.120000 -106.197281 24.980442 11901.884766
4.040000 4.000000 4.160000 -29.993462 -13.989479 1095.313232
4.040000 4.000000 4.200000 19.482382 15.550571 621.383484
4.040000 4.040000 3.800000 46.673668 -0.919471 2179.276855
4.040000 4.040000 3.840000 103.854980 -16.271746 11050.626953
4.040000 4.040000 3.880000 173.093796 38.815826 31468.130859
4.040000 4.040000 3.920000 180.763794 154.166245 56442.781250
4.040000 4.040000 3.960000 91.062431 255.494507 73569.804688
4.040000 4.040000 4.000000 -52.818871 265.792908 73435.703125
4.040000 4.040000 4.040000 -160.557648 174.820801 56341.070312
4.040000 4.040000 4.080000 -171.525665 48.848175 31807.199219
4.040000 4.040000 4.120000 -103.256317 -28.775620 11489.903320
4.040000 4.040000 4.160000 -27.181837 -27.861185 1515.097900
4.040000 4.040000 4.200000 0.196096 13.708993 187.974945
4.040000 4.080000 3.800000 33.747139 27.251408 1881.508545
4.040000 4.080000 3.840000 74.189392 41.445908 7221.829102
4.040000 4.080000 3.880000 93.187401 104.091537 19518.939453
4.040000 4.080000 3.920000 49.459160 179.095657 34521.460938
4.040000 4.080000 3.960000 -49.580902 206.173920 44965.949219
4.040000 4.080000 4.000000 -146.900330 154.270004 45378.941406
4.040000 4.080000 4.040000 -181.989319 51.568233 35779.394531
4.040000 4.080000 4.080000 -141.401108 -37.550491 21404.312500
4.040000 4.080000 4.120000 -66.321274 -66.673866 8843.916016
4.040000 4.080000 4.160000 -12.504829 -41.379021 1868.594116
4.040000 4.080000 4.200000 -3.257624 -4.117478 27.565741
4.040000 4.120000 3.800000 6.296331 38.985374 1559.503174
4.040000 4.120000 3.840000 17.521307 57.828087 3651.083740
4.040000 4.120000 3.880000 3.609406 91.205360 8331.445312
4.040000 4.120000 3.920000 -42.539589 110.141663 13940.801758
4.040000 4.120000 3.960000 -99.413368 89.649414 17920.035156
4.040000 4.120000 4.000000 -131.840546 31.897919 18399.406250
4.040000 4.120000 4.040000 -119.151505 -33.387856 15311.830078
4.040000 4.120000 4.080000 -71.234970 -71.995094 10257.714844
4.040000 4.120000 4.120000 -18.841051 -70.719040 5356.167969
4.040000 4.120000 4.160000 11.473203 -43.376438 2013.149780
4.040000 4.120000 4.200000 14.732376 -14.879314 438.436890
4.040000 4.160000 3.800000 -18.387764 29.969707 1236.293213
4.040000 4.160000 3.840000 -24.473942 31.636063 1599.814209
4.040000 4.160000 3.880000 -35.620541 29.380518 2132.037598
4.040000 4.160000 3.920000 -47.616413 19.371277 2642.569092
4.040000 4.160000 3.960000 -54.794846 1.689026 3005.327881
4.040000 4.160000 4.000000 -52.555424 -20.178757 3169.254639
4.040000 4.160000 4.040000 -38.675358 -40.339146 3123.030029
4.040000 4.160000 4.080000 -14.679817 -51.548397 2872.734375
4.040000 4.160000 4.120000 12.752720 -47.818443 2449.235352
4.040000 4.160000 4.160000 32.971619 -28.795517 1916.309570
4.040000 4.160000 4.200000 36.777809 -2.522568 1358.970703
4.040000 4.200000 3.800000 -27.077978 11.354095 862.132385
4.040000 4.200000 3.840000 -29.297421 -5.854801 892.617554
4.040000 4.200000 3.880000 -16.386478 -21.371925 725.275879
4.040000 4.200000 3.920000 3.762263 -21.830925 490.743927
4.040000 4.200000 3.960000 14.563435 -8.049988 276.895935
4.040000 4.200000 4.000000 8.802292 4.204014 95.154068
4.040000 4.200000 4.040000 -2.255219 0.943880 5.976920
4.040000 4.200000 4.080000 -0.299164 -13.625864 185.753662
4.040000 4.200000 4.120000 19.272194 -20.031433 772.675781
4.040000 4.200000 4.160000 40.089859 -4.185595 1624.715942
4.040000 4.200000 4.200000 40.323990 25.853413 2294.423096
4.080000 3.800000 3.800000 -26.810318 -17.309366 1018.407349
4.080000 3.800000 3.840000 -15.060387 -23.134478 762.019287
4.080000 3.800000 3.880000 -2.403725 -20.624321 431.140503
4.080000 3.800000 3.920000 5.686668 -11.407928 162.479034
4.080000 3.800000 3.960000 6.690468 -0.160660 44.788170
4.080000 3.800000 4.000000 1.890450 8.794712 80.920761
4.080000 3.800000 4.040000 -5.781466 13.795547 223.742462
4.080000 3.800000 4.080000 -14.356050 15.185463 436.694458
4.080000 3.800000 4.120000 -23.158760 13.144043 709.094055
4.080000 3.800000 4.160000 -31.040154 6.994733 1012.417419
4.080000 3.800000 4.200000 -35.378014 -3.106949 1261.256958
4.080000 3.840000 3.800000 -20.863710 -34.690472 1638.723267
4.080000 3.840000 3.840000 -18.053593 -41.903515 2081.836670
4.080000 3.840000 3.880000 -8.386837 -53.166386 2897.003662
4.080000 3.840000 3.920000 12.937317 -58.598549 3601.164307
4.080000 3.840000 3.960000 38.107948 -46.729012 3635.816406
4.080000 3.840000 4.000000 50.533836 -17.588257 2863.015381
4.080000 3.840000 4.040000 39.138287 13.726555 1720.223755
4.080000 3.840000 4.080000 9.559608 28.016411 876.305359
4.080000 3.840000 4.120000 -19.261555 17.868633 690.295532
4.080000 3.840000 4.160000 -30.437250 -6.507034 968.767700
4.080000 3.840000 4.200000 -22.192434 -26.910860 1216.698486
4.080000 3.880000 3.800000 -2.164974 -48.108711 2319.135010
4.080000 3.880000 3.840000 -1.820875 -67.318604 4535.109863
4.080000 3.880000 3.880000 23.918411 -91.696663 8980.369141
4.080000 3.880000 3.920000 73.776955 -91.330109 13784.227539
4.080000 3.880000 3.960000 117.273323 -49.193665 16173.048828
4.080000 3.880000 4.000000 119.504089 17.061066 14572.307617
4.080000 3.880000 4.040000 74.257729 66.009193 9871.423828
4.080000 3.880000 4.080000 12.193623 67.599586 4718.388672
4.080000 3.880000 4.120000 -25.177986 28.966635 1472.996826
4.080000 3.880000 4.160000 -20.819981 -14.063471 631.252808
4.080000 3.880000 4.200000 6.943917 -30.533384 980.505493
4.080000 3.920000 3.800000 25.090485 -47.177029 2855.204590
4.080000 3.920000 3.840000 37.434914 -77.754272 7447.099609
4.080000 3.920000 3.880000 90.364166 -95.100433 17209.775391
4.080000 3.920000 3.920000 157.646042 -59.967686 28448.398438
4.080000 3.920000 3.960000 185.436600 26.163322 35071.253906
4.080000 3.920000 4.000000 141.921448 113.410652 33003.671875
4.080000 3.920000 4.040000 50.755207 144.153458 23356.310547
4.080000 3.920000 4.080000 -26.886044 104.076073 11554.688477
4.080000 3.920000 4.120000 -45.556728 33.523682 3199.252930
4.080000 3.920000 4.160000 -12.361120 -11.428633 283.410950
4.080000 3.920000 4.200000 26.931847 -8.803101 802.818909
4.080000 3.960000 3.800000 48.155380 -27.092094 3052.922363
4.080000 3.960000 3.840000 80.689224 -54.643394 9496.651367
4.080000 3.960000 3.880000 148.632904 -41.163109 23786.142578
4.080000 3.960000 3.920000 198.425415 37.509117 40779.578125
4.080000 3.960000 3.960000 174.615112 145.022141 51521.859375
4.080000 3.960000 4.000000 75.999046 209.332031 49595.753906
4.080000 3.960000 4.040000 -36.695007 186.207993 36019.941406
4.080000 3.960000 4.080000 -92.323776 99.553535 18434.585938
4.080000 3.960000 4.120000 -70.528885 18.364805 5311.589844
4.080000 3.960000 4.160000 -13.541176 -6.229826 222.174179
4.080000 3.960000 4.200000 20.028744 18.357700 738.155762
4.080000 4.000000 3.800000 53.140362 4.988635 2848.784424
4.080000 4.000000 3.840000 97.905823 -3.126644 9595.326172
4.080000 4.000000 3.880000 151.665359 45.786106 25098.748047
4.080000 4.000000 3.920000 153.162018 143.016357 43912.281250
4.080000 4.000000 3.960000 73.544250 225.609161 56308.250000
4.080000 4.000000 4.000000 -48.656189 229.581314 55075.003906
4.080000 4.000000 4.040000 -136.343750 149.341095 40892.378906
4.080000 4.000000 4.080000 -140.700089 44.000076 21732.521484
4.080000 4.000000 4.120000 -81.138641 -16.195301 6845.766602
4.080000 4.000000 4.160000 -20.792858 -10.132406 535.008606
4.080000 4.000000 4.200000 -5.074371 24.934221 647.464661
4.080000 4.040000 3.800000 35.867611 32.566456 2347.059570
4.080000 4.040000 3.840000 73.999832 47.266579 7710.104492
4.080000 4.040000 3.880000 91.193871 110.088158 20435.724609
4.080000 4.040000 3.920000 45.326172 184.461731 36080.589844
4.080000 4.040000 3.960000 -54.998451 209.012909 46711.222656
4.080000 4.040000 4.000000 -150.415161 154.039124 46352.773438
4.080000 4.040000 4.040000 -180.672562 51.535065 35298.437500
4.080000 4.040000 4.080000 -136.757355 -31.976023 19725.041016
4.080000 4.040000 4.120000 -64.909927 -53.371017 7061.764648
4.080000 4.040000 4.160000 -20.780191 -25.286514 1071.224121
4.080000 4.040000 4.200000 -20.932007 5.558764 469.048767
4.080000 4.080000 3.800000 6.511450 41.209087 1740.587769
4.080000 4.080000 3.840000 23.998959 65.628036 4882.989258
4.080000 4.080000 3.880000 8.033482 111.591721 12517.249023
4.080000 4.080000 3.920000 -52.262039 138.588928 21938.210938
4.080000 4.080000 3.960000 -126.305298 112.049400 28508.097656
4.080000 4.080000 4.000000 -165.390808 37.429615 28755.095703
4.080000 4.080000 4.040000 -144.793396 -41.912491 22721.783203
4.080000 4.080000 4.080000 -84.144180 -81.561996 13732.602539
4.080000 4.080000 4.120000 -27.475689 -71.865967 5919.630859
4.080000 4.080000 4.160000 -4.200703 -39.687134 1592.714478
4.080000 4.080000 4.200000 -9.052988 -18.155710 411.586426
4.080000 4.120000 3.800000 -17.463551 29.612705 1181.887939
4.080000 4.120000 3.840000 -18.694096 45.615570 2430.249512
4.080000 4.120000 3.880000 -42.693027 59.595985 5374.375977
4.080000 4.120000 3.920000 -80.218674 49.728127 8907.921875
4.080000 4.120000 3.960000 -106.271538 10.796158 11410.196289
4.080000 4.120000 4.000000 -100.947815 -39.584648 11757.405273
4.080000 4.120000 4.040000 -65.811623 -74.972595 9952.059570
4.080000 4.120000 4.080000 -21.248455 -80.721390 6967.439941
4.080000 4.120000 4.120000 10.987225 -62.535542 4031.412842
4.080000 4.120000 4.160000 22.887238 -37.543194 1933.317139
4.080000 4.120000 4.200000 20.769474 -19.015123 792.945984
4.080000 4.160000 3.800000 -24.913631 10.144635 723.602661
4.080000 4.160000 3.840000 -30.714975 9.330004 1030.458740
4.080000 4.160000 3.880000 -38.333683 1.353924 1471.304443
4.080000 4.160000 3.920000 -40.809464 -13.022957 1835.009766
4.080000 4.160000 3.960000 -35.017776 -28.390991 2032.292969
4.080000 4.160000 4.000000 -22.505787 -40.033600 2109.199463
4.080000 4.160000 4.040000 -5.893768 -46.046791 2155.043457
4.080000 4.160000 4.080000 13.094398 -45.082344 2203.881104
4.080000 4.160000 4.120000 31.424393 -34.802593 2198.712891
4.080000 4.160000 4.160000 42.566925 -14.951245 2035.482910
4.080000 4.160000 4.200000 39.769592 8.262406 1649.887817
4.080000 4.200000 3.800000 -19.165825 -2.320114 372.711792
4.080000 4.200000 3.840000 -16.660324 -14.425570 485.663452
4.080000 4.200000 3.880000 -2.845975 -22.368944 508.469238
4.080000 4.200000 3.920000 13.077061 -16.871487 455.656586
4.080000 4.200000 3.960000 17.844200 -2.647400 325.424194
4.080000 4.200000 4.000000 9.958664 5.492066 129.337784
4.080000 4.200000 4.040000 2.929386 -0.420197 8.757869
4.080000 4.200000 4.080000 10.490547 -10.787750 226.427139
4.080000 4.200000 4.120000 29.544964 -7.599937 930.663940
4.080000 4.200000 4.160000 40.838844 15.029995 1893.711914
4.080000 4.200000 4.200000 28.599821 41.656422 2553.207275
4.120000 3.800000 3.800000 -26.363579 -25.003933 1320.234863
4.120000 3.800000 3.840000 -10.758659 -30.533737 1048.057861
4.120000 3.800000 3.880000 4.768456 -24.177992 607.313477
4.120000 3.800000 3.920000 11.566296 -9.663605 227.164444
4.120000 3.800000 3.960000 7.167763 4.095503 68.149963
4.120000 3.800000 4.000000 -3.367979 10.266197 116.738091
4.120000 3.800000 4.040000 -12.776394 8.869843 241.910339
4.120000 3.800000 4.080000 -17.994366 4.666449 345.572937
4.120000 3.800000 4.120000 -21.133308 1.029716 447.677032
4.120000 3.800000 4.160000 -24.796486 -3.226747 625.277649
4.120000 3.800000 4.200000 -27.618643 -10.941799 882.512390
4.120000 3.840000 3.800000 -8.496204 -45.571724 2148.967529
4.120000 3.840000 3.840000 7.033367 -48.237061 2376.282227
4.120000 3.840000 3.880000 23.855503 -42.946621 2413.497314
4.120000 3.840000 3.920000 36.916740 -28.519657 2176.216553
4.120000 3.840000 3.960000 40.141216 -7.961777 1674.707153
4.120000 3.840000 4.000000 30.533401 11.178379 1057.244751
4.120000 3.840000 4.040000 11.462465 20.453564 549.736389
4.120000 3.840000 4.080000 -8.282658 15.947645 322.929810
4.120000 3.840000 4.120000 -19.662670 1.113979 387.861542
4.120000 3.840000 4.160000 -18.976089 -15.559586 602.192688
4.120000 3.840000 4.200000 -9.476359 -26.298609 781.418213
4.120000 3.880000 3.800000 23.482019 -49.159409 2968.052734
4.120000 3.880000 3.840000 39.548782 -50.554977 4119.912109
4.120000 3.880000 3.880000 62.236450 -42.667912 5693.926270
4.120000 3.880000 3.920000 81.607735 -17.477558 6965.287109
4.120000 3.880000 3.960000 81.733887 20.185078 7087.865723
4.120000 3.880000 4.000000 55.800423 51.593914 5775.619141
4.120000 3.880000 4.040000 15.589653 57.900406 3595.494385
4.120000 3.880000 4.080000 -15.661873 36.561127 1582.010254
4.120000 3.880000 4.120000 -21.697525 4.272702 489.038574
4.120000 3.880000 4.160000 -5.822181 -17.096575 326.190674
4.120000 3.880000 4.200000 14.156911 -18.377190 538.139221
4.120000 3.920000 3.800000 52.283257 -27.907429 3512.363281
4.120000 3.920000 3.840000 70.530312 -26.831398 5694.448730
4.120000 3.920000 3.880000 97.075226 -8.253963 9491.727539
4.120000 3.920000 3.920000 110.310318 34.919571 13387.742188
4.120000 3.920000 3.960000 88.917450 84.969658 15126.156250
4.120000 3.920000 4.000000 35.661831 110.135078 13401.501953
4.120000 3.920000 4.040000 -19.777737 92.577911 8961.829102
4.120000 3.920000 4.080000 -44.470268 46.039246 4097.216797
4.120000 3.920000 4.120000 -30.338610 4.592645 941.523621
4.120000 3.920000 4.160000 0.776080 -7.200042 52.442902
4.120000 3.920000 4.200000 19.523966 6.373891 421.811737
4.120000 3.960000 3.800000 59.145584 9.084832 3580.734375
4.120000 3.960000 3.840000 78.467117 15.895155 6409.744141
4.120000 3.960000 3.880000 98.476562 48.762455 12075.411133
4.120000 3.960000 3.920000 89.396713 102.326057 18462.394531
4.120000 3.960000 3.960000 38.213150 143.381958 22018.630859
4.120000 3.960000 4.000000 -32.356590 138.958038 20356.285156
4.120000 3.960000 4.040000 -79.601791 88.581245 14183.082031
4.120000 3.960000 4.080000 -77.943115 27.267946 6818.670410
4.120000 3.960000 4.120000 -40.924240 -5.205633 1701.892090
4.120000 3.960000 4.160000 -6.204169 1.326208 40.250542
4.120000 3.960000 4.200000 0.595920 23.048368 531.582397
4.120000 4.000000 3.800000 38.876617 40.447021 3147.353027
4.120000 4.000000 3.840000 54.514088 54.269226 5916.934570
4.120000 4.000000 3.880000 56.966675 94.001068 12081.403320
4.120000 4.000000 3.920000 21.200924 137.695190 19409.443359
4.120000 4.000000 3.960000 -46.280624 147.550995 23913.193359
4.120000 4.000000 4.000000 -106.827133 106.386810 22730.189453
4.120000 4.000000 4.040000 -122.387466 37.219696 16363.998047
4.120000 4.000000 4.080000 -89.901428 -15.516520 8323.029297
4.120000 4.000000 4.120000 -42.687279 -25.297855 2462.185303
4.120000 4.000000 4.160000 -17.811110 -4.321322 335.909454
4.120000 4.000000 4.200000 -22.978653 13.702610 715.780029
4.120000 4.040000 3.800000 4.970969 48.456791 2372.770996
4.120000 4.040000 3.840000 11.997496 65.703133 4460.841797
4.120000 4.040000 3.880000 -4.364071 97.467094 9518.879883
4.120000 4.040000 3.920000 -52.561909 113.825470 15718.991211
4.120000 4.040000 3.960000 -108.811188 88.954773 19752.826172
4.120000 4.040000 4.000000 -135.504272 28.783894 19189.919922
4.120000 4.040000 4.040000 -115.438202 -31.230513 14301.323242
4.120000 4.040000 4.080000 -67.480392 -57.130001 7817.440430
4.120000 4.040000 4.120000 -27.953823 -45.459316 2847.965576
4.120000 4.040000 4.160000 -17.218712 -21.870558 774.805298
4.120000 4.040000 4.200000 -25.056526 -12.829896 792.435791
4.120000 4.080000 3.800000 -20.846178 32.780830 1509.145996
4.120000 4.080000 3.840000 -23.053761 46.686363 2711.092285
4.120000 4.080000 3.880000 -47.119625 59.557117 5767.309570
4.120000 4.080000 3.920000 -84.639206 48.620979 9527.794922
4.120000 4.080000 3.960000 -109.432274 8.445744 12046.753906
4.120000 4.080000 4.000000 -101.166161 -41.193413 11931.489258
4.120000 4.080000 4.040000 -64.312149 -71.964928 9315.003906
4.120000 4.080000 4.080000 -23.476908 -71.529175 5667.587891
4.120000 4.080000 4.120000 -0.658937 -51.759010 2679.429199
4.120000 4.080000 4.160000 2.267724 -34.042999 1164.068359
4.120000 4.080000 4.200000 -0.361535 -28.454285 809.777039
4.120000 4.120000 3.800000 -26.095602 9.601043 773.160522
4.120000 4.120000 3.840000 -32.897755 14.974488 1306.497559
4.120000 4.120000 3.880000 -49.414772 10.417164 2550.336914
4.120000 4.120000 3.920000 -62.178886 -10.375347 3973.861816
4.120000 4.120000 3.960000 -57.981483 -39.106956 4891.206543
4.120000 4.120000 4.000000 -36.015469 -60.112373 4910.611328
4.120000 4.120000 4.040000 -7.755791 -63.895626 4142.803223
4.120000 4.120000 4.080000 13.970432 -53.402664 3047.017578
4.120000 4.120000 4.120000 24.744545 -38.285114 2078.042480
4.120000 4.120000 4.160000 28.237249 -25.109983 1427.853516
4.120000 4.120000 4.200000 28.704624 -14.024405 1020.639404
4.120000 4.160000 3.800000 -16.435793 -3.327295 281.206177
4.120000 4.160000 3.840000 -21.230587 -6.786896 496.799774
4.120000 4.160000 3.880000 -22.180935 -17.096983 784.300659
4.120000 4.160000 3.920000 -14.672351 -27.652515 979.939514
4.120000 4.160000 3.960000 -2.143555 -31.808495 1016.375183
4.120000 4.160000 4.000000 9.003643 -29.584747 956.322876
4.120000 4.160000 4.040000 16.958614 -25.525116 939.126160
4.120000 4.160000 4.080000 24.929085 -21.276842 1074.163330
4.120000 4.160000 4.120000 34.257271 -12.983560 1342.133301
4.120000 4.160000 4.160000 39.619102 2.575962 1576.308960
4.120000 4.160000 4.200000 33.670620 20.701668 1562.269775
4.120000 4.200000 3.800000 -8.056535 -1.892833 68.490570
4.120000 4.200000 3.840000 -6.434204 -10.395452 149.464417
4.120000 4.200000 3.880000 4.831957 -14.652077 238.031158
4.120000 4.200000 3.920000 16.358353 -7.417398 322.613495
4.120000 4.200000 3.960000 17.402416 5.289672 330.824707
4.120000 4.200000 4.000000 9.321472 10.832762 204.238571
4.120000 4.200000 4.040000 4.794888 5.465015 52.857338
4.120000 4.200000 4.080000 12.628531 0.146519 159.501251
4.120000 4.200000 4.120000 25.613827 8.446703 727.414917
4.120000 4.200000 4.160000 26.700500 29.515263 1584.067505
4.120000 4.200000 4.200000 8.115818 46.147137 2195.424561
4.160000 3.800000 3.800000 -20.897491 -32.901245 1519.197021
4.160000 3.800000 3.840000 -2.137341 -34.006901 1161.037598
4.160000 3.800000 3.880000 11.940165 -21.756781 615.925049
4.160000 3.800000 3.920000 12.991321 -4.503914 189.059662
4.160000 3.800000 3.960000 2.783514 6.391920 48.604595
4.160000 3.800000 4.000000 -9.124114 6.238493 122.168251
4.160000 3.800000 4.040000 -14.700229 -0.142694 216.117081
4.160000 3.800000 4.080000 -14.191795 -4.876423 225.186569
4.160000 3.800000 4.120000 -13.658781 -5.576953 217.664703
4.160000 3.800000 4.160000 -16.670366 -6.796351 324.091522
4.160000 3.800000 4.200000 -19.635536 -13.357037 563.964722
4.160000 3.840000 3.800000 8.731606 -46.265564 2216.743408
4.160000 3.840000 3.840000 27.395025 -35.818192 2033.430298
4.160000 3.840000 3.880000 35.203407 -16.417576 1508.816650
4.160000 3.840000 3.920000 29.693089 1.960724 885.523926
4.160000 3.840000 3.960000 16.176447 11.511538 394.192932
4.160000 3.840000 4.000000 2.721498 11.165803 132.081711
4.160000 3.840000 4.040000 -5.826931 5.137887 60.351006
4.160000 3.840000 4.080000 -9.460319 -2.114362 93.968155
4.160000 3.840000 4.120000 -10.029017 -9.079144 183.012039
4.160000 3.840000 4.160000 -7.866366 -15.994193 317.693939
4.160000 3.840000 4.200000 -1.888674 -21.834538 480.314117
4.160000 3.880000 3.800000 43.033043 -32.389202 2900.903320
4.160000 3.880000 3.840000 53.169563 -12.895197 2993.288574
4.160000 3.880000 3.880000 51.271461 8.495632 2700.938477
4.160000 3.880000 3.920000 39.093800 24.808270 2143.775391
4.160000 3.880000 3.960000 21.564716 31.877872 1481.235718
4.160000 3.880000 4.000000 4.489365 28.960762 858.880127
4.160000 3.880000 4.040000 -7.085590 18.345264 386.754333
4.160000 3.880000 4.080000 -10.205330 4.619406 125.487671
4.160000 3.880000 4.120000 -5.159719 -6.748775 72.168663
4.160000 3.880000 4.160000 4.430172 -11.762733 157.988312
4.160000 3.880000 4.200000 13.497604 -9.926555 280.721802
4.160000 3.920000 3.800000 57.969189 4.613966 3381.715332
4.160000 3.920000 3.840000 55.560841 25.071159 3715.570068
4.160000 3.920000 3.880000 44.634579 42.392750 3789.390869
4.160000 3.920000 3.920000 26.939713 53.479694 3585.825684
4.160000 3.920000 3.960000 5.501750 54.910557 3045.438477
4.160000 3.920000 4.000000 -13.576823 44.768154 2188.517822
4.160000 3.920000 4.040000 -22.826942 26.253365 1210.308350
4.160000 3.920000 4.080000 -18.831051 8.094337 420.126770
4.160000 3.920000 4.120000 -6.110566 -0.814477 38.002392
4.160000 3.920000 4.160000 5.636379 1.632841 34.434937
4.160000 3.920000 4.200000 9.415867 9.292809 175.014862
4.160000 3.960000 3.800000 41.417923 41.840553 3466.076172
4.160000 3.960000 3.840000 29.583935 55.002937 3900.532227
4.160000 3.960000 3.880000 13.764055 64.191521 4310.000488
4.160000 3.960000 3.920000 -6.607852 67.244499 4565.486328
4.160000 3.960000 3.960000 -28.389240 59.510273 4347.421875
4.160000 3.960000 4.000000 -43.067535 40.108440 3463.499512
4.160000 3.960000 4.040000 -42.974503 16.660114 2124.367188
4.160000 3.960000 4.080000 -29.543699 1.291815 874.498901
4.160000 3.960000 4.120000 -13.792868 0.350282 190.365891
4.160000 3.960000 4.160000 -6.976578 8.457054 120.194405
4.160000 3.960000 4.200000 -10.356800 13.973158 302.512451
4.160000 4.000000 3.800000 4.505474 55.148674 3061.675537
4.160000 4.000000 3.840000 -9.179370 58.021706 3450.779053
4.160000 4.000000 3.880000 -24.629902 58.467461 4025.075928
4.160000 4.000000 3.920000 -42.949371 52.407196 4591.162598
4.160000 4.000000 3.960000 -58.378021 35.548344 4671.678223
4.160000 4.000000 4.000000 -61.707699 11.404005 3937.891357
4.160000 4.000000 4.040000 -50.061485 -8.570661 2579.608643
4.160000 4.000000 4.080000 -31.856077 -14.660782 1229.748169
4.160000 4.000000 4.120000 -20.017334 -8.460855 472.279724
4.160000 4.000000 4.160000 -19.745838 -1.393914 391.841125
4.160000 4.000000 4.200000 -23.913061 -2.891526 580.195374
4.160000 4.040000 3.800000 -27.004366 39.043652 2253.642578
4.160000 4.040000 3.840000 -36.326981 34.871582 2535.676758
4.160000 4.040000 3.880000 -47.399731 28.866230 3079.993652
4.160000 4.040000 3.920000 -58.460918 15.953065 3672.179199
4.160000 4.040000 3.960000 -61.972042 -4.224306 3858.378662
4.160000 4.040000 4.000000 -52.751602 -23.725609 3345.635986
4.160000 4.040000 4.040000 -35.133186 -32.707710 2304.135254
4.160000 4.040000 4.080000 -20.177412 -29.332615 1267.530273
4.160000 4.040000 4.120000 -15.090206 -21.864140 705.754883
4.160000 4.040000 4.160000 -16.299152 -19.989145 665.228271
4.160000 4.040000 4.200000 -14.076788 -24.522917 799.529419
4.160000 4.080000 3.800000 -34.402618 10.516724 1294.141602
4.160000 4.080000 3.840000 -38.393219 4.716928 1496.288696
4.160000 4.080000 3.880000 -43.386864 -4.329397 1901.163574
4.160000 4.080000 3.920000 -44.293335 -18.533131 2305.376465
4.160000 4.080000 3.960000 -36.286201 -33.096962 2412.097412
4.160000 4.080000 4.000000 -21.326805 -40.432060 2089.583984
4.160000 4.080000 4.040000 -7.317377 -38.045464 1501.001221
4.160000 4.080000 4.080000 -0.352225 -31.293205 979.388794
4.160000 4.080000 4.120000 1.273753 -27.496262 757.666809
4.160000 4.080000 4.160000 4.362075 -27.929726 799.097290
4.160000 4.080000 4.200000 12.367290 -26.754921 868.775635
4.160000 4.120000 3.800000 -21.004070 -7.090710 491.449127
4.160000 4.120000 3.840000 -22.618336 -12.032205 656.363037
4.160000 4.120000 3.880000 -21.636541 -21.145084 915.254517
4.160000 4.120000 3.920000 -13.880575 -30.245369 1107.452759
4.160000 4.120000 3.960000 -1.455954 -33.130764 1099.767334
4.160000 4.120000 4.000000 8.926498 -28.651352 900.582336
4.160000 4.120000 4.040000 13.222537 -22.043356 660.744995
4.160000 4.120000 4.080000 14.277358 -18.769045 556.119995
4.160000 4.120000 4.120000 17.859491 -18.086128 646.069458
4.160000 4.120000 4.160000 25.042927 -14.097157 825.878052
4.160000 4.120000 4.200000 30.062048 -3.344223 914.910583
4.160000 4.160000 3.800000 -6.548288 -5.017675 68.057144
4.160000 4.160000 3.840000 -7.866899 -10.810612 178.757431
4.160000 4.160000 3.880000 -1.754044 -17.806484 320.147552
4.160000 4.160000 3.920000 9.365242 -18.043056 413.259644
4.160000 4.160000 3.960000 17.034927 -10.387911 398.097443
4.160000 4.160000 4.000000 16.720358 -2.049022 283.768860
4.160000 4.160000 4.040000 13.205978 0.084732 174.405060
4.160000 4.160000 4.080000 14.636806 -1.981912 218.164078
4.160000 4.160000 4.120000 21.994469 0.502157 484.008820
4.160000 4.160000 4.160000 26.768133 12.122455 863.486877
4.160000 4.160000 4.200000 20.327501 26.442865 1112.432495
4.160000 4.200000 3.800000 -6.907595 4.973118 72.446762
4.160000 4.200000 3.840000 -5.943908 -3.999129 51.323071
4.160000 4.200000 3.880000 4.119305 -6.995470 65.905266
4.160000 4.200000 3.920000 12.534746 0.932467 157.989349
4.160000 4.200000 3.960000 10.511218 11.967158 253.698578
4.160000 4.200000 4.000000 1.766575 15.035154 229.176651
4.160000 4.200000 4.040000 -1.991206 9.422546 92.749283
4.160000 4.200000 4.080000 4.315727 6.070985 55.482353
4.160000 4.200000 4.120000 11.911049 14.318470 346.891663
4.160000 4.200000 4.160000 7.695127 29.463120 927.290405
4.160000 4.200000 4.200000 -9.823858 36.433235 1423.888794
4.200000 3.800000 3.800000 -11.815166 -36.869316 1498.944580
4.200000 3.800000 3.840000 5.525951 -32.183998 1066.345825
4.200000 3.800000 3.880000 13.976049 -17.340820 496.033997
4.200000 3.800000 3.920000 9.597214 -2.995303 101.078354
4.200000 3.800000 3.960000 -1.425477 1.957744 5.864745
4.200000 3.800000 4.000000 -9.192629 -2.203762 89.360992
4.200000 3.800000 4.040000 -9.481358 -7.829087 151.190750
4.200000 3.800000 4.080000 -6.578322 -8.694299 118.865158
4.200000 3.800000 4.120000 -7.031137 -6.275915 88.823990
4.200000 3.800000 4.160000 -11.496713 -7.039884 181.734375
4.200000 3.800000 4.200000 -13.697851 -14.022900 384.272827
4.200000 3.840000 3.800000 21.116573 -36.820602 1801.666382
4.200000 3.840000 3.840000 31.085459 -17.192585 1261.890747
4.200000 3.840000 3.880000 24.247009 2.040117 592.079529
4.200000 3.840000 3.920000 8.013322 8.884777 143.152588
4.200000 3.840000 3.960000 -4.610915 2.582313 27.928879
4.200000 3.840000 4.000000 -6.660182 -7.606409 102.215485
4.200000 3.840000 4.040000 -1.822736 -12.459766 158.568146
4.200000 3.840000 4.080000 1.636460 -11.135391 126.674942
4.200000 3.840000 4.120000 0.359106 -9.810076 96.366547
4.200000 3.840000 4.160000 -1.267450 -13.193561 175.676468
4.200000 3.840000 4.200000 2.777702 -18.581144 352.974548
4.200000 3.880000 3.800000 45.124588 -9.352409 2123.696045
4.200000 3.880000 3.840000 36.581718 15.157997 1567.987061
4.200000 3.880000 3.880000 14.554348 24.627377 818.336731
4.200000 3.880000 3.920000 -4.204624 15.761318 266.098022
4.200000 3.880000 3.960000 -8.392124 -0.557185 70.738205
4.200000 3.880000 4.000000 -0.420281 -10.627252 113.115112
4.200000 3.880000 4.040000 8.683818 -9.949321 174.397675
4.200000 3.880000 4.080000 11.124877 -4.658034 145.460159
4.200000 3.880000 4.120000 8.662970 -2.751987 82.620476
4.200000 3.880000 4.160000 8.199468 -5.380100 96.176750
4.200000 3.880000 4.200000 12.904419 -6.890852 214.007874
4.200000 3.920000 3.800000 40.259335 28.997295 2461.657227
4.200000 3.920000 3.840000 14.216236 42.190948 1982.177490
4.200000 3.920000 3.880000 -11.184589 32.445831 1177.827026
4.200000 3.920000 3.920000 -19.407404 10.004511 476.737579
4.200000 3.920000 3.960000 -9.313300 -7.175586 138.226593
4.200000 3.920000 4.000000 6.493145 -9.085215 124.702049
4.200000 3.920000 4.040000 14.739923 0.030878 217.266296
4.200000 3.920000 4.080000 12.470329 8.860240 234.012970
4.200000 3.920000 4.120000 6.467893 10.640358 155.050842
4.200000 3.920000 4.160000 4.106301 7.681815 75.871994
4.200000 3.920000 4.200000 6.234898 6.239644 77.807114
4.200000 3.960000 3.800000 8.127270 51.114239 2678.717773
4.200000 3.960000 3.840000 -21.696499 43.290703 2344.822998
4.200000 3.960000 3.880000 -35.299389 17.527462 1553.258789
4.200000 3.960000 3.920000 -26.112877 -6.878089 729.190430
4.200000 3.960000 3.960000 -5.019215 -14.275669 228.987244
4.200000 3.960000 4.000000 10.695250 -4.248856 132.441147
4.200000 3.960000 4.040000 11.813034 11.087883 262.488922
4.200000 3.960000 4.080000 2.222772 19.312222 377.902618
4.200000 3.960000 4.120000 -7.757550 17.166225 354.858887
4.200000 3.960000 4.160000 -11.253284 10.058661 227.813065
4.200000 3.960000 4.200000 -8.733123 4.825221 99.550194
4.200000 4.000000 3.800000 -28.028807 42.155830 2562.728027
4.200000 4.000000 3.840000 -45.674522 17.886854 2406.101562
4.200000 4.000000 3.880000 -40.461353 -10.454153 1746.410400
4.200000 4.000000 3.920000 -18.165306 -24.448170 927.691345
4.200000 4.000000 3.960000 3.994044 -17.704298 329.394562
4.200000 4.000000 4.000000 11.565185 0.832151 134.445969
4.200000 4.000000 4.040000 2.881480 15.887686 260.721497
4.200000 4.000000 4.080000 -12.324844 17.969986 474.822205
4.200000 4.000000 4.120000 -22.341213 8.592681 572.963989
4.200000 4.000000 4.160000 -21.882627 -3.636516 492.073639
4.200000 4.000000 4.200000 -13.646330 -10.612597 298.849548
4.200000 4.040000 3.800000 -43.056808 12.393085 2007.477295
4.200000 4.040000 3.840000 -42.676441 -13.879175 2013.910156
4.200000 4.040000 3.880000 -24.218555 -31.901979 1604.274658
4.200000 4.040000 3.920000 -0.060428 -31.182472 972.350220
4.200000 4.040000 3.960000 14.144753 -14.531501 411.238525
4.200000 4.040000 4.000000 10.899653 4.756715 141.428787
4.200000 4.040000 4.040000 -4.638905 13.216250 196.188721
4.200000 4.040000 4.080000 -19.714806 6.533502 431.360199
4.200000 4.040000 4.120000 -23.699846 -8.735178 637.986084
4.200000 4.040000 4.160000 -14.960997 -21.197489 673.164917
4.200000 4.040000 4.200000 -0.524942 -22.931969 526.150757
4.200000 4.080000 3.800000 -31.586935 -12.709691 1159.270630
4.200000 4.080000 3.840000 -20.429657 -29.178492 1268.755249
4.200000 4.080000 3.880000 -0.604880 -33.828381 1144.725220
4.200000 4.080000 3.920000 16.424103 -23.513882 822.653809
4.200000 4.080000 3.960000 20.320328 -5.153721 439.476562
4.200000 4.080000 4.000000 9.649418 8.569173 166.541992
4.200000 4.080000 4.040000 -6.613478 8.369496 113.786560
4.200000 4.080000 4.080000 -15.623724 -4.574880 265.030273
4.200000 4.080000 4.120000 -10.450102 -19.560425 491.814850
4.200000 4.080000 4.160000 4.783722 -24.821331 638.982422
4.200000 4.080000 4.200000 18.624901 -16.588606 622.068787
4.200000 4.120000 3.800000 -11.047385 -16.064487 380.112488
4.200000 4.120000 3.840000 -0.795258 -22.379467 501.472992
4.200000 4.120000 3.880000 12.777906 -20.146515 569.156921
4.200000 4.120000 3.920000 21.534744 -8.355818 533.564880
4.200000 4.120000 3.960000 18.765778 6.133900 389.779144
4.200000 4.120000 4.000000 6.207108 12.750410 201.101151
4.200000 4.120000 4.040000 -5.765120 6.388244 74.046265
4.200000 4.120000 4.080000 -6.522943 -7.044033 92.167175
4.200000 4.120000 4.120000 5.045991 -15.080599 252.886475
4.200000 4.120000 4.160000 19.093260 -9.774525 460.093933
4.200000 4.120000 4.200000 23.675423 5.112725 586.665588
4.200000 4.160000 3.800000 -3.300880 -3.543751 23.453979
4.200000 4.160000 3.840000 1.307970 -8.012576 65.912163
4.200000 4.160000 3.880000 10.042639 -6.452400 142.488068
4.200000 4.160000 3.920000 14.905970 2.924406 230.740082
4.200000 4.160000 3.960000 10.008904 13.028737 269.926147
4.200000 4.160000 4.000000 -0.849391 14.514212 211.383804
4.200000 4.160000 4.040000 -6.928928 6.178653 86.185791
4.200000 4.160000 4.080000 -1.723325 -2.660339 10.047254
4.200000 4.160000 4.120000 9.529945 -1.431998 92.870483
4.200000 4.160000 4.160000 14.739226 10.404530 325.499023
4.200000 4.160000 4.200000 7.492569 22.457016 560.456177
4.200000 4.200000 3.800000 -13.275960 4.291033 194.664078
4.200000 4.200000 3.840000 -9.140159 -4.655475 105.215950
4.200000 4.200000 3.880000 0.557793 -4.783916 23.196981
4.200000 4.200000 3.920000 4.937109 3.787837 38.722752
4.200000 4.200000 3.960000 -0.452123 11.317505 128.290344
4.200000 4.200000 4.000000 -8.668051 9.901754 173.179840
4.200000 4.200000 4.040000 -9.804827 2.765155 103.780708
4.200000 4.200000 4.080000 -3.018210 0.376882 9.251635
4.200000 4.200000 4.120000 2.117914 7.734520 64.308365
4.200000 4.200000 4.160000 -3.202730 17.832094 328.241058
4.200000 4.200000 4.200000 -16.241886 19.264778 634.930542
