#kx 	ky 	kz 	real 	imag 	intensity
3.800000 3.800000 3.983333 -54.305313 -63.454605 6975.553711
3.800000 3.800000 3.991667 -9.479502 -27.496698 845.929382
3.800000 3.800000 4.000000 -36.446976 -41.501686 3050.771973
3.800000 3.800000 4.008334 -17.306917 -95.170311 9356.916992
3.800000 3.800000 4.016667 90.012848 -44.927376 10120.782227
3.800000 3.900000 3.983333 -31.133247 -50.729805 3542.792236
3.800000 3.900000 3.991667 42.427269 -6.463829 1841.854248
3.800000 3.900000 4.000000 -16.452324 0.196507 270.717560
3.800000 3.900000 4.008334 13.215204 -36.881405 1534.879639
3.800000 3.900000 4.016667 45.000233 -23.677282 2585.634766
3.800000 4.000000 3.983333 22.759903 -82.152153 7266.989258
3.800000 4.000000 3.991667 74.620697 -5.997334 5604.216309
3.800000 4.000000 4.000000 13.586845 50.617363 2746.719727
3.800000 4.000000 4.008334 3.258016 -53.778873 2902.781982
3.800000 4.000000 4.016667 133.901886 82.946808 24809.886719
3.800000 4.100000 3.983333 26.261871 -6.901447 737.315918
3.800000 4.100000 3.991667 109.621170 117.030739 25712.994141
3.800000 4.100000 4.000000 -162.952591 98.319084 36220.187500
3.800000 4.100000 4.008334 33.192795 -47.518723 3359.790527
3.800000 4.100000 4.016667 -148.510498 128.648743 38605.867188
3.800000 4.200000 3.983333 19.238503 -51.386681 3010.710938
3.800000 4.200000 3.991667 -46.892521 158.701294 27385.009766
3.800000 4.200000 4.000000 -136.278549 -156.489014 43060.656250
3.800000 4.200000 4.008334 71.517197 -12.463699 5270.053223
3.800000 4.200000 4.016667 -33.771732 -149.597961 23520.080078
3.900000 3.800000 3.983333 -70.923630 0.802235 5030.804688
3.900000 3.800000 3.991667 -26.276100 -175.610947 31529.638672
3.900000 3.800000 4.000000 73.029060 25.255096 5971.063477
3.900000 3.800000 4.008334 -50.558895 -118.379219 16569.841797
3.900000 3.800000 4.016667 157.499359 14.439199 25014.539062
3.900000 3.900000 3.983333 344.269043 -762.119324 699347.062500
3.900000 3.900000 3.991667 -37.466995 617.580627 382809.625000
3.900000 3.900000 4.000000 -772.589111 -478.060547 825435.812500
3.900000 3.900000 4.008334 4.450470 -669.967834 448876.718750
3.900000 3.900000 4.016667 346.022491 -667.248718 564952.375000
3.900000 4.000000 3.983333 1202.326538 341.004730 1561873.375000
3.900000 4.000000 3.991667 -962.933350 10.355652 927347.875000
3.900000 4.000000 4.000000 542.960815 -1207.601562 1753108.000000
3.900000 4.000000 4.008334 897.021362 -283.690155 885127.437500
3.900000 4.000000 4.016667 1246.324219 353.668884 1678405.625000
3.900000 4.100000 3.983333 -9.141354 775.902222 602107.812500
3.900000 4.100000 3.991667 -160.568192 -469.725464 246424.156250
3.900000 4.100000 4.000000 676.649414 130.442932 474869.812500
3.900000 4.100000 4.008334 328.716248 466.126831 325328.593750
3.900000 4.100000 4.016667 -112.715508 825.011841 693349.375000
3.900000 4.200000 3.983333 31.507118 179.287720 33136.785156
3.900000 4.200000 3.991667 -254.310364 -66.150505 69049.648438
3.900000 4.200000 4.000000 118.374374 -169.156784 42626.507812
3.900000 4.200000 4.008334 18.816801 72.113823 5554.475098
3.900000 4.200000 4.016667 15.429287 -43.783154 2155.027344
4.000000 3.800000 3.983333 -87.787521 -156.883606 32319.113281
4.000000 3.800000 3.991667 222.389954 -111.513550 61892.562500
4.000000 3.800000 4.000000 -17.894081 72.519501 5579.276367
4.000000 3.800000 4.008334 100.182190 -173.875031 40268.996094
4.000000 3.800000 4.016667 165.852753 121.876816 42361.093750
4.000000 3.900000 3.983333 1236.550415 285.953247 1610826.125000
4.000000 3.900000 3.991667 -906.851013 70.245544 827313.187500
4.000000 3.900000 4.000000 547.793945 -1288.817139 1961127.875000
4.000000 3.900000 4.008334 1054.086792 -201.863647 1151847.875000
4.000000 3.900000 4.016667 1177.642578 393.910065 1542007.125000
4.000000 4.000000 3.983333 -232.431015 1851.591553 3482415.500000
4.000000 4.000000 3.991667 -198.167908 -1475.675781 2216889.500000
4.000000 4.000000 4.000000 2012.585205 560.508911 4364669.500000
4.000000 4.000000 4.008334 634.802429 1293.682251 2076587.875000
4.000000 4.000000 4.016667 -126.413925 1996.171143 4000679.750000
4.000000 4.100000 3.983333 -1169.502808 123.666504 1383030.250000
4.000000 4.100000 3.991667 798.415894 -300.176361 727573.812500
4.000000 4.100000 4.000000 -132.949539 1180.577271 1411438.375000
4.000000 4.100000 4.008334 -633.230347 542.560303 695352.375000
4.000000 4.100000 4.016667 -1321.558838 141.641357 1766580.000000
4.000000 4.200000 3.983333 -218.100113 23.514202 48120.578125
4.000000 4.200000 3.991667 50.654942 -230.411591 55655.421875
4.000000 4.200000 4.000000 150.884628 20.233391 23175.562500
4.000000 4.200000 4.008334 -10.335320 25.691195 766.856323
4.000000 4.200000 4.016667 59.473076 -90.270950 11685.890625
4.100000 3.800000 3.983333 117.080750 -76.406189 19545.808594
4.100000 3.800000 3.991667 76.114716 114.672050 18943.128906
4.100000 3.800000 4.000000 -52.837242 39.353333 4340.458984
4.100000 3.800000 4.008334 91.781906 -42.344170 10216.946289
4.100000 3.800000 4.016667 67.949020 196.854858 43368.906250
4.100000 3.900000 3.983333 -71.068718 834.331177 701159.250000
4.100000 3.900000 3.991667 -127.637207 -590.815613 365354.343750
4.100000 3.900000 4.000000 863.546997 211.377319 790393.812500
4.100000 3.900000 4.008334 287.512787 641.917969 494722.281250
4.100000 3.900000 4.016667 -178.492188 850.983459 756032.312500
4.100000 4.000000 3.983333 -1204.015869 -22.266586 1450150.000000
4.100000 4.000000 3.991667 914.152832 -285.675385 917285.812500
4.100000 4.000000 4.000000 -136.847534 1318.502686 1757176.625000
4.100000 4.000000 4.008334 -771.520691 517.091309 862627.625000
4.100000 4.000000 4.016667 -1229.528931 90.076408 1519855.125000
4.100000 4.100000 3.983333 -118.367020 -765.180054 599511.250000
4.100000 4.100000 3.991667 288.866699 457.580688 292824.062500
4.100000 4.100000 4.000000 -721.628357 14.770370 520965.656250
4.100000 4.100000 4.008334 -346.234772 -369.681549 256542.968750
4.100000 4.100000 4.016667 -161.869232 -764.725830 611007.250000
4.100000 4.200000 3.983333 43.488365 -88.999374 9812.126953
4.100000 4.200000 3.991667 140.890274 34.080475 21011.546875
4.100000 4.200000 4.000000 64.575569 128.819016 20764.341797
4.100000 4.200000 4.008334 -10.196995 56.117455 3253.147461
4.100000 4.200000 4.016667 84.037827 105.875679 18272.015625
4.200000 3.800000 3.983333 -7.873801 47.287476 2298.102295
4.200000 3.800000 3.991667 -12.061075 -58.411114 3557.327637
4.200000 3.800000 4.000000 -34.554539 -45.995483 3309.600586
4.200000 3.800000 4.008334 135.367172 -65.504532 22615.115234
4.200000 3.800000 4.016667 -35.348446 168.345337 29589.664062
4.200000 3.900000 3.983333 -65.528168 -68.833694 9032.018555
4.200000 3.900000 3.991667 112.264130 -11.401868 12733.237305
4.200000 3.900000 4.000000 34.170429 36.975632 2534.815674
4.200000 3.900000 4.008334 18.640451 97.071716 9770.384766
4.200000 3.900000 4.016667 -91.243370 -33.921978 9476.052734
4.200000 4.000000 3.983333 123.969757 -92.376602 23901.937500
4.200000 4.000000 3.991667 57.079811 44.926167 5276.465332
4.200000 4.000000 4.000000 2.196907 25.584126 659.373901
4.200000 4.000000 4.008334 4.920158 -30.803921 973.089478
4.200000 4.000000 4.016667 83.249390 33.487244 8051.856445
4.200000 4.100000 3.983333 127.168068 98.129723 25801.160156
4.200000 4.100000 3.991667 71.592361 58.385551 8534.338867
4.200000 4.100000 4.000000 41.676929 98.721359 11482.874023
4.200000 4.100000 4.008334 46.820877 78.819283 8404.673828
4.200000 4.100000 4.016667 -39.872734 149.879333 24053.648438
4.200000 4.200000 3.983333 -26.432186 142.654266 21048.900391
4.200000 4.200000 3.991667 -32.816704 72.428696 6322.852051
4.200000 4.200000 4.000000 -102.443657 96.554909 19817.554688
4.200000 4.200000 4.008334 -73.713821 16.396561 5702.574707
4.200000 4.200000 4.016667 -141.624115 37.562912 21468.363281
