#kx 	ky 	kz 	real 	imag 	intensity
4.800000 6.800000 -5.200000 -1.415969 -42.643143 1820.442627
4.800000 6.800000 -5.160000 16.047987 -39.164330 1791.382568
4.800000 6.800000 -5.120000 25.063013 -26.468899 1328.757202
4.800000 6.800000 -5.080000 23.043890 -14.888036 752.674500
4.800000 6.800000 -5.040000 16.680691 -11.641781 413.776520
4.800000 6.800000 -5.000000 14.771927 -14.967201 442.226929
4.800000 6.800000 -4.960000 19.950247 -17.125620 691.299194
4.800000 6.800000 -4.920000 27.230253 -12.466319 896.895813
4.800000 6.800000 -4.880000 29.754662 -2.349159 890.858459
4.800000 6.800000 -4.840000 25.303205 7.259495 692.952454
4.800000 6.800000 -4.800000 17.223640 11.892141 438.076782
4.800000 6.840000 -5.200000 20.145325 -36.175457 1714.497803
4.800000 6.840000 -5.160000 32.283730 -30.050777 1945.288330
4.800000 6.840000 -5.120000 38.149330 -20.164589 1861.981934
4.800000 6.840000 -5.080000 39.004539 -11.523259 1654.139648
4.800000 6.840000 -5.040000 38.286728 -5.185558 1492.763550
4.800000 6.840000 -5.000000 37.351303 0.544734 1395.416626
4.800000 6.840000 -4.960000 35.104694 6.456162 1274.021606
4.800000 6.840000 -4.920000 30.832636 11.215308 1076.434570
4.800000 6.840000 -4.880000 25.923206 13.544385 855.463013
4.800000 6.840000 -4.840000 22.196682 14.330214 698.047729
4.800000 6.840000 -4.800000 19.373260 15.549524 617.110901
4.800000 6.880000 -5.200000 28.007921 -18.421825 1123.807373
4.800000 6.880000 -5.160000 37.560219 -14.801117 1629.843018
4.800000 6.880000 -5.120000 45.468758 -6.779228 2113.365967
4.800000 6.880000 -5.080000 49.587715 5.085993 2484.808838
4.800000 6.880000 -5.040000 47.305321 18.492409 2579.762695
4.800000 6.880000 -5.000000 38.144554 28.624838 2274.388184
4.800000 6.880000 -4.960000 26.170210 31.152248 1655.342529
4.800000 6.880000 -4.920000 17.999113 26.728477 1038.379639
4.800000 6.880000 -4.880000 17.011818 21.472534 750.471680
4.800000 6.880000 -4.840000 19.729767 21.520290 852.386597
4.800000 6.880000 -4.800000 19.128555 26.808205 1084.581421
4.800000 6.920000 -5.200000 21.272043 -5.346816 481.088257
4.800000 6.920000 -5.160000 33.623085 -3.118704 1140.238159
4.800000 6.920000 -5.120000 44.026108 8.610401 2012.437256
4.800000 6.920000 -5.080000 45.012833 26.585775 2732.958496
4.800000 6.920000 -5.040000 33.866184 41.748299 2889.838867
4.800000 6.920000 -5.000000 16.572817 45.533604 2347.967285
4.800000 6.920000 -4.960000 4.173416 37.636677 1433.936768
4.800000 6.920000 -4.920000 3.335241 27.134771 747.419678
4.800000 6.920000 -4.880000 10.037306 24.473778 699.713318
4.800000 6.920000 -4.840000 13.451771 31.505152 1173.524658
4.800000 6.920000 -4.800000 6.827230 39.849545 1634.597290
4.800000 6.960000 -5.200000 12.307879 -4.346941 170.379807
4.800000 6.960000 -5.160000 27.762787 2.655065 777.821716
4.800000 6.960000 -5.120000 34.301025 20.847582 1611.182007
4.800000 6.960000 -5.080000 25.654884 39.352524 2206.794189
4.800000 6.960000 -5.040000 7.154686 46.006920 2167.826172
4.800000 6.960000 -5.000000 -7.854870 38.111488 1514.184570
4.800000 6.960000 -4.960000 -9.722892 25.303562 734.804871
4.800000 6.960000 -4.920000 -1.456139 20.687019 430.073090
4.800000 6.960000 -4.880000 4.377411 28.242832 816.819336
4.800000 6.960000 -4.840000 -1.700454 39.146030 1535.303345
4.800000 6.960000 -4.800000 -16.577049 40.992870 1955.213989
4.800000 7.000000 -5.200000 11.623613 -8.019201 199.415970
4.800000 7.000000 -5.160000 23.067142 6.928537 580.097717
4.800000 7.000000 -5.120000 18.939032 25.849274 1026.871826
4.800000 7.000000 -5.080000 2.577248 34.552689 1200.530518
4.800000 7.000000 -5.040000 -12.181503 28.071609 936.404297
4.800000 7.000000 -5.000000 -13.948211 15.526939 435.638428
4.800000 7.000000 -4.960000 -4.866309 11.169575 148.440369
4.800000 7.000000 -4.920000 1.670319 20.040066 404.394226
4.800000 7.000000 -4.880000 -5.243039 32.790459 1102.703735
4.800000 7.000000 -4.840000 -22.696558 35.227638 1756.120117
4.800000 7.000000 -4.800000 -36.843971 22.870848 1880.553955
4.800000 7.040000 -5.200000 16.107298 -4.866321 283.126099
4.800000 7.040000 -5.160000 15.753026 12.061041 393.626526
4.800000 7.040000 -5.120000 2.547108 20.776714 438.159607
4.800000 7.040000 -5.080000 -10.041805 14.761333 318.734833
4.800000 7.040000 -5.040000 -9.625896 2.712624 100.016212
4.800000 7.040000 -5.000000 1.918267 -0.066406 3.684159
4.800000 7.040000 -4.960000 9.726641 12.096428 240.931091
4.800000 7.040000 -4.920000 1.214055 28.406700 808.414551
4.800000 7.040000 -4.880000 -20.308071 31.919973 1431.302490
4.800000 7.040000 -4.840000 -38.117508 16.712740 1732.260132
4.800000 7.040000 -4.800000 -38.434753 -5.909353 1512.150635
4.800000 7.080000 -5.200000 13.758385 5.837698 223.371857
4.800000 7.080000 -5.160000 2.525907 12.998602 175.343857
4.800000 7.080000 -5.120000 -8.125070 5.657652 98.025780
4.800000 7.080000 -5.080000 -4.686932 -7.778577 82.473587
4.800000 7.080000 -5.040000 11.580280 -10.228390 238.722839
4.800000 7.080000 -5.000000 23.750671 5.884583 598.722717
4.800000 7.080000 -4.960000 15.684370 28.674339 1068.217163
4.800000 7.080000 -4.920000 -10.501374 36.860348 1468.963989
4.800000 7.080000 -4.880000 -34.750740 20.661125 1634.495972
4.800000 7.080000 -4.840000 -37.798714 -7.997840 1492.708252
4.800000 7.080000 -4.800000 -19.445915 -26.800291 1096.399170
4.800000 7.120000 -5.200000 -0.861338 12.207809 149.772507
4.800000 7.120000 -5.160000 -11.504590 2.695368 139.620605
4.800000 7.120000 -5.120000 -6.553745 -14.202167 244.653107
4.800000 7.120000 -5.080000 14.752270 -19.559464 600.202026
4.800000 7.120000 -5.040000 34.493458 -1.920748 1193.487915
4.800000 7.120000 -5.000000 31.586613 28.342819 1801.029541
4.800000 7.120000 -4.960000 3.409542 45.972656 2125.110107
4.800000 7.120000 -4.920000 -29.156471 34.250462 2023.193848
4.800000 7.120000 -4.880000 -40.120907 1.733574 1612.692383
4.800000 7.120000 -4.840000 -22.501305 -25.330610 1147.948486
4.800000 7.120000 -4.800000 6.099701 -27.629330 800.586243
4.800000 7.160000 -5.200000 -18.410538 3.152014 348.883087
4.800000 7.160000 -5.160000 -15.093904 -17.637253 538.898621
4.800000 7.160000 -5.120000 8.528632 -28.873213 906.399963
4.800000 7.160000 -5.080000 36.215351 -14.517177 1522.300049
4.800000 7.160000 -5.040000 43.036396 20.100906 2256.177734
4.800000 7.160000 -5.000000 18.776546 49.185905 2771.811768
4.800000 7.160000 -4.960000 -19.950033 48.528938 2753.061768
4.800000 7.160000 -4.920000 -42.944611 18.343304 2180.716309
4.800000 7.160000 -4.880000 -33.548374 -16.218388 1388.529541
4.800000 7.160000 -4.840000 -3.126363 -28.199966 805.012268
4.800000 7.160000 -4.800000 21.216063 -12.744541 612.544617
4.800000 7.200000 -5.200000 -23.459869 -18.190073 881.244263
4.800000 7.200000 -5.160000 -2.162970 -36.085739 1306.859009
4.800000 7.200000 -5.120000 29.994259 -29.604462 1776.079712
4.800000 7.200000 -5.080000 47.740234 2.933304 2287.734131
4.800000 7.200000 -5.040000 33.612877 40.156849 2742.397949
4.800000 7.200000 -5.000000 -4.634005 53.841057 2920.333496
4.800000 7.200000 -4.960000 -38.612522 33.715092 2627.634277
4.800000 7.200000 -4.920000 -43.540833 -2.806138 1903.678467
4.800000 7.200000 -4.880000 -19.673210 -26.175186 1072.175537
4.800000 7.200000 -4.840000 9.666935 -20.888493 529.778748
4.800000 7.200000 -4.800000 20.747435 3.013838 439.539276
4.840000 6.800000 -5.200000 39.499237 -25.191971 2194.825195
4.840000 6.800000 -5.160000 44.226662 -7.622322 2014.097412
4.840000 6.800000 -5.120000 36.230034 5.543107 1343.341431
4.840000 6.800000 -5.080000 25.315540 7.052959 690.620850
4.840000 6.800000 -5.040000 21.972288 1.526855 485.112732
4.840000 6.800000 -5.000000 26.957411 -0.385508 726.850647
4.840000 6.800000 -4.960000 31.619616 6.387501 1040.600220
4.840000 6.800000 -4.920000 27.994310 16.477905 1055.202759
4.840000 6.800000 -4.880000 17.368507 20.697021 730.031738
4.840000 6.800000 -4.840000 8.188259 16.174747 328.670044
4.840000 6.800000 -4.800000 6.457169 8.803827 119.202408
4.840000 6.840000 -5.200000 43.029739 -0.012233 1851.558594
4.840000 6.840000 -5.160000 42.692429 9.768671 1918.070312
4.840000 6.840000 -5.120000 40.095531 16.494514 1879.720581
4.840000 6.840000 -5.080000 38.216496 22.343357 1959.726074
4.840000 6.840000 -5.040000 35.072556 30.312614 2148.938721
4.840000 6.840000 -5.000000 26.353552 38.461487 2173.795654
4.840000 6.840000 -4.960000 12.250231 40.398399 1782.098755
4.840000 6.840000 -4.920000 -0.152988 32.427525 1051.567749
4.840000 6.840000 -4.880000 -2.935934 19.247334 379.079559
4.840000 6.840000 -4.840000 4.157058 10.791895 133.746124
4.840000 6.840000 -4.800000 12.587794 12.611893 317.512390
4.840000 6.880000 -5.200000 26.272696 17.279659 988.841187
4.840000 6.880000 -5.160000 31.105778 20.091949 1371.255859
4.840000 6.880000 -5.120000 36.419022 30.325888 2246.004639
4.840000 6.880000 -5.080000 33.338978 47.580605 3375.401367
4.840000 6.880000 -5.040000 16.093880 62.079258 4112.847168
4.840000 6.880000 -5.000000 -9.585062 61.350296 3855.732422
4.840000 6.880000 -4.960000 -28.232805 42.439125 2598.170654
4.840000 6.880000 -4.920000 -27.379114 17.211916 1045.865967
4.840000 6.880000 -4.880000 -9.645645 3.500627 105.292854
4.840000 6.880000 -4.840000 8.650949 9.297891 161.289703
4.840000 6.880000 -4.800000 12.228834 25.566139 803.171875
4.840000 6.920000 -5.200000 5.425364 14.031413 226.315125
4.840000 6.920000 -5.160000 19.442131 19.954306 776.170776
4.840000 6.920000 -5.120000 24.159039 41.076721 2270.956055
4.840000 6.920000 -5.080000 7.525446 63.575718 4098.504395
4.840000 6.920000 -5.040000 -25.117836 67.238838 5151.967285
4.840000 6.920000 -5.000000 -51.999962 44.203323 4657.929688
4.840000 6.920000 -4.960000 -52.828732 8.783381 2868.022461
4.840000 6.920000 -4.920000 -27.736200 -13.189415 943.257446
4.840000 6.920000 -4.880000 1.734928 -7.039347 52.562378
4.840000 6.920000 -4.840000 11.860245 17.726263 454.885803
4.840000 6.920000 -4.800000 -2.089905 37.148670 1384.391357
4.840000 6.960000 -5.200000 -0.901426 -2.073341 5.111314
4.840000 6.960000 -5.160000 14.397910 15.926611 460.956757
4.840000 6.960000 -5.120000 6.493263 43.508530 1935.154663
4.840000 6.960000 -5.080000 -25.010832 55.696510 3727.643066
4.840000 6.960000 -5.040000 -57.647011 37.023380 4693.908203
4.840000 6.960000 -5.000000 -64.318680 -1.809245 4140.166016
4.840000 6.960000 -4.960000 -38.463223 -31.116816 2447.675781
4.840000 6.960000 -4.920000 -1.411255 -28.468117 812.425293
4.840000 6.960000 -4.880000 16.534655 0.895346 274.196442
4.840000 6.960000 -4.840000 3.510209 29.599545 888.454651
4.840000 6.960000 -4.800000 -24.663473 34.243675 1780.916260
4.840000 7.000000 -5.200000 9.250139 -11.714327 222.790527
4.840000 7.000000 -5.160000 12.703146 15.560682 403.504761
4.840000 7.000000 -5.120000 -10.774356 35.259201 1359.298096
4.840000 7.000000 -5.080000 -43.534485 26.164886 2579.852539
4.840000 7.000000 -5.040000 -56.317116 -8.211243 3239.041992
4.840000 7.000000 -5.000000 -35.498325 -40.122532 2869.948730
4.840000 7.000000 -4.960000 2.633181 -42.211018 1788.703613
4.840000 7.000000 -4.920000 25.936497 -13.172331 846.212158
4.840000 7.000000 -4.880000 16.018713 21.026037 698.693359
4.840000 7.000000 -4.840000 -15.602321 31.843433 1257.436646
4.840000 7.000000 -4.800000 -40.311039 14.136427 1824.818359
4.840000 7.040000 -5.200000 20.093655 -4.783716 426.638885
4.840000 7.040000 -5.160000 6.604408 17.691225 356.597656
4.840000 7.040000 -5.120000 -21.097065 17.723665 759.214478
4.840000 7.040000 -5.080000 -36.714886 -7.731432 1407.757812
4.840000 7.040000 -5.040000 -22.754593 -36.754707 1868.680054
4.840000 7.040000 -5.000000 11.074430 -41.700867 1861.605347
4.840000 7.040000 -4.960000 35.320332 -15.836302 1498.314331
4.840000 7.040000 -4.920000 28.219702 19.305719 1169.062378
4.840000 7.040000 -4.880000 -3.845703 33.978138 1169.303345
4.840000 7.040000 -4.840000 -33.189728 17.884623 1421.417725
4.840000 7.040000 -4.800000 -37.647758 -11.991675 1561.154053
4.840000 7.080000 -5.200000 15.976851 9.120729 338.447449
4.840000 7.080000 -5.160000 -4.902309 13.658565 210.589020
4.840000 7.080000 -5.120000 -19.349312 -3.615119 387.464966
4.840000 7.080000 -5.080000 -10.129232 -26.970337 830.000366
4.840000 7.080000 -5.040000 17.944918 -31.879082 1338.295898
4.840000 7.080000 -5.000000 40.049438 -9.072018 1686.259033
4.840000 7.080000 -4.960000 34.206879 24.599834 1775.262451
4.840000 7.080000 -4.920000 2.865298 40.821564 1674.609985
4.840000 7.080000 -4.880000 -28.822109 26.261559 1520.383423
4.840000 7.080000 -4.840000 -36.620529 -5.589909 1372.310181
4.840000 7.080000 -4.800000 -18.918022 -28.579041 1174.653076
4.840000 7.120000 -5.200000 -1.298496 11.739378 139.499084
4.840000 7.120000 -5.160000 -12.582897 -1.497699 160.572403
4.840000 7.120000 -5.120000 -4.745455 -20.216570 431.229034
4.840000 7.120000 -5.080000 19.588663 -23.817034 950.966797
4.840000 7.120000 -5.040000 39.663109 -2.718148 1580.550537
4.840000 7.120000 -5.000000 34.641441 29.744389 2084.758057
4.840000 7.120000 -4.960000 4.239899 47.362869 2261.218262
4.840000 7.120000 -4.920000 -29.205000 34.875145 2069.207764
4.840000 7.120000 -4.880000 -40.505676 2.279598 1645.906372
4.840000 7.120000 -4.840000 -24.070759 -24.770981 1193.002930
4.840000 7.120000 -4.800000 2.993403 -28.677877 831.381104
4.840000 7.160000 -5.200000 -14.422508 -3.626502 221.160263
4.840000 7.160000 -5.160000 -6.154328 -20.796494 470.369904
4.840000 7.160000 -5.120000 17.063625 -24.243950 878.936401
4.840000 7.160000 -5.080000 37.339737 -4.648043 1415.860229
4.840000 7.160000 -5.040000 34.861347 27.516323 1972.461426
4.840000 7.160000 -5.000000 6.650462 48.173332 2364.898682
4.840000 7.160000 -4.960000 -28.405281 40.152298 2419.066895
4.840000 7.160000 -4.920000 -44.866531 9.015944 2094.292969
4.840000 7.160000 -4.880000 -32.675980 -21.589939 1533.845093
4.840000 7.160000 -4.840000 -4.733998 -30.884548 976.266113
4.840000 7.160000 -4.800000 16.576183 -17.803621 591.738770
4.840000 7.200000 -5.200000 -9.222126 -24.744785 697.351990
4.840000 7.200000 -5.160000 13.608604 -30.241543 1099.744995
4.840000 7.200000 -5.120000 35.703384 -13.808376 1465.402954
4.840000 7.200000 -5.080000 38.274559 17.249357 1762.482178
4.840000 7.200000 -5.040000 15.240351 41.870605 1985.415894
4.840000 7.200000 -5.000000 -19.534676 41.435249 2098.483398
4.840000 7.200000 -4.960000 -42.179054 15.753532 2027.246460
4.840000 7.200000 -4.920000 -38.232338 -16.298227 1727.343872
4.840000 7.200000 -4.880000 -13.908201 -32.659431 1260.076538
4.840000 7.200000 -4.840000 10.874847 -25.791641 783.471069
4.840000 7.200000 -4.800000 20.246849 -6.109488 447.260742
4.880000 6.800000 -5.200000 52.857338 24.625399 3400.308594
4.880000 6.800000 -5.160000 35.572441 41.281246 2969.539795
4.880000 6.800000 -5.120000 14.115719 39.744400 1778.870850
4.880000 6.800000 -5.080000 4.701614 25.534119 674.096375
4.880000 6.800000 -5.040000 10.613331 14.964611 336.582397
4.880000 6.800000 -5.000000 19.609123 18.239582 717.200073
4.880000 6.800000 -4.960000 17.651352 29.303333 1170.255615
4.880000 6.800000 -4.920000 4.076777 33.288681 1124.756348
4.880000 6.800000 -4.880000 -8.196009 23.190483 604.973083
4.880000 6.800000 -4.840000 -7.227917 7.372308 106.593704
4.880000 6.800000 -4.800000 4.995090 0.030577 24.951855
4.880000 6.840000 -5.200000 25.375231 45.899460 2750.662842
4.880000 6.840000 -5.160000 13.403082 46.880211 2377.396729
4.880000 6.840000 -5.120000 7.510323 43.977440 1990.420166
4.880000 6.840000 -5.080000 5.404825 45.043575 2058.135742
4.880000 6.840000 -5.040000 -1.459362 50.488274 2551.195312
4.880000 6.840000 -5.000000 -16.939842 51.230309 2911.502686
4.880000 6.840000 -4.960000 -33.131428 38.472694 2577.839844
4.880000 6.840000 -4.920000 -36.444901 15.276562 1561.604004
4.880000 6.840000 -4.880000 -21.792973 -3.494875 487.147797
4.880000 6.840000 -4.840000 0.328665 -4.623728 21.486879
4.880000 6.840000 -4.800000 12.650200 10.131059 262.665894
4.880000 6.880000 -5.200000 -8.673281 38.584797 1564.012329
4.880000 6.880000 -5.160000 -4.629917 36.795902 1375.374634
4.880000 6.880000 -5.120000 -2.813610 47.454247 2259.822021
4.880000 6.880000 -5.080000 -16.944277 62.268265 4164.445312
4.880000 6.880000 -5.040000 -46.482613 62.382206 6052.172852
4.880000 6.880000 -5.000000 -72.509102 36.736458 6607.137207
4.880000 6.880000 -4.960000 -72.794319 -3.826313 5313.653320
4.880000 6.880000 -4.920000 -43.248154 -32.710350 2940.369873
4.880000 6.880000 -4.880000 -4.194794 -30.376179 940.308533
4.880000 6.880000 -4.840000 16.439320 -2.342405 275.738098
4.880000 6.880000 -4.800000 7.761007 25.835032 727.682068
4.880000 6.920000 -5.200000 -23.221924 9.117188 622.380859
4.880000 6.920000 -5.160000 -8.933761 20.954018 518.882935
4.880000 6.920000 -5.120000 -17.095516 45.974918 2405.949707
4.880000 6.920000 -5.080000 -52.377941 55.915016 5869.937500
4.880000 6.920000 -5.040000 -90.523697 29.555878 9068.089844
4.880000 6.920000 -5.000000 -97.258728 -23.491070 10011.089844
4.880000 6.920000 -4.960000 -60.430893 -66.869614 8123.438477
4.880000 6.920000 -4.920000 -4.039268 -68.475426 4705.199707
4.880000 6.920000 -4.880000 31.366976 -29.655436 1863.332031
4.880000 6.920000 -4.840000 24.265043 16.125168 848.813354
4.880000 6.920000 -4.800000 -10.387829 34.106476 1271.158691
4.880000 6.960000 -5.200000 -9.478878 -16.982912 378.268433
4.880000 6.960000 -5.160000 -2.720312 12.190592 156.010635
4.880000 6.960000 -5.120000 -31.425777 35.911621 2277.224121
4.880000 6.960000 -5.080000 -76.204254 21.850597 6284.537109
4.880000 6.960000 -5.040000 -95.576683 -30.967342 10093.878906
4.880000 6.960000 -5.000000 -64.122208 -85.626457 11443.547852
4.880000 6.960000 -4.960000 0.809525 -98.114868 9627.182617
4.880000 6.960000 -4.920000 51.833580 -57.637154 6008.761719
4.880000 6.960000 -4.880000 53.318069 2.929411 2851.398193
4.880000 6.960000 -4.840000 12.184793 37.156006 1529.037842
4.880000 6.960000 -4.800000 -31.632530 26.334806 1694.138916
4.880000 7.000000 -5.200000 16.004204 -19.133266 622.216431
4.880000 7.000000 -5.160000 2.037945 13.698561 191.803772
4.880000 7.000000 -5.120000 -39.408173 17.545410 1860.845459
4.880000 7.000000 -5.080000 -69.827538 -21.928905 5356.761719
4.880000 7.000000 -5.040000 -53.571178 -77.723930 8910.880859
4.880000 7.000000 -5.000000 5.992663 -102.156540 10471.871094
4.880000 7.000000 -4.960000 65.424294 -70.536995 9255.806641
4.880000 7.000000 -4.920000 79.087875 -5.472050 6284.835449
4.880000 7.000000 -4.880000 40.136677 43.021378 3461.791748
4.880000 7.000000 -4.840000 -15.163813 42.604797 2045.109863
4.880000 7.000000 -4.800000 -42.976898 4.944091 1871.457886
4.880000 7.040000 -5.200000 28.112278 -0.690608 790.777100
4.880000 7.040000 -5.160000 -2.304314 16.605778 281.061737
4.880000 7.040000 -5.120000 -35.903023 -3.906091 1304.284668
4.880000 7.040000 -5.080000 -36.049927 -49.820862 3781.715332
4.880000 7.040000 -5.040000 7.234632 -80.389969 6514.886719
4.880000 7.040000 -5.000000 63.340393 -63.065117 7989.214355
4.880000 7.040000 -4.960000 86.338882 -5.743035 7487.385254
4.880000 7.040000 -4.920000 56.856140 48.285713 5564.130859
4.880000 7.040000 -4.880000 -0.298925 59.134766 3497.009766
4.880000 7.040000 -4.840000 -40.024010 25.227325 2238.339355
4.880000 7.040000 -4.800000 -37.987404 -19.197853 1811.600342
4.880000 7.080000 -5.200000 17.658485 16.145878 572.511475
4.880000 7.080000 -5.160000 -10.800598 10.436680 225.577209
4.880000 7.080000 -5.120000 -20.510853 -20.373112 835.758789
4.880000 7.080000 -5.080000 4.428340 -48.610714 2382.611572
4.880000 7.080000 -5.040000 47.948441 -43.400280 4182.637207
4.880000 7.080000 -5.000000 72.958420 -1.121197 5324.188477
4.880000 7.080000 -4.960000 54.793346 47.943722 5300.911133
4.880000 7.080000 -4.920000 5.008928 65.575958 4325.295898
4.880000 7.080000 -4.880000 -38.541351 39.888248 3076.508301
4.880000 7.080000 -4.840000 -45.915779 -5.438227 2137.833008
4.880000 7.080000 -4.800000 -19.885750 -35.041687 1623.362793
4.880000 7.120000 -5.200000 -1.273602 13.582808 186.114746
4.880000 7.120000 -5.160000 -11.397589 -4.684779 151.852188
4.880000 7.120000 -5.120000 1.352529 -25.108021 632.242065
4.880000 7.120000 -5.080000 30.377737 -25.213095 1558.507080
4.880000 7.120000 -5.040000 50.798279 2.617062 2587.314209
4.880000 7.120000 -5.000000 40.666039 40.539059 3297.142090
4.880000 7.120000 -4.960000 2.449439 58.634083 3443.955322
4.880000 7.120000 -4.920000 -37.076431 41.328278 3082.688232
4.880000 7.120000 -4.880000 -49.756638 1.516805 2478.023682
4.880000 7.120000 -4.840000 -30.054295 -31.445393 1892.073364
4.880000 7.120000 -4.800000 2.704211 -37.740082 1431.626465
4.880000 7.160000 -5.200000 -7.553117 -4.709070 79.224915
4.880000 7.160000 -5.160000 1.637321 -17.276882 301.171478
4.880000 7.160000 -5.120000 20.807701 -16.664116 710.653198
4.880000 7.160000 -5.080000 34.649567 2.475110 1206.718750
4.880000 7.160000 -5.040000 27.958195 29.670641 1662.007568
4.880000 7.160000 -5.000000 0.076766 44.499626 1980.222534
4.880000 7.160000 -4.960000 -31.835955 33.289627 2121.727295
4.880000 7.160000 -4.920000 -45.699894 1.689137 2091.333496
4.880000 7.160000 -4.880000 -32.579769 -29.262432 1917.731323
4.880000 7.160000 -4.840000 -3.318642 -40.385773 1642.024048
4.880000 7.160000 -4.800000 21.962675 -28.862360 1315.394897
4.880000 7.200000 -5.200000 5.209001 -19.498667 407.331696
4.880000 7.200000 -5.160000 20.779638 -16.135611 692.151306
4.880000 7.200000 -5.120000 30.303795 -0.086746 918.327515
4.880000 7.200000 -5.080000 24.670740 20.652008 1035.150879
4.880000 7.200000 -5.040000 3.786894 32.521286 1071.974609
4.880000 7.200000 -5.000000 -21.237093 25.683193 1110.640503
4.880000 7.200000 -4.960000 -34.743309 2.224206 1212.044678
4.880000 7.200000 -4.920000 -27.783134 -24.220715 1358.545654
4.880000 7.200000 -4.880000 -4.765479 -37.982162 1465.354492
4.880000 7.200000 -4.840000 20.166527 -32.291023 1449.399048
4.880000 7.200000 -4.800000 33.643040 -12.747443 1294.351440
4.920000 6.800000 -5.200000 20.842325 71.563622 5555.754395
4.920000 6.800000 -5.160000 -12.379139 69.327911 4959.602539
4.920000 6.800000 -5.120000 -32.301018 45.190247 3085.514160
4.920000 6.800000 -5.080000 -27.837963 19.214302 1144.141602
4.920000 6.800000 -5.040000 -10.024384 10.882022 218.906677
4.920000 6.800000 -5.000000 -0.206593 20.294514 411.909973
4.920000 6.800000 -4.960000 -7.874488 29.616047 939.117798
4.920000 6.800000 -4.920000 -21.701500 23.180737 1008.301636
4.920000 6.800000 -4.880000 -23.109661 4.413477 553.535217
4.920000 6.800000 -4.840000 -7.129313 -8.597086 124.737000
4.920000 6.800000 -4.800000 12.358934 -3.382723 164.186066
4.920000 6.840000 -5.200000 -26.069044 63.065723 4656.880371
4.920000 6.840000 -5.160000 -38.995449 47.782402 3803.802979
4.920000 6.840000 -5.120000 -39.338066 34.579586 2743.231201
4.920000 6.840000 -5.080000 -37.235008 30.839630 2337.528564
4.920000 6.840000 -5.040000 -43.162720 30.253399 2778.288574
4.920000 6.840000 -5.000000 -54.855927 20.057220 3411.464600
4.920000 6.840000 -4.960000 -57.933647 -3.144985 3366.198242
4.920000 6.840000 -4.920000 -41.226074 -26.369690 2394.949707
4.920000 6.840000 -4.880000 -10.963152 -31.285568 1098.977539
4.920000 6.840000 -4.840000 12.423839 -13.009302 323.593689
4.920000 6.840000 -4.800000 13.194363 13.317257 351.440552
4.920000 6.880000 -5.200000 -51.296108 22.225246 3125.252441
4.920000 6.880000 -5.160000 -42.934753 16.998882 2132.354980
4.920000 6.880000 -5.120000 -43.847546 25.452955 2570.460205
4.920000 6.880000 -5.080000 -63.757820 28.860048 4897.961914
4.920000 6.880000 -5.040000 -88.915024 7.675560 7964.795410
4.920000 6.880000 -5.000000 -92.090622 -35.673416 9753.275391
4.920000 6.880000 -4.960000 -59.209152 -73.871391 8962.706055
4.920000 6.880000 -4.920000 -6.383232 -77.540764 6053.315430
4.920000 6.880000 -4.880000 31.354738 -42.961994 2828.852539
4.920000 6.880000 -4.840000 30.579348 2.930262 943.682922
4.920000 6.880000 -4.800000 0.017235 26.320147 692.750427
4.920000 6.920000 -5.200000 -37.593948 -21.458923 1873.790283
4.920000 6.920000 -5.160000 -27.051182 -3.134926 741.594177
4.920000 6.920000 -5.120000 -48.516258 15.175532 2584.124268
4.920000 6.920000 -5.080000 -87.441849 -0.003220 7646.077148
4.920000 6.920000 -5.040000 -103.394257 -53.577259 13560.894531
4.920000 6.920000 -5.000000 -68.070480 -110.628067 16872.160156
4.920000 6.920000 -4.960000 3.955250 -124.867538 15607.545898
4.920000 6.920000 -4.920000 64.042145 -81.483963 10741.033203
4.920000 6.920000 -4.880000 71.659729 -12.393095 5288.705566
4.920000 6.920000 -4.840000 29.867130 31.876354 1908.147461
4.920000 6.920000 -4.800000 -19.997053 26.738945 1114.853271
4.920000 6.960000 -5.200000 0.948854 -37.038292 1372.735352
4.920000 6.960000 -5.160000 -8.143921 -3.957656 81.986488
4.920000 6.960000 -5.120000 -50.779442 0.442250 2578.747314
4.920000 6.960000 -5.080000 -84.171371 -45.205109 9128.321289
4.920000 6.960000 -5.040000 -63.617748 -112.918259 16797.750000
4.920000 6.960000 -5.000000 11.493147 -145.473175 21294.537109
4.920000 6.960000 -4.960000 91.041885 -108.684631 20100.972656
4.920000 6.960000 -4.920000 116.795723 -25.323263 14282.508789
4.920000 6.960000 -4.880000 74.433098 43.815662 7460.098633
4.920000 6.960000 -4.840000 4.599936 54.034042 2940.837158
4.920000 6.960000 -4.800000 -36.715816 13.596325 1532.911133
4.920000 7.000000 -5.200000 32.071201 -18.712271 1378.711060
4.920000 7.000000 -5.160000 -1.290821 6.117468 39.089630
4.920000 7.000000 -5.120000 -45.189911 -17.263834 2340.167969
4.920000 7.000000 -5.080000 -48.441811 -79.365067 8645.422852
4.920000 7.000000 -5.040000 9.839478 -127.050247 16238.581055
4.920000 7.000000 -5.000000 93.856590 -110.329468 20981.652344
4.920000 7.000000 -4.960000 138.982788 -31.304251 20296.171875
4.920000 7.000000 -4.920000 109.759575 54.196571 14984.432617
4.920000 7.000000 -4.880000 31.903772 85.815384 8382.130859
4.920000 7.000000 -4.840000 -32.773659 51.244995 3700.162109
4.920000 7.000000 -4.800000 -42.823826 -8.100549 1899.498901
4.920000 7.040000 -5.200000 34.411617 11.412026 1314.393799
4.920000 7.040000 -5.160000 -7.046979 11.578680 183.725739
4.920000 7.040000 -5.120000 -29.447506 -31.177866 1839.214844
4.920000 7.040000 -5.080000 0.725889 -81.436394 6632.413086
4.920000 7.040000 -5.040000 70.326889 -87.338547 12573.892578
4.920000 7.040000 -5.000000 124.947922 -30.215118 16524.937500
4.920000 7.040000 -4.960000 116.495132 53.417160 16424.509766
4.920000 7.040000 -4.920000 48.049385 101.964394 12705.480469
4.920000 7.040000 -4.880000 -28.417780 83.322128 7750.147461
4.920000 7.040000 -4.840000 -59.349651 21.179802 3970.965088
4.920000 7.040000 -4.800000 -35.256001 -31.083996 2209.200439
4.920000 7.080000 -5.200000 14.470425 25.930710 881.794922
4.920000 7.080000 -5.160000 -13.386904 5.209716 206.350342
4.920000 7.080000 -5.120000 -7.907116 -34.358131 1243.003662
4.920000 7.080000 -5.080000 35.996670 -53.677895 4177.076660
4.920000 7.080000 -5.040000 85.040222 -24.614546 7837.715332
4.920000 7.080000 -5.000000 93.995224 39.580223 10401.696289
4.920000 7.080000 -4.960000 47.662407 91.551514 10653.384766
4.920000 7.080000 -4.920000 -22.821562 90.853867 8775.248047
4.920000 7.080000 -4.880000 -66.735397 39.864914 6042.824707
4.920000 7.080000 -4.840000 -58.048504 -20.109119 3774.005615
4.920000 7.080000 -4.800000 -14.601060 -47.527287 2472.033936
4.920000 7.120000 -5.200000 -3.628432 17.012911 302.604675
4.920000 7.120000 -5.160000 -9.261761 -6.183338 124.013885
4.920000 7.120000 -5.120000 10.885403 -25.381678 762.721558
4.920000 7.120000 -5.080000 43.716862 -17.177921 2206.244873
4.920000 7.120000 -5.040000 58.992577 20.660717 3906.989258
4.920000 7.120000 -5.000000 36.008442 61.915810 5130.175293
4.920000 7.120000 -4.960000 -14.778566 72.291901 5444.525391
4.920000 7.120000 -4.920000 -57.901138 40.021320 4954.248047
4.920000 7.120000 -4.880000 -62.828377 -12.789933 4110.987305
4.920000 7.120000 -4.840000 -29.526119 -49.470623 3319.134277
4.920000 7.120000 -4.800000 14.272877 -49.917694 2695.491211
4.920000 7.160000 -5.200000 -3.121702 -0.169931 9.773901
4.920000 7.160000 -5.160000 4.395131 -10.297222 125.349960
4.920000 7.160000 -5.120000 20.227123 -9.469116 498.800659
4.920000 7.160000 -5.080000 31.230097 7.648689 1033.821411
4.920000 7.160000 -5.040000 23.039455 31.809032 1542.631104
4.920000 7.160000 -5.000000 -5.340485 43.225639 1896.976685
4.920000 7.160000 -4.960000 -36.678719 27.883587 2122.822754
4.920000 7.160000 -4.920000 -47.643436 -8.397091 2340.408203
4.920000 7.160000 -4.880000 -28.242107 -42.574333 2610.190430
4.920000 7.160000 -4.840000 9.433740 -52.503586 2845.621826
4.920000 7.160000 -4.800000 41.415749 -34.110546 2878.793457
4.920000 7.200000 -5.200000 11.254183 -6.101786 163.888428
4.920000 7.200000 -5.160000 16.746689 -2.308411 285.780365
4.920000 7.200000 -5.120000 19.397156 5.632961 407.979919
4.920000 7.200000 -5.080000 15.340826 15.871178 487.235229
4.920000 7.200000 -5.040000 2.434280 22.083960 493.626984
4.920000 7.200000 -5.000000 -14.664606 16.359470 482.682922
4.920000 7.200000 -4.960000 -24.460571 -3.177509 608.416077
4.920000 7.200000 -4.920000 -16.452869 -27.381401 1020.438049
4.920000 7.200000 -4.880000 9.021469 -40.424370 1715.516602
4.920000 7.200000 -4.840000 38.595112 -31.481457 2480.664795
4.920000 7.200000 -4.800000 54.649071 -3.790166 3000.886230
4.960000 6.800000 -5.200000 -37.544060 79.954865 7802.336914
4.960000 6.800000 -5.160000 -68.343010 51.391941 7311.898438
4.960000 6.800000 -5.120000 -69.926979 10.831459 5007.102539
4.960000 6.800000 -5.080000 -45.290882 -14.480753 2260.956055
4.960000 6.800000 -5.040000 -18.231560 -12.584969 490.771210
4.960000 6.800000 -5.000000 -9.932981 3.198715 108.895905
4.960000 6.800000 -4.960000 -19.025982 9.837658 458.767487
4.960000 6.800000 -4.920000 -25.825962 -0.971038 667.923279
4.960000 6.800000 -4.880000 -15.399719 -15.504511 477.541199
4.960000 6.800000 -4.840000 6.043290 -14.882580 258.012543
4.960000 6.800000 -4.800000 18.825939 3.311450 365.381683
4.960000 6.840000 -5.200000 -75.092957 34.834221 6852.375000
4.960000 6.840000 -5.160000 -76.089905 6.670017 5834.163086
4.960000 6.840000 -5.120000 -63.840649 -10.546007 4186.846680
4.960000 6.840000 -5.080000 -53.262238 -14.996645 3061.765381
4.960000 6.840000 -5.040000 -51.564178 -18.244987 2991.744141
4.960000 6.840000 -5.000000 -50.606194 -30.689240 3502.816162
4.960000 6.840000 -4.960000 -36.787399 -47.819809 3640.046875
4.960000 6.840000 -4.920000 -8.452538 -53.114830 2892.630371
4.960000 6.840000 -4.880000 18.570362 -35.790222 1625.798340
4.960000 6.840000 -4.840000 24.936598 -4.655136 643.504211
4.960000 6.840000 -4.800000 7.549051 17.941116 378.871826
4.960000 6.880000 -5.200000 -67.417946 -23.385965 5092.082520
4.960000 6.880000 -5.160000 -52.756672 -27.407021 3534.411133
4.960000 6.880000 -5.120000 -53.265869 -22.499767 3343.492432
4.960000 6.880000 -5.080000 -67.361732 -31.264814 5515.091797
4.960000 6.880000 -5.040000 -71.715408 -62.795380 9086.359375
4.960000 6.880000 -5.000000 -44.705517 -98.542648 11709.236328
4.960000 6.880000 -4.960000 8.308292 -106.764954 11467.782227
4.960000 6.880000 -4.920000 54.886902 -73.298531 8385.247070
4.960000 6.880000 -4.880000 63.233734 -18.040043 4323.948242
4.960000 6.880000 -4.840000 31.524427 20.772226 1425.274902
4.960000 6.880000 -4.800000 -10.215317 20.343325 518.203552
4.960000 6.920000 -5.200000 -21.557011 -55.077755 3498.263672
4.960000 6.920000 -5.160000 -18.614191 -33.649651 1478.787109
4.960000 6.920000 -5.120000 -44.732971 -29.753363 2886.301270
4.960000 6.920000 -5.080000 -66.713943 -65.377937 8725.025391
4.960000 6.920000 -5.040000 -45.248707 -120.264008 16510.876953
4.960000 6.920000 -5.000000 23.001583 -145.661407 21746.318359
4.960000 6.920000 -4.960000 95.659668 -109.893852 21227.431641
4.960000 6.920000 -4.920000 120.169266 -31.268492 15418.371094
4.960000 6.920000 -4.880000 81.517082 35.611794 7913.234375
4.960000 6.920000 -4.840000 15.515617 48.092720 2553.644043
4.960000 6.920000 -4.800000 -25.084259 11.626274 764.390259
4.960000 6.960000 -5.200000 27.287935 -42.876900 2583.060059
4.960000 6.960000 -5.160000 2.690729 -17.629910 318.053741
4.960000 6.960000 -5.120000 -36.277252 -37.791752 2744.255615
4.960000 6.960000 -5.080000 -37.153076 -97.824196 10949.923828
4.960000 6.960000 -5.040000 24.358925 -144.816895 21565.291016
4.960000 6.960000 -5.000000 113.584946 -125.763023 28717.878906
4.960000 6.960000 -4.960000 163.190292 -40.465759 28268.550781
4.960000 6.960000 -4.920000 133.965179 53.644505 20824.402344
4.960000 6.960000 -4.880000 51.024200 91.704193 11013.127930
4.960000 6.960000 -4.840000 -20.122616 58.325287 3806.758789
4.960000 6.960000 -4.800000 -33.338764 -3.541872 1124.017944
4.960000 7.000000 -5.200000 46.393215 -4.047998 2168.716553
4.960000 7.000000 -5.160000 3.144505 0.796532 10.522371
4.960000 7.000000 -5.120000 -22.697536 -45.222961 2560.294434
4.960000 7.000000 -5.080000 11.908963 -103.643517 10883.801758
4.960000 7.000000 -5.040000 95.613510 -111.943359 21673.257812
4.960000 7.000000 -5.000000 164.911743 -43.961819 29128.523438
4.960000 7.000000 -4.960000 159.722183 59.809818 29088.390625
4.960000 7.000000 -4.920000 79.664734 125.134781 22005.183594
4.960000 7.000000 -4.880000 -14.784862 109.941376 12305.698242
4.960000 7.000000 -4.840000 -57.517151 39.325329 4854.704102
4.960000 7.000000 -4.800000 -33.765358 -22.778601 1658.963989
4.960000 7.040000 -5.200000 31.413359 27.933855 1767.099365
4.960000 7.040000 -5.160000 -6.887272 6.549887 90.335526
4.960000 7.040000 -5.120000 -4.053167 -45.486740 2085.471680
4.960000 7.040000 -5.080000 53.324604 -75.780624 8586.216797
4.960000 7.040000 -5.040000 124.104248 -41.089245 17090.189453
4.960000 7.040000 -5.000000 144.858673 46.812851 23175.478516
4.960000 7.040000 -4.960000 88.612770 125.535187 23611.306641
4.960000 7.040000 -4.920000 -7.619987 136.165894 18599.214844
4.960000 7.040000 -4.880000 -74.953476 75.593948 11332.468750
4.960000 7.040000 -4.840000 -73.455841 -3.592642 5408.667969
4.960000 7.040000 -4.800000 -22.669508 -43.606621 2415.443848
4.960000 7.080000 -5.200000 4.713322 33.278419 1129.668701
4.960000 7.080000 -5.160000 -12.103409 0.492879 146.735443
4.960000 7.080000 -5.120000 12.576325 -35.044327 1386.268799
4.960000 7.080000 -5.080000 65.489044 -31.926365 5308.107910
4.960000 7.080000 -5.040000 99.782158 22.174713 10448.197266
4.960000 7.080000 -5.000000 76.151352 92.057076 14273.533203
4.960000 7.080000 -4.960000 2.043083 122.238464 14946.416016
4.960000 7.080000 -4.920000 -71.216476 86.396713 12536.178711
4.960000 7.080000 -4.880000 -92.696838 11.277883 8719.894531
4.960000 7.080000 -4.840000 -55.196648 -48.222355 5372.065430
4.960000 7.080000 -4.800000 3.396563 -57.584778 3327.543213
4.960000 7.120000 -5.200000 -8.982327 19.028648 442.771637
4.960000 7.120000 -5.160000 -6.992634 -5.857800 83.210747
4.960000 7.120000 -5.120000 19.712780 -18.278112 722.683105
4.960000 7.120000 -5.080000 49.869530 1.699074 2489.856934
4.960000 7.120000 -5.040000 51.180534 45.944607 4730.354004
4.960000 7.120000 -5.000000 11.266071 79.506058 6448.137695
4.960000 7.120000 -4.960000 -46.255779 69.888138 7023.949219
4.960000 7.120000 -4.920000 -79.144913 17.669947 6576.144043
4.960000 7.120000 -4.880000 -62.766457 -41.932823 5697.989746
4.960000 7.120000 -4.840000 -10.796062 -69.046478 4883.971191
4.960000 7.120000 -4.800000 38.863411 -51.909164 4204.925781
4.960000 7.160000 -5.200000 -4.167875 6.138263 55.049454
4.960000 7.160000 -5.160000 1.890841 -3.972351 19.354847
4.960000 7.160000 -5.120000 16.680162 -3.766313 292.412933
4.960000 7.160000 -5.080000 26.198040 12.752611 848.966370
4.960000 7.160000 -5.040000 15.332867 34.809021 1446.764771
4.960000 7.160000 -5.000000 -14.891514 40.567780 1867.501953
4.960000 7.160000 -4.960000 -43.187691 17.030762 2155.223389
4.960000 7.160000 -4.920000 -44.260185 -24.856640 2576.816406
4.960000 7.160000 -4.880000 -11.624675 -56.409603 3317.176270
4.960000 7.160000 -4.840000 35.149117 -54.584553 4214.933594
4.960000 7.160000 -4.800000 66.255486 -20.860100 4824.933105
4.960000 7.200000 -5.200000 5.972543 6.918913 83.542625
4.960000 7.200000 -5.160000 5.499905 4.274739 48.522346
4.960000 7.200000 -5.120000 9.481153 3.597911 102.837234
4.960000 7.200000 -5.080000 12.116060 9.372270 234.638367
4.960000 7.200000 -5.040000 5.642094 16.618679 308.013702
4.960000 7.200000 -5.000000 -8.328733 13.738205 258.106079
4.960000 7.200000 -4.960000 -16.224127 -4.465603 283.163910
4.960000 7.200000 -4.920000 -4.118547 -27.446825 770.290649
4.960000 7.200000 -4.880000 26.913794 -35.032993 1951.662964
4.960000 7.200000 -4.840000 58.006584 -15.080400 3592.182373
4.960000 7.200000 -4.800000 66.731506 24.144318 5036.041992
5.000000 6.800000 -5.200000 -82.628494 44.448647 8803.150391
5.000000 6.800000 -5.160000 -93.111862 -1.574856 8672.299805
5.000000 6.800000 -5.120000 -69.317688 -41.682667 6542.386719
5.000000 6.800000 -5.080000 -28.964195 -52.501167 3595.297119
5.000000 6.800000 -5.040000 -0.373069 -35.357475 1250.290161
5.000000 6.800000 -5.000000 3.275345 -12.947590 178.367981
5.000000 6.800000 -4.960000 -6.461281 -5.734062 74.627625
5.000000 6.800000 -4.920000 -8.810127 -12.885838 243.663147
5.000000 6.800000 -4.880000 3.161112 -16.981800 298.374146
5.000000 6.800000 -4.840000 16.705029 -5.727247 311.859344
5.000000 6.800000 -4.800000 15.742098 13.952705 442.491638
5.000000 6.840000 -5.200000 -87.609970 -19.041386 8038.081055
5.000000 6.840000 -5.160000 -70.678078 -48.268467 7325.235352
5.000000 6.840000 -5.120000 -45.333885 -59.598000 5607.083008
5.000000 6.840000 -5.080000 -26.369249 -57.332920 3982.401123
5.000000 6.840000 -5.040000 -16.515022 -54.094826 3198.996094
5.000000 6.840000 -5.000000 -6.573921 -55.696815 3145.351807
5.000000 6.840000 -4.960000 11.028458 -54.724129 3116.357178
5.000000 6.840000 -4.920000 30.565521 -40.246014 2553.992676
5.000000 6.840000 -4.880000 37.064926 -13.053120 1544.192627
5.000000 6.840000 -4.840000 22.670692 11.196532 639.322632
5.000000 6.840000 -4.800000 -2.513075 15.994873 262.151520
5.000000 6.880000 -5.200000 -44.795067 -65.640701 6315.299805
5.000000 6.880000 -5.160000 -26.043365 -64.219543 4802.406738
5.000000 6.880000 -5.120000 -22.701309 -60.794430 4211.312012
5.000000 6.880000 -5.080000 -23.373562 -72.000977 5730.463867
5.000000 6.880000 -5.040000 -6.723972 -93.294342 8749.045898
5.000000 6.880000 -5.000000 33.063377 -100.418266 11177.014648
5.000000 6.880000 -4.960000 74.981865 -73.864830 11078.292969
5.000000 6.880000 -4.920000 88.016556 -21.854633 8224.539062
5.000000 6.880000 -4.880000 60.899109 22.966024 4236.139648
5.000000 6.880000 -4.840000 14.850128 31.868681 1236.139160
5.000000 6.880000 -4.800000 -14.555129 6.150838 249.684586
5.000000 6.920000 -5.200000 14.836924 -65.905312 4563.644531
5.000000 6.920000 -5.160000 10.317062 -47.066536 2321.700684
5.000000 6.920000 -5.120000 -8.732961 -55.614651 3169.253906
5.000000 6.920000 -5.080000 -4.807825 -92.047577 8495.872070
5.000000 6.920000 -5.040000 42.104828 -119.878723 16143.724609
5.000000 6.920000 -5.000000 108.183083 -99.544434 21612.673828
5.000000 6.920000 -4.960000 143.107330 -30.074715 21384.195312
5.000000 6.920000 -4.920000 116.617966 44.692131 15597.136719
5.000000 6.920000 -4.880000 48.411335 73.913696 7806.891602
5.000000 6.920000 -4.840000 -8.989150 45.357323 2138.091553
5.000000 6.920000 -4.800000 -17.824633 -5.721750 350.455963
5.000000 6.960000 -5.200000 51.060501 -26.755457 3323.029297
5.000000 6.960000 -5.160000 20.534201 -17.435400 725.646606
5.000000 6.960000 -5.120000 1.009155 -51.832256 2687.601074
5.000000 6.960000 -5.080000 32.469238 -98.361809 10729.296875
5.000000 6.960000 -5.040000 106.748428 -101.297661 21656.441406
5.000000 6.960000 -5.000000 167.377274 -36.358444 29337.089844
5.000000 6.960000 -4.960000 159.853027 60.000942 29153.103516
5.000000 6.960000 -4.920000 84.103386 119.850266 21437.464844
5.000000 6.960000 -4.880000 -3.596165 104.799324 10995.831055
5.000000 6.960000 -4.840000 -41.789669 39.149742 3279.078613
5.000000 6.960000 -4.800000 -17.593256 -16.341141 576.555542
5.000000 7.000000 -5.200000 47.002796 18.233795 2541.734131
5.000000 7.000000 -5.160000 10.025396 2.022509 104.599113
5.000000 7.000000 -5.120000 12.538235 -47.421097 2405.967773
5.000000 7.000000 -5.080000 71.059769 -76.267120 10866.164062
5.000000 7.000000 -5.040000 144.022125 -38.264244 22206.525391
5.000000 7.000000 -5.000000 164.938110 55.327744 30265.738281
5.000000 7.000000 -4.960000 105.032448 139.239609 30419.484375
5.000000 7.000000 -4.920000 3.231219 151.427307 22940.669922
5.000000 7.000000 -4.880000 -67.734085 89.004135 12509.642578
5.000000 7.000000 -4.840000 -66.267326 8.190937 4458.449707
5.000000 7.000000 -4.800000 -14.510720 -29.916515 1105.558838
5.000000 7.040000 -5.200000 18.033401 39.507118 1886.015991
5.000000 7.040000 -5.160000 -3.459087 4.575962 32.904713
5.000000 7.040000 -5.120000 24.023468 -36.560333 1913.784912
5.000000 7.040000 -5.080000 86.770233 -32.843658 8607.779297
5.000000 7.040000 -5.040000 128.622437 32.474560 17598.328125
5.000000 7.040000 -5.000000 101.260040 118.006912 24179.226562
5.000000 7.040000 -4.960000 12.671942 156.958038 24796.404297
5.000000 7.040000 -4.920000 -75.961830 117.362160 19544.076172
5.000000 7.040000 -4.880000 -103.992340 31.085758 11780.731445
5.000000 7.040000 -4.840000 -63.571743 -36.687153 5387.313477
5.000000 7.040000 -4.800000 -0.562626 -46.242691 2138.703125
5.000000 7.080000 -5.200000 -7.670770 33.455551 1178.114624
5.000000 7.080000 -5.160000 -8.167784 -0.825478 67.394104
5.000000 7.080000 -5.120000 27.999096 -19.762514 1174.506348
5.000000 7.080000 -5.080000 71.313309 7.026304 5134.957031
5.000000 7.080000 -5.040000 75.355316 69.498459 10508.458984
5.000000 7.080000 -5.000000 21.570141 119.023285 14631.812500
5.000000 7.080000 -4.960000 -58.121780 110.154045 15512.055664
5.000000 7.080000 -4.920000 -106.240356 43.231064 13155.938477
5.000000 7.080000 -4.880000 -89.940948 -34.512283 9280.471680
5.000000 7.080000 -4.840000 -28.156992 -70.902710 5820.010742
5.000000 7.080000 -4.800000 29.403692 -52.629467 3634.437988
5.000000 7.120000 -5.200000 -15.012464 17.820721 542.952148
5.000000 7.120000 -5.160000 -5.800125 -3.285810 44.438000
5.000000 7.120000 -5.120000 21.337904 -5.275449 483.136505
5.000000 7.120000 -5.080000 40.106144 22.750776 2126.100586
5.000000 7.120000 -5.040000 24.017429 61.612354 4372.918945
5.000000 7.120000 -5.000000 -24.937836 74.661621 6196.252930
5.000000 7.120000 -4.960000 -72.324883 41.356266 6941.229492
5.000000 7.120000 -4.920000 -79.391586 -20.786911 6735.119629
5.000000 7.120000 -4.880000 -37.633347 -68.986092 6175.349609
5.000000 7.120000 -4.840000 23.699669 -71.578804 5685.199707
5.000000 7.120000 -4.800000 64.003395 -33.219143 5199.946289
5.000000 7.160000 -5.200000 -10.012037 10.021498 200.671310
5.000000 7.160000 -5.160000 -4.133932 -0.765401 17.675236
5.000000 7.160000 -5.120000 10.170469 -0.281559 103.517723
5.000000 7.160000 -5.080000 16.959688 15.621127 531.650635
5.000000 7.160000 -5.040000 2.970428 32.643188 1074.401245
5.000000 7.160000 -5.000000 -25.162441 29.061161 1477.699463
5.000000 7.160000 -4.960000 -42.413960 -1.841591 1802.335449
5.000000 7.160000 -4.920000 -27.180717 -40.995270 2419.403564
5.000000 7.160000 -4.880000 17.009331 -57.554070 3601.788330
5.000000 7.160000 -4.840000 62.039524 -35.639126 5119.049805
5.000000 7.160000 -4.800000 78.396698 11.764082 6284.436035
5.000000 7.200000 -5.200000 -6.757298 11.982603 189.243866
5.000000 7.200000 -5.160000 -6.357099 1.665003 43.184937
5.000000 7.200000 -5.120000 3.606109 -2.902678 21.429558
5.000000 7.200000 -5.080000 11.891739 4.122387 158.407532
5.000000 7.200000 -5.040000 7.859777 14.037518 258.828003
5.000000 7.200000 -5.000000 -4.482908 12.040451 165.068924
5.000000 7.200000 -4.960000 -7.955479 -5.157867 89.893234
5.000000 7.200000 -4.920000 10.180897 -22.051453 589.917236
5.000000 7.200000 -4.880000 42.365097 -17.178295 2089.895264
5.000000 7.200000 -4.840000 64.219406 15.554852 4366.085938
5.000000 7.200000 -4.800000 55.467182 58.677773 6519.689453
5.040000 6.800000 -5.200000 -87.978455 -7.295408 7793.431641
5.040000 6.800000 -5.160000 -72.878662 -52.078552 8023.474609
5.040000 6.800000 -5.120000 -31.035555 -75.294312 6632.438965
5.040000 6.800000 -5.080000 12.052371 -64.771820 4340.648438
5.040000 6.800000 -5.040000 32.269905 -33.468651 2161.497559
5.040000 6.800000 -5.000000 26.598015 -6.412951 748.580322
5.040000 6.800000 -4.960000 12.000237 2.160740 148.674469
5.040000 6.800000 -4.920000 6.066479 -1.346004 38.613895
5.040000 6.800000 -4.880000 10.329569 -1.385262 108.618942
5.040000 6.800000 -4.840000 12.723448 8.085563 227.262451
5.040000 6.800000 -4.800000 4.276020 18.197725 349.441528
5.040000 6.840000 -5.200000 -60.101616 -61.092316 7344.475586
5.040000 6.840000 -5.160000 -29.720299 -79.406387 7188.670898
5.040000 6.840000 -5.120000 1.878235 -77.286163 5976.678711
5.040000 6.840000 -5.080000 22.609604 -62.513512 4419.133301
5.040000 6.840000 -5.040000 31.924976 -46.565136 3187.515869
5.040000 6.840000 -5.000000 36.728889 -33.712662 2485.554932
5.040000 6.840000 -4.960000 40.655037 -20.066494 2055.496094
5.040000 6.840000 -4.920000 39.328125 -2.602962 1553.476807
5.040000 6.840000 -4.880000 27.072649 13.236248 908.126587
5.040000 6.840000 -4.840000 6.972586 17.184208 343.913940
5.040000 6.840000 -4.800000 -8.379600 5.779586 103.621307
5.040000 6.880000 -5.200000 -2.469217 -77.153381 5958.741211
5.040000 6.880000 -5.160000 16.173899 -69.126007 5040.000000
5.040000 6.880000 -5.120000 23.616882 -62.600777 4476.614258
5.040000 6.880000 -5.080000 32.423302 -64.274055 5182.424805
5.040000 6.880000 -5.040000 53.171677 -63.651093 6878.688965
5.040000 6.880000 -5.000000 78.820847 -44.720367 8212.637695
5.040000 6.880000 -4.960000 88.384232 -6.277859 7851.184082
5.040000 6.880000 -4.920000 68.000671 31.551140 5619.565918
5.040000 6.880000 -4.880000 27.796680 43.614124 2674.847412
5.040000 6.880000 -4.840000 -4.175129 23.710079 579.599548
5.040000 6.880000 -4.800000 -6.548661 -8.152328 109.345421
5.040000 6.920000 -5.200000 45.399139 -48.269104 4390.988281
5.040000 6.920000 -5.160000 38.006855 -35.462196 2702.088379
5.040000 6.920000 -5.120000 31.434036 -46.249126 3127.080322
5.040000 6.920000 -5.080000 51.211571 -65.096970 6860.240234
5.040000 6.920000 -5.040000 94.456200 -58.844147 12384.607422
5.040000 6.920000 -5.000000 127.046036 -12.293388 16291.822266
5.040000 6.920000 -4.960000 115.090919 51.090950 15856.205078
5.040000 6.920000 -4.920000 59.976967 87.163132 11194.648438
5.040000 6.920000 -4.880000 0.518234 71.746696 5147.856934
5.040000 6.920000 -4.840000 -21.553186 23.611601 1022.047546
5.040000 6.920000 -4.800000 0.926880 -13.416146 180.852081
5.040000 6.960000 -5.200000 56.034496 -0.031318 3139.865723
5.040000 6.960000 -5.160000 32.003387 -4.586582 1045.253540
5.040000 6.960000 -5.120000 33.920155 -34.941994 2371.519775
5.040000 6.960000 -5.080000 76.383141 -51.276016 8463.614258
5.040000 6.960000 -5.040000 128.652481 -17.900265 16871.880859
5.040000 6.960000 -5.000000 139.736847 56.392220 22706.468750
5.040000 6.960000 -4.960000 88.245956 120.319382 22264.101562
5.040000 6.960000 -4.920000 6.529743 125.831963 15876.320312
5.040000 6.960000 -4.880000 -46.946793 73.079803 7544.659180
5.040000 6.960000 -4.840000 -40.616756 9.660904 1743.053955
5.040000 6.960000 -4.800000 4.062571 -14.697593 232.523712
5.040000 7.000000 -5.200000 33.203197 34.098129 2265.134766
5.040000 7.000000 -5.160000 13.923120 8.434694 264.997345
5.040000 7.000000 -5.120000 36.815231 -24.449516 1953.140137
5.040000 7.000000 -5.080000 90.857727 -18.240969 8587.860352
5.040000 7.000000 -5.040000 125.485367 42.508942 17553.587891
5.040000 7.000000 -5.000000 97.267235 119.859344 23827.177734
5.040000 7.000000 -4.960000 14.836133 153.099808 23659.662109
5.040000 7.000000 -4.920000 -64.796387 114.802460 17378.175781
5.040000 7.000000 -4.880000 -87.086090 36.779160 8936.693359
5.040000 7.000000 -4.840000 -48.179153 -20.138536 2726.791260
5.040000 7.000000 -4.800000 6.291267 -21.808363 515.184753
5.040000 7.040000 -5.200000 2.001602 39.861591 1592.952881
5.040000 7.040000 -5.160000 0.190236 7.160199 51.304642
5.040000 7.040000 -5.120000 36.417343 -10.430367 1435.015503
5.040000 7.040000 -5.080000 79.654114 19.370756 6720.003906
5.040000 7.040000 -5.040000 81.166626 85.431404 13886.545898
5.040000 7.040000 -5.000000 22.709921 136.244186 19078.218750
5.040000 7.040000 -4.960000 -60.688698 125.404831 19409.490234
5.040000 7.040000 -4.920000 -109.135147 55.923325 15037.898438
5.040000 7.040000 -4.880000 -91.310883 -21.263212 8789.801758
5.040000 7.040000 -4.840000 -30.672390 -53.629066 3816.872070
5.040000 7.040000 -4.800000 20.146488 -32.209984 1443.364014
5.040000 7.080000 -5.200000 -16.332632 27.378494 1016.336853
5.040000 7.080000 -5.160000 -5.337245 2.849749 36.607250
5.040000 7.080000 -5.120000 27.082855 2.693700 740.737061
5.040000 7.080000 -5.080000 47.384254 38.903061 3758.715820
5.040000 7.080000 -5.040000 24.392464 85.963448 7984.706543
5.040000 7.080000 -5.000000 -36.564285 99.630966 11263.276367
5.040000 7.080000 -4.960000 -92.648949 58.330559 11986.282227
5.040000 7.080000 -4.920000 -100.011185 -13.813711 10193.055664
5.040000 7.080000 -4.880000 -53.252815 -66.664894 7280.070312
5.040000 7.080000 -4.840000 10.831268 -67.964645 4736.509277
5.040000 7.080000 -4.800000 48.006824 -28.722744 3129.651367
5.040000 7.120000 -5.200000 -19.492508 14.585938 592.707458
5.040000 7.120000 -5.160000 -8.172600 0.706184 67.290085
5.040000 7.120000 -5.120000 11.735380 6.093454 174.849335
5.040000 7.120000 -5.080000 16.286434 31.457731 1254.836792
5.040000 7.120000 -5.040000 -8.903622 53.215736 2911.188965
5.040000 7.120000 -5.000000 -49.527126 43.562607 4350.636719
5.040000 7.120000 -4.960000 -71.174088 -0.928852 5066.613770
5.040000 7.120000 -4.920000 -50.052650 -51.756462 5183.999023
5.040000 7.120000 -4.880000 3.853251 -71.713982 5157.742676
5.040000 7.120000 -4.840000 54.580994 -47.170929 5204.181641
5.040000 7.120000 -4.800000 71.356506 1.743631 5094.791016
5.040000 7.160000 -5.200000 -17.988003 9.209430 408.381836
5.040000 7.160000 -5.160000 -11.864644 -2.082648 145.107193
5.040000 7.160000 -5.120000 1.160650 -1.795082 4.569428
5.040000 7.160000 -5.080000 5.477547 10.693281 144.349777
5.040000 7.160000 -5.040000 -7.150724 19.794254 442.945374
5.040000 7.160000 -5.000000 -25.258926 9.030212 719.558105
5.040000 7.160000 -4.960000 -26.123768 -19.470882 1061.566528
5.040000 7.160000 -4.920000 1.565712 -42.787636 1833.233154
5.040000 7.160000 -4.880000 43.798386 -36.813210 3273.510986
5.040000 7.160000 -4.840000 71.312134 0.978622 5086.377930
5.040000 7.160000 -4.800000 64.571861 48.272778 6499.786133
5.040000 7.200000 -5.200000 -19.405254 6.501792 418.837219
5.040000 7.200000 -5.160000 -13.466696 -8.040187 245.996506
5.040000 7.200000 -5.120000 2.323601 -11.534299 138.439178
5.040000 7.200000 -5.080000 13.195835 -1.402433 176.096878
5.040000 7.200000 -5.040000 10.314936 10.005295 206.503815
5.040000 7.200000 -5.000000 1.497404 9.127338 85.550522
5.040000 7.200000 -4.960000 3.381123 -2.371904 17.057920
5.040000 7.200000 -4.920000 22.353460 -7.124887 550.441162
5.040000 7.200000 -4.880000 44.759872 10.501913 2113.736328
5.040000 7.200000 -4.840000 47.939026 46.733444 4482.165039
5.040000 7.200000 -4.800000 21.605671 79.171173 6734.879883
5.080000 6.800000 -5.200000 -59.909184 -40.621758 5239.237305
5.080000 6.800000 -5.160000 -28.886545 -68.727386 5557.886230
5.080000 6.800000 -5.120000 14.911842 -69.348984 5031.644531
5.080000 6.800000 -5.080000 46.987061 -41.548512 3934.062744
5.080000 6.800000 -5.040000 51.582439 -3.783361 2675.061768
5.080000 6.800000 -5.000000 33.316189 21.600807 1576.563232
5.080000 6.800000 -4.960000 10.628235 25.955564 786.650696
5.080000 6.800000 -4.920000 -1.538268 17.874157 321.851746
5.080000 6.800000 -4.880000 -2.693853 11.186286 132.389847
5.080000 6.800000 -4.840000 -2.191323 11.087740 127.739876
5.080000 6.800000 -4.800000 -6.352808 12.072367 186.100189
5.080000 6.840000 -5.200000 -18.845121 -68.730301 5078.993164
5.080000 6.840000 -5.160000 13.962864 -71.515579 5309.439453
5.080000 6.840000 -5.120000 41.574997 -55.476013 4806.068359
5.080000 6.840000 -5.080000 54.297150 -29.542685 3820.950684
5.080000 6.840000 -5.040000 51.945419 -5.109922 2724.437988
5.080000 6.840000 -5.000000 40.787659 11.440960 1794.528564
5.080000 6.840000 -4.960000 26.874695 19.840958 1115.912842
5.080000 6.840000 -4.920000 12.924368 21.656578 636.046692
5.080000 6.840000 -4.880000 0.626234 17.089203 292.433044
5.080000 6.840000 -4.840000 -6.441010 6.629028 85.430618
5.080000 6.840000 -4.800000 -4.366577 -5.422514 48.470654
5.080000 6.880000 -5.200000 28.752144 -58.138680 4206.791992
5.080000 6.880000 -5.160000 43.883347 -45.285233 3976.500244
5.080000 6.880000 -5.120000 51.309452 -32.608818 3695.994873
5.080000 6.880000 -5.080000 57.550537 -21.630165 3779.928223
5.080000 6.880000 -5.040000 64.142113 -6.503641 4156.507812
5.080000 6.880000 -5.000000 63.590775 15.815937 4293.930664
5.080000 6.880000 -4.960000 47.751812 37.410194 3679.758301
5.080000 6.880000 -4.920000 19.874352 44.037739 2334.312256
5.080000 6.880000 -4.880000 -3.926373 29.379467 878.569458
5.080000 6.880000 -4.840000 -7.581536 4.008134 73.544830
5.080000 6.880000 -4.800000 9.607263 -11.701572 229.226288
5.080000 6.920000 -5.200000 52.299801 -19.695705 3123.190186
5.080000 6.920000 -5.160000 47.122791 -11.327063 2348.859619
5.080000 6.920000 -5.120000 48.288315 -14.773974 2550.031494
5.080000 6.920000 -5.080000 64.678116 -13.688758 4370.641113
5.080000 6.920000 -5.040000 83.310898 8.514835 7013.208008
5.080000 6.920000 -5.000000 80.334137 47.170403 8678.621094
5.080000 6.920000 -4.960000 46.746490 76.168991 7986.949707
5.080000 6.920000 -4.920000 1.623657 71.857803 5166.180176
5.080000 6.920000 -4.880000 -22.956959 37.481529 1931.886963
5.080000 6.920000 -4.840000 -11.668848 2.332345 141.601852
5.080000 6.920000 -4.800000 19.398104 -4.847096 399.780792
5.080000 6.960000 -5.200000 43.142227 18.432472 2201.007812
5.080000 6.960000 -5.160000 31.446278 10.485993 1098.824463
5.080000 6.960000 -5.120000 42.599030 -3.894592 1829.845215
5.080000 6.960000 -5.080000 71.890854 3.701794 5181.998047
5.080000 6.960000 -5.040000 88.542038 43.496117 9731.604492
5.080000 6.960000 -5.000000 65.529938 91.421791 12652.117188
5.080000 6.960000 -4.960000 9.723212 108.647156 11898.745117
5.080000 6.960000 -4.920000 -40.405704 79.070259 7884.727051
5.080000 6.960000 -4.880000 -49.490784 26.661861 3160.192383
5.080000 6.960000 -4.840000 -18.333181 -6.159666 374.047028
5.080000 6.960000 -4.800000 18.040817 2.000821 329.474396
5.080000 7.000000 -5.200000 16.362129 35.732769 1544.550049
5.080000 7.000000 -5.160000 12.998400 16.157158 430.012146
5.080000 7.000000 -5.120000 36.883579 5.762961 1393.610107
5.080000 7.000000 -5.080000 65.982315 29.382170 5216.978027
5.080000 7.000000 -5.040000 63.757221 79.063705 10316.052734
5.080000 7.000000 -5.000000 16.875088 115.661873 13662.437500
5.080000 7.000000 -4.960000 -46.778057 104.449173 13097.816406
5.080000 7.000000 -4.920000 -80.937981 49.914051 9042.369141
5.080000 7.000000 -4.880000 -63.595070 -6.473438 4086.238525
5.080000 7.000000 -4.840000 -16.869118 -24.477392 883.709839
5.080000 7.000000 -4.800000 15.723211 -1.266494 248.823380
5.080000 7.040000 -5.200000 -7.313490 32.271908 1094.963257
5.080000 7.040000 -5.160000 0.314805 13.552452 183.768066
5.080000 7.040000 -5.120000 26.219835 15.159330 917.285034
5.080000 7.040000 -5.080000 41.021160 47.693550 3957.410400
5.080000 7.040000 -5.040000 17.755573 88.176498 8090.354980
5.080000 7.040000 -5.000000 -37.429939 97.741875 10954.473633
5.080000 7.040000 -4.960000 -85.665932 59.262146 10850.654297
5.080000 7.040000 -4.920000 -89.562790 -3.335942 8032.621582
5.080000 7.040000 -4.880000 -48.072098 -45.275978 4360.840820
5.080000 7.040000 -4.840000 3.130473 -41.434708 1726.634766
5.080000 7.040000 -4.800000 25.924089 -7.006678 721.151917
5.080000 7.080000 -5.200000 -19.016157 20.888081 797.926147
5.080000 7.080000 -5.160000 -8.329981 9.129904 152.743713
5.080000 7.080000 -5.120000 9.305847 17.090317 378.677704
5.080000 7.080000 -5.080000 9.475258 43.397423 1973.116821
5.080000 7.080000 -5.040000 -19.994923 62.740223 4336.132812
5.080000 7.080000 -5.000000 -61.671021 48.694363 6174.455566
5.080000 7.080000 -4.960000 -80.826279 1.788216 6536.084961
5.080000 7.080000 -4.920000 -57.473083 -46.981220 5510.390625
5.080000 7.080000 -4.880000 -6.250292 -62.801250 3983.063232
5.080000 7.080000 -4.840000 36.465927 -38.077847 2779.686035
5.080000 7.080000 -4.800000 45.411495 2.863255 2070.402100
5.080000 7.120000 -5.200000 -22.964302 11.211113 653.048218
5.080000 7.120000 -5.160000 -15.662053 2.119131 249.790634
5.080000 7.120000 -5.120000 -5.071936 6.157498 63.639320
5.080000 7.120000 -5.080000 -7.187155 19.389547 427.609741
5.080000 7.120000 -5.040000 -25.881454 23.375328 1216.255615
5.080000 7.120000 -5.000000 -44.613441 4.220062 2008.168091
5.080000 7.120000 -4.960000 -40.353230 -29.973045 2526.766602
5.080000 7.120000 -4.920000 -6.951992 -53.059555 2863.646484
5.080000 7.120000 -4.880000 36.278374 -44.055580 3257.014648
5.080000 7.120000 -4.840000 60.547955 -6.747407 3711.582275
5.080000 7.120000 -4.800000 52.565994 33.993679 3918.753906
5.080000 7.160000 -5.200000 -25.153900 3.119690 642.451172
5.080000 7.160000 -5.160000 -18.634554 -9.339191 434.467102
5.080000 7.160000 -5.120000 -5.892377 -11.224311 160.705261
5.080000 7.160000 -5.080000 0.233931 -3.726969 13.945020
5.080000 7.160000 -5.040000 -4.283006 0.592258 18.694908
5.080000 7.160000 -5.000000 -8.716418 -7.434059 131.241180
5.080000 7.160000 -4.960000 1.241627 -21.173918 449.876434
5.080000 7.160000 -4.920000 26.524059 -22.726391 1220.014526
5.080000 7.160000 -4.880000 50.516052 -0.823853 2552.550293
5.080000 7.160000 -4.840000 53.089828 36.382080 4142.185547
5.080000 7.160000 -4.800000 28.986387 67.125885 5346.094727
5.080000 7.200000 -5.200000 -25.011854 -6.661327 669.966125
5.080000 7.200000 -5.160000 -12.652471 -20.818573 593.497986
5.080000 7.200000 -5.120000 6.787766 -20.692226 474.242004
5.080000 7.200000 -5.080000 18.843206 -7.517033 411.572205
5.080000 7.200000 -5.040000 17.977449 6.115705 360.590546
5.080000 7.200000 -5.000000 12.532644 10.478805 266.872498
5.080000 7.200000 -4.960000 14.205746 9.454156 291.184265
5.080000 7.200000 -4.920000 23.616318 15.825146 808.165710
5.080000 7.200000 -4.880000 28.025253 36.025887 2083.279297
5.080000 7.200000 -4.840000 14.098917 60.903896 3908.064209
5.080000 7.200000 -4.800000 -17.652554 72.652618 5590.015625
5.120000 6.800000 -5.200000 -26.618202 -42.229675 2491.874023
5.120000 6.800000 -5.160000 4.075020 -50.800941 2597.341309
5.120000 6.800000 -5.120000 35.934990 -35.960289 2584.465820
5.120000 6.800000 -5.080000 50.430775 -2.715608 2550.637451
5.120000 6.800000 -5.040000 39.145210 30.624212 2470.189941
5.120000 6.800000 -5.000000 10.812491 45.850708 2219.197266
5.120000 6.800000 -4.960000 -15.766390 38.419121 1724.607910
5.120000 6.800000 -4.920000 -26.656712 19.246002 1080.988892
5.120000 6.800000 -4.880000 -22.162106 3.799753 505.597046
5.120000 6.800000 -4.840000 -13.017435 -0.775802 170.055481
5.120000 6.800000 -4.800000 -8.564931 1.145278 74.669701
5.120000 6.840000 -5.200000 6.444590 -49.633839 2505.050537
5.120000 6.840000 -5.160000 31.737434 -41.295959 2712.621094
5.120000 6.840000 -5.120000 48.052677 -18.256336 2642.353516
5.120000 6.840000 -5.080000 47.177567 9.922871 2324.186279
5.120000 6.840000 -5.040000 30.236210 30.518810 1845.626221
5.120000 6.840000 -5.000000 6.761992 35.635864 1315.639282
5.120000 6.840000 -4.960000 -11.789601 26.322779 831.883362
5.120000 6.840000 -4.920000 -18.781322 10.395432 460.803070
5.120000 6.840000 -4.880000 -14.702013 -3.405764 227.748413
5.120000 6.840000 -4.840000 -4.642570 -10.047501 122.505730
5.120000 6.840000 -4.800000 5.787568 -9.044179 115.293106
5.120000 6.880000 -5.200000 33.802544 -31.483753 2133.838623
5.120000 6.880000 -5.160000 44.084469 -16.885111 2228.547363
5.120000 6.880000 -5.120000 46.277058 -0.037271 2141.567627
5.120000 6.880000 -5.080000 41.378250 15.289701 1945.934448
5.120000 6.880000 -5.040000 30.740492 26.904079 1668.807373
5.120000 6.880000 -5.000000 15.731007 32.276100 1289.211182
5.120000 6.880000 -4.960000 0.005587 28.486448 811.477783
5.120000 6.880000 -4.920000 -9.691550 15.637512 338.457947
5.120000 6.880000 -4.880000 -7.349860 -0.015079 54.020672
5.120000 6.880000 -4.840000 6.259433 -8.223145 106.800629
5.120000 6.880000 -4.800000 21.857792 -2.235744 482.761597
5.120000 6.920000 -5.200000 40.237869 -2.176225 1623.822144
5.120000 6.920000 -5.160000 38.437317 6.251585 1516.509644
5.120000 6.920000 -5.120000 37.918678 11.268742 1564.810669
5.120000 6.920000 -5.080000 39.792206 19.283911 1955.288818
5.120000 6.920000 -5.040000 36.879356 33.231861 2464.443359
5.120000 6.920000 -5.000000 22.304838 45.808006 2595.879395
5.120000 6.920000 -4.960000 0.220448 45.103405 2034.365723
5.120000 6.920000 -4.920000 -14.662123 28.051151 1001.844910
5.120000 6.920000 -4.880000 -10.407074 6.865770 155.445984
5.120000 6.920000 -4.840000 8.918970 -0.258905 79.615059
5.120000 6.920000 -4.800000 24.865582 13.638062 804.293823
5.120000 6.960000 -5.200000 27.657198 20.397314 1180.970947
5.120000 6.960000 -5.160000 23.675699 18.980255 920.788818
5.120000 6.960000 -5.120000 29.148540 18.081516 1176.578613
5.120000 6.960000 -5.080000 37.369011 29.214642 2249.938232
5.120000 6.960000 -5.040000 32.805611 50.621132 3638.707031
5.120000 6.960000 -5.000000 8.964849 65.227638 4335.013672
5.120000 6.960000 -4.960000 -20.971907 56.955090 3683.703125
5.120000 6.960000 -4.920000 -34.340607 29.028652 2021.939941
5.120000 6.960000 -4.880000 -21.318642 3.771843 468.711304
5.120000 6.960000 -4.840000 3.807607 2.044027 18.675917
5.120000 6.960000 -4.800000 15.424711 22.564556 747.080933
5.120000 7.000000 -5.200000 8.267422 28.653568 889.377258
5.120000 7.000000 -5.160000 8.257957 22.390129 569.511719
5.120000 7.000000 -5.120000 18.339890 23.700600 898.070007
5.120000 7.000000 -5.080000 24.196178 40.761578 2246.961426
5.120000 7.000000 -5.040000 9.916076 62.659714 4024.568359
5.120000 7.000000 -5.000000 -22.284588 67.301514 5026.096680
5.120000 7.000000 -4.960000 -49.941265 44.222374 4449.748047
5.120000 7.000000 -4.920000 -50.680344 8.074768 2633.699219
5.120000 7.000000 -4.880000 -25.041122 -13.245793 802.508850
5.120000 7.000000 -4.840000 2.721725 -5.258060 35.054974
5.120000 7.000000 -4.800000 7.910160 18.967474 422.335693
5.120000 7.040000 -5.200000 -8.242767 26.051838 746.641479
5.120000 7.040000 -5.160000 -5.801533 20.003923 433.814728
5.120000 7.040000 -5.120000 2.467614 24.225069 592.943054
5.120000 7.040000 -5.080000 0.989931 40.129745 1611.376465
5.120000 7.040000 -5.040000 -19.478006 51.868568 3069.741211
5.120000 7.040000 -5.000000 -47.855465 41.327759 3998.129150
5.120000 7.040000 -4.960000 -60.285324 8.893764 3713.419434
5.120000 7.040000 -4.920000 -43.459541 -23.264517 2429.969482
5.120000 7.040000 -4.880000 -9.441858 -30.986536 1049.314087
5.120000 7.040000 -4.840000 14.697226 -11.464087 347.433746
5.120000 7.040000 -4.800000 12.702112 14.283477 365.361389
5.120000 7.080000 -5.200000 -19.824066 18.232498 725.417603
5.120000 7.080000 -5.160000 -18.343117 11.461985 467.847046
5.120000 7.080000 -5.120000 -13.315363 12.881983 343.244385
5.120000 7.080000 -5.080000 -16.766993 20.491051 701.015198
5.120000 7.080000 -5.040000 -31.581390 20.593876 1421.491943
5.120000 7.080000 -5.000000 -44.708382 3.301874 2009.741699
5.120000 7.080000 -4.960000 -38.951057 -23.660053 2076.982910
5.120000 7.080000 -4.920000 -11.796907 -39.446556 1695.197754
5.120000 7.080000 -4.880000 19.403589 -29.822987 1265.909790
5.120000 7.080000 -4.840000 32.747650 -1.707195 1075.323120
5.120000 7.080000 -4.800000 22.268131 23.224770 1035.259521
5.120000 7.120000 -5.200000 -27.199108 6.876325 787.075317
5.120000 7.120000 -5.160000 -24.993334 -4.295630 643.119202
5.120000 7.120000 -5.120000 -17.179211 -8.449436 366.518250
5.120000 7.120000 -5.080000 -13.339093 -6.548049 220.808350
5.120000 7.120000 -5.040000 -15.402764 -7.843277 298.762146
5.120000 7.120000 -5.000000 -14.421531 -17.363705 509.478760
5.120000 7.120000 -4.960000 -1.065798 -27.601391 762.972717
5.120000 7.120000 -4.920000 21.794006 -24.813606 1090.693726
5.120000 7.120000 -4.880000 39.153835 -3.808678 1547.528809
5.120000 7.120000 -4.840000 37.532288 24.999010 2033.623047
5.120000 7.120000 -4.800000 17.947605 44.415024 2294.810791
5.120000 7.160000 -5.200000 -28.290169 -7.667893 859.130188
5.120000 7.160000 -5.160000 -19.589104 -22.139950 873.910339
5.120000 7.160000 -5.120000 -3.438711 -26.117853 693.966980
5.120000 7.160000 -5.080000 9.276537 -19.667549 472.866638
5.120000 7.160000 -5.040000 14.292751 -11.070517 326.839081
5.120000 7.160000 -5.000000 16.733147 -6.138752 317.682465
5.120000 7.160000 -4.960000 22.815346 -1.599970 523.099854
5.120000 7.160000 -4.920000 30.630508 10.072569 1039.684692
5.120000 7.160000 -4.880000 30.838448 30.192394 1862.590576
5.120000 7.160000 -4.840000 16.590818 49.986515 2773.906738
5.120000 7.160000 -4.800000 -8.401561 57.834305 3415.393066
5.120000 7.200000 -5.200000 -20.074537 -21.005009 844.197449
5.120000 7.200000 -5.160000 -2.857162 -31.338646 990.274109
5.120000 7.200000 -5.120000 18.314636 -26.399000 1032.333130
5.120000 7.200000 -5.080000 30.904177 -9.076397 1037.449097
5.120000 7.200000 -5.040000 30.557570 9.868367 1031.149780
5.120000 7.200000 -5.000000 22.809933 22.467682 1025.089722
5.120000 7.200000 -4.960000 15.074915 29.555796 1100.798096
5.120000 7.200000 -4.920000 8.427659 36.624615 1412.387817
5.120000 7.200000 -4.880000 -2.094496 45.267040 2053.491943
5.120000 7.200000 -4.840000 -19.987543 50.102127 2909.725098
5.120000 7.200000 -4.800000 -41.444664 44.139481 3665.953857
5.160000 6.800000 -5.200000 -11.061385 -25.331249 764.026428
5.160000 6.800000 -5.160000 7.941027 -23.428989 611.977417
5.160000 6.800000 -5.120000 24.146370 -6.458908 624.764648
5.160000 6.800000 -5.080000 24.519806 20.336044 1014.775574
5.160000 6.800000 -5.040000 4.632415 41.224945 1720.955322
5.160000 6.800000 -5.000000 -24.821804 41.712227 2356.031738
5.160000 6.800000 -4.960000 -44.937851 21.389902 2476.938232
5.160000 6.800000 -4.920000 -43.934891 -4.849075 1953.788208
5.160000 6.800000 -4.880000 -26.704262 -19.396326 1089.335083
5.160000 6.800000 -4.840000 -9.212729 -16.710230 364.106140
5.160000 6.800000 -4.800000 -3.278772 -6.178161 48.920017
5.160000 6.840000 -5.200000 7.098178 -28.440722 859.258789
5.160000 6.840000 -5.160000 21.654327 -18.166241 798.922180
5.160000 6.840000 -5.120000 26.821148 2.182691 724.138123
5.160000 6.840000 -5.080000 15.936775 22.473238 759.027222
5.160000 6.840000 -5.040000 -6.825272 29.758411 932.147400
5.160000 6.840000 -5.000000 -27.892097 18.743834 1129.300415
5.160000 6.840000 -4.960000 -34.235317 -3.226356 1182.466431
5.160000 6.840000 -4.920000 -23.388203 -21.613129 1014.135315
5.160000 6.840000 -4.880000 -4.609768 -26.010406 697.791199
5.160000 6.840000 -4.840000 9.526058 -17.212093 387.001953
5.160000 6.840000 -4.800000 13.073566 -4.281137 189.246277
5.160000 6.880000 -5.200000 22.264833 -18.589520 841.293030
5.160000 6.880000 -5.160000 28.352438 -5.278356 831.721741
5.160000 6.880000 -5.120000 24.182159 9.897869 682.744690
5.160000 6.880000 -5.080000 10.992750 18.670908 469.443359
5.160000 6.880000 -5.040000 -4.046549 16.318396 282.664612
5.160000 6.880000 -5.000000 -12.612988 4.863076 182.736954
5.160000 6.880000 -4.960000 -10.478449 -8.498183 182.016998
5.160000 6.880000 -4.920000 0.366221 -16.036419 257.300842
5.160000 6.880000 -4.880000 13.534493 -13.766105 372.688171
5.160000 6.880000 -4.840000 22.093300 -2.957140 496.858582
5.160000 6.880000 -4.800000 21.955133 11.233139 608.211304
5.160000 6.920000 -5.200000 27.681377 -2.004035 770.274841
5.160000 6.920000 -5.160000 26.318905 9.008326 773.834717
5.160000 6.920000 -5.120000 19.277313 15.892582 624.188965
5.160000 6.920000 -5.080000 11.405853 17.079901 421.816528
5.160000 6.920000 -5.040000 5.868265 14.598203 247.544067
5.160000 6.920000 -5.000000 3.199184 10.644393 123.537880
5.160000 6.920000 -4.960000 3.547155 6.270977 51.907463
5.160000 6.920000 -4.920000 7.686887 3.243264 69.606995
5.160000 6.920000 -4.880000 14.687514 5.142181 242.165115
5.160000 6.920000 -4.840000 19.523983 14.466105 590.454102
5.160000 6.920000 -4.800000 15.431855 28.073666 1026.272827
5.160000 6.960000 -5.200000 22.619724 14.128779 711.274292
5.160000 6.960000 -5.160000 16.766478 20.544765 703.202148
5.160000 6.960000 -5.120000 11.361803 21.349527 584.892883
5.160000 6.960000 -5.080000 9.257010 21.247349 537.142029
5.160000 6.960000 -5.040000 7.251338 23.323250 596.555908
5.160000 6.960000 -5.000000 2.148102 24.815153 620.406128
5.160000 6.960000 -4.960000 -3.407704 21.567425 476.766266
5.160000 6.960000 -4.920000 -3.468650 15.315384 246.592514
5.160000 6.960000 -4.880000 2.714362 13.748594 196.391617
5.160000 6.960000 -4.840000 7.049757 21.705956 520.847534
5.160000 6.960000 -4.800000 -0.055094 33.340210 1111.572632
5.160000 7.000000 -5.200000 9.524100 24.781763 704.844299
5.160000 7.000000 -5.160000 1.134194 25.942574 674.303528
5.160000 7.000000 -5.120000 -2.088967 23.000734 533.397522
5.160000 7.000000 -5.080000 -1.812615 23.261036 544.361389
5.160000 7.000000 -5.040000 -4.910854 26.803839 742.562317
5.160000 7.000000 -5.000000 -13.047985 26.649759 880.459595
5.160000 7.000000 -4.960000 -19.176819 18.706644 717.688904
5.160000 7.000000 -4.920000 -15.944187 8.871922 332.928101
5.160000 7.000000 -4.880000 -6.118163 7.565339 94.666275
5.160000 7.000000 -4.840000 -1.627979 17.017561 292.247711
5.160000 7.000000 -4.800000 -10.642281 26.457981 813.282898
5.160000 7.040000 -5.200000 -7.932276 26.449781 762.511963
5.160000 7.040000 -5.160000 -17.057087 20.988583 731.464844
5.160000 7.040000 -5.120000 -17.734718 13.965764 509.562805
5.160000 7.040000 -5.080000 -15.386223 12.363531 389.592773
5.160000 7.040000 -5.040000 -17.161123 13.373706 473.360168
5.160000 7.040000 -5.000000 -21.919197 9.642340 573.425903
5.160000 7.040000 -4.960000 -21.551401 0.383134 464.609680
5.160000 7.040000 -4.920000 -12.100978 -5.867746 180.864120
5.160000 7.040000 -4.880000 -0.749430 -1.027101 1.616580
5.160000 7.040000 -4.840000 0.815838 11.610685 135.473602
5.160000 7.040000 -4.800000 -9.973548 19.015308 461.053589
5.160000 7.080000 -5.200000 -24.004988 17.040325 866.612122
5.160000 7.080000 -5.160000 -29.783520 3.939941 902.581177
5.160000 7.080000 -5.120000 -24.559488 -7.039981 652.729797
5.160000 7.080000 -5.080000 -16.233673 -10.060679 364.749390
5.160000 7.080000 -5.040000 -11.572096 -9.009066 215.076660
5.160000 7.080000 -5.000000 -9.011658 -9.840334 178.042145
5.160000 7.080000 -4.960000 -2.978729 -11.736417 146.616318
5.160000 7.080000 -4.920000 6.631670 -8.183104 110.942230
5.160000 7.080000 -4.880000 12.232852 3.568623 162.377731
5.160000 7.080000 -4.840000 7.020488 16.774117 330.658234
5.160000 7.080000 -4.800000 -5.907558 21.171900 483.148560
5.160000 7.120000 -5.200000 -31.061184 -1.329385 966.564392
5.160000 7.120000 -5.160000 -27.979849 -19.136656 1149.083496
5.160000 7.120000 -5.120000 -13.251944 -29.289852 1033.509521
5.160000 7.120000 -5.080000 2.905913 -27.537979 766.784607
5.160000 7.120000 -5.040000 13.113021 -18.801842 525.460571
5.160000 7.120000 -5.000000 17.647491 -9.357727 399.001007
5.160000 7.120000 -4.960000 19.990509 -0.375422 399.761383
5.160000 7.120000 -4.920000 20.231003 10.370321 516.837036
5.160000 7.120000 -4.880000 14.885735 22.283894 718.156982
5.160000 7.120000 -4.840000 2.798228 30.113758 914.668518
5.160000 7.120000 -4.800000 -11.117584 29.316883 983.080322
5.160000 7.160000 -5.200000 -24.013165 -20.305565 988.948059
5.160000 7.160000 -5.160000 -10.078884 -35.124149 1335.289673
5.160000 7.160000 -5.120000 12.052397 -36.578873 1483.274170
5.160000 7.160000 -5.080000 30.320820 -23.537701 1473.375488
5.160000 7.160000 -5.040000 37.193233 -3.502994 1395.607666
5.160000 7.160000 -5.000000 33.211357 14.926008 1325.780029
5.160000 7.160000 -4.960000 23.166681 27.805485 1309.840088
5.160000 7.160000 -4.920000 10.744691 35.361366 1365.874634
5.160000 7.160000 -4.880000 -2.777304 38.295090 1474.227295
5.160000 7.160000 -4.840000 -16.262667 36.177834 1573.310059
5.160000 7.160000 -4.800000 -27.332792 29.152956 1596.976318
5.160000 7.200000 -5.200000 -5.983398 -29.006382 877.171204
5.160000 7.200000 -5.160000 13.453241 -33.394100 1296.155640
5.160000 7.200000 -5.120000 34.013306 -22.457928 1661.263428
5.160000 7.200000 -5.080000 44.202286 0.611228 1954.215698
5.160000 7.200000 -5.040000 38.848854 25.577198 2163.426514
5.160000 7.200000 -5.000000 21.412296 42.544483 2268.519531
5.160000 7.200000 -4.960000 0.054005 47.522026 2258.345947
5.160000 7.200000 -4.920000 -18.141155 42.702530 2152.607666
5.160000 7.200000 -4.880000 -30.290562 32.962860 2004.068359
5.160000 7.200000 -4.840000 -37.162800 22.218971 1874.756348
5.160000 7.200000 -4.800000 -40.814514 11.909967 1807.671875
5.200000 6.800000 -5.200000 -14.668241 -11.428554 345.769104
5.200000 6.800000 -5.160000 -7.821990 -11.629972 196.439789
5.200000 6.800000 -5.120000 -0.795718 -2.630550 7.552963
5.200000 6.800000 -5.080000 -4.721594 12.640108 182.065796
5.200000 6.800000 -5.040000 -22.805487 20.660439 946.943970
5.200000 6.800000 -5.000000 -43.484344 10.207465 1995.080566
5.200000 6.800000 -4.960000 -49.373310 -14.538204 2649.083008
5.200000 6.800000 -4.920000 -34.148170 -35.669334 2438.398926
5.200000 6.800000 -4.880000 -9.635115 -37.855492 1525.873657
5.200000 6.800000 -4.840000 5.261507 -22.915752 552.815186
5.200000 6.800000 -4.800000 2.849477 -7.166352 59.476124
5.200000 6.840000 -5.200000 -3.714756 -21.926685 494.578949
5.200000 6.840000 -5.160000 4.201251 -17.418228 321.045197
5.200000 6.840000 -5.120000 5.333054 -5.670425 60.595192
5.200000 6.840000 -5.080000 -5.391824 3.606841 42.081066
5.200000 6.840000 -5.040000 -21.426392 -0.232590 459.144379
5.200000 6.840000 -5.000000 -28.901390 -17.409525 1138.381836
5.200000 6.840000 -4.960000 -19.376112 -35.662876 1647.274414
5.200000 6.840000 -4.920000 1.563280 -40.619888 1652.419189
5.200000 6.840000 -4.880000 18.935951 -28.783665 1187.069580
5.200000 6.840000 -4.840000 21.936584 -10.194360 585.138733
5.200000 6.840000 -4.800000 12.936293 1.768269 170.474442
5.200000 6.880000 -5.200000 13.332470 -21.655066 646.696655
5.200000 6.880000 -5.160000 17.642250 -11.755249 449.434875
5.200000 6.880000 -5.120000 11.841000 -2.427307 146.101089
5.200000 6.880000 -5.080000 0.788310 -2.504163 6.892265
5.200000 6.880000 -5.040000 -5.008091 -12.691017 186.142899
5.200000 6.880000 -5.000000 1.049067 -24.406694 596.787231
5.200000 6.880000 -4.960000 15.685833 -27.249838 988.598999
5.200000 6.880000 -4.920000 28.777180 -17.827866 1145.958862
5.200000 6.880000 -4.880000 32.011105 -1.844365 1028.112549
5.200000 6.880000 -4.840000 24.882370 11.639802 754.617310
5.200000 6.880000 -4.800000 13.175592 17.571606 482.357544
5.200000 6.920000 -5.200000 26.716278 -8.034177 778.307495
5.200000 6.920000 -5.160000 22.977068 3.883786 543.029480
5.200000 6.920000 -5.120000 12.880209 6.465208 207.698700
5.200000 6.920000 -5.080000 7.455607 -0.555655 55.894836
5.200000 6.920000 -5.040000 12.292286 -8.276993 219.608917
5.200000 6.920000 -5.000000 22.993206 -7.835865 590.088257
5.200000 6.920000 -4.960000 30.541634 1.767955 935.917053
5.200000 6.920000 -4.920000 29.782446 14.500757 1097.265991
5.200000 6.920000 -4.880000 22.233335 24.140789 1077.098877
5.200000 6.920000 -4.840000 11.973813 28.885534 977.746277
5.200000 6.920000 -4.800000 1.024265 29.683180 882.140320
5.200000 6.960000 -5.200000 26.652645 13.078053 881.398926
5.200000 6.960000 -5.160000 13.861136 20.531599 613.677673
5.200000 6.960000 -5.120000 4.012989 14.503851 226.465775
5.200000 6.960000 -5.080000 6.233478 5.172678 65.612839
5.200000 6.960000 -5.040000 16.295246 4.446528 285.306641
5.200000 6.960000 -5.000000 22.809502 14.121624 719.693604
5.200000 6.960000 -4.960000 19.508709 26.102701 1061.940674
5.200000 6.960000 -4.920000 9.862372 32.501431 1153.609375
5.200000 6.960000 -4.880000 0.479390 33.017670 1090.396362
5.200000 6.960000 -4.840000 -7.107467 31.835163 1063.993652
5.200000 6.960000 -4.800000 -16.031160 29.624924 1134.634277
5.200000 7.000000 -5.200000 10.457870 29.227587 963.618896
5.200000 7.000000 -5.160000 -7.089675 25.967655 724.582581
5.200000 7.000000 -5.120000 -11.704579 12.110236 283.654999
5.200000 7.000000 -5.080000 -2.390060 3.842710 20.478806
5.200000 7.000000 -5.040000 8.392645 9.047500 152.293732
5.200000 7.000000 -5.000000 9.188618 21.252531 536.100769
5.200000 7.000000 -4.960000 0.380119 29.066654 845.014832
5.200000 7.000000 -4.920000 -9.449404 28.653336 910.304810
5.200000 7.000000 -4.880000 -15.111998 25.060747 856.413574
5.200000 7.000000 -4.840000 -19.566032 22.783583 901.921265
5.200000 7.000000 -4.800000 -26.833076 18.810301 1073.841431
5.200000 7.040000 -5.200000 -13.707636 29.059387 1032.347290
5.200000 7.040000 -5.160000 -27.621254 13.295273 939.697937
5.200000 7.040000 -5.120000 -22.614235 -4.765207 534.110840
5.200000 7.040000 -5.080000 -6.769615 -9.544065 136.916855
5.200000 7.040000 -5.040000 4.273655 -0.102046 18.274540
5.200000 7.040000 -5.000000 3.046467 12.328881 161.282272
5.200000 7.040000 -4.960000 -5.361701 17.913376 349.636871
5.200000 7.040000 -4.920000 -12.470328 16.805424 437.931366
5.200000 7.040000 -4.880000 -16.398064 14.609063 482.321228
5.200000 7.040000 -4.840000 -20.949318 12.745224 601.314697
5.200000 7.040000 -4.800000 -26.776237 6.878037 764.274292
5.200000 7.080000 -5.200000 -30.868631 11.126190 1076.664429
5.200000 7.080000 -5.160000 -33.149277 -12.159294 1246.722900
5.200000 7.080000 -5.120000 -16.665461 -27.913933 1056.925171
5.200000 7.080000 -5.080000 4.613674 -25.689098 681.215759
5.200000 7.080000 -5.040000 16.027950 -10.432207 365.726135
5.200000 7.080000 -5.000000 13.981375 5.352837 224.131699
5.200000 7.080000 -4.960000 4.905410 13.815453 214.929779
5.200000 7.080000 -4.920000 -4.192442 15.610364 261.260010
5.200000 7.080000 -4.880000 -11.610926 14.168006 335.545990
5.200000 7.080000 -4.840000 -18.043970 9.913662 423.865570
5.200000 7.080000 -4.800000 -21.371279 1.883495 460.279114
5.200000 7.120000 -5.200000 -29.647171 -13.583138 1063.456421
5.200000 7.120000 -5.160000 -18.023109 -34.617729 1523.219727
5.200000 7.120000 -5.120000 6.790691 -40.738544 1705.742554
5.200000 7.120000 -5.080000 29.115000 -27.751659 1617.837891
5.200000 7.120000 -5.040000 36.970177 -4.347141 1385.691528
5.200000 7.120000 -5.000000 29.328453 16.672974 1138.146240
5.200000 7.120000 -4.960000 13.350314 27.596210 939.781738
5.200000 7.120000 -4.920000 -2.909104 28.039709 794.688171
5.200000 7.120000 -4.880000 -14.724186 21.403309 674.903259
5.200000 7.120000 -4.840000 -20.245550 11.578041 543.933350
5.200000 7.120000 -4.800000 -19.288750 2.541804 378.516632
5.200000 7.160000 -5.200000 -11.272137 -28.856697 959.770020
5.200000 7.160000 -5.160000 8.620771 -38.997192 1595.098755
5.200000 7.160000 -5.120000 33.510124 -31.832733 2136.251465
5.200000 7.160000 -5.080000 49.123550 -8.343848 2482.743164
5.200000 7.160000 -5.040000 46.710678 20.546789 2604.058105
5.200000 7.160000 -5.000000 27.896540 41.653625 2513.241455
5.200000 7.160000 -4.960000 2.302051 47.290081 2241.651123
5.200000 7.160000 -4.920000 -18.939302 38.374123 1831.270386
5.200000 7.160000 -4.880000 -29.090097 22.302986 1343.656982
5.200000 7.160000 -4.840000 -28.315821 7.973927 865.369202
5.200000 7.160000 -4.800000 -22.315971 0.894215 498.802185
5.200000 7.200000 -5.200000 10.827033 -25.436531 764.241760
5.200000 7.200000 -5.160000 28.846710 -23.042946 1363.110107
5.200000 7.200000 -5.120000 44.791359 -6.238607 2045.186035
5.200000 7.200000 -5.080000 47.581520 20.818169 2697.397217
5.200000 7.200000 -5.040000 32.176582 46.410088 3189.228516
5.200000 7.200000 -5.000000 3.633905 58.099140 3388.715332
5.200000 7.200000 -4.960000 -25.330082 50.633392 3205.353516
5.200000 7.200000 -4.920000 -42.171677 29.494379 2648.368652
5.200000 7.200000 -4.880000 -42.544197 7.138390 1860.965332
5.200000 7.200000 -4.840000 -32.561760 -5.733367 1093.139648
5.200000 7.200000 -4.800000 -23.302496 -7.404744 597.836548
