#kx 	ky 	kz 	real 	imag 	intensity
2.800000 4.800000 4.800000 -6.688630 -10.942261 164.470840
2.800000 4.800000 4.840000 -5.986953 -6.475301 77.773132
2.800000 4.800000 4.880000 -10.528240 -6.608832 154.520508
2.800000 4.800000 4.920000 -12.516195 -14.259176 359.979248
2.800000 4.800000 4.960000 -5.085136 -23.485350 577.420227
2.800000 4.800000 5.000000 9.990243 -24.531456 701.597290
2.800000 4.800000 5.040000 22.926704 -13.397710 705.132446
2.800000 4.800000 5.080000 24.713705 3.874719 625.780640
2.800000 4.800000 5.120000 15.242704 16.719473 511.880798
2.800000 4.800000 5.160000 2.463703 19.637115 391.686127
2.800000 4.800000 5.200000 -6.072625 15.824081 287.278320
2.800000 4.840000 4.800000 -2.548083 -15.526165 247.554520
2.800000 4.840000 4.840000 -4.217830 -10.414104 126.243637
2.800000 4.840000 4.880000 -8.881119 -12.906225 245.444916
2.800000 4.840000 4.920000 -6.985415 -21.284660 501.832794
2.800000 4.840000 4.960000 4.256831 -25.787306 683.105774
2.800000 4.840000 5.000000 17.109520 -19.004080 653.890747
2.800000 4.840000 5.040000 20.922434 -4.160780 455.060333
2.800000 4.840000 5.080000 13.105711 7.846791 233.331787
2.800000 4.840000 5.120000 1.528416 9.603301 94.559441
2.800000 4.840000 5.160000 -4.281663 4.256495 36.450394
2.800000 4.840000 5.200000 -3.235209 0.815851 11.132187
2.800000 4.880000 4.800000 5.380223 -19.214121 398.129242
2.800000 4.880000 4.840000 2.341317 -15.044565 231.820709
2.800000 4.880000 4.880000 -0.147164 -18.660225 348.225647
2.800000 4.880000 4.920000 4.958315 -24.126186 606.657776
2.800000 4.880000 4.960000 15.071011 -22.706810 742.734619
2.800000 4.880000 5.000000 21.075920 -13.131331 616.626282
2.800000 4.880000 5.040000 17.915588 -3.143931 330.852600
2.800000 4.880000 5.080000 10.404563 -0.530096 108.535927
2.800000 4.880000 5.120000 7.432611 -4.055294 71.689125
2.800000 4.880000 5.160000 11.147734 -5.036835 149.641663
2.800000 4.880000 5.200000 13.881856 1.810154 195.982590
2.800000 4.920000 4.800000 17.286222 -17.246382 596.251160
2.800000 4.920000 4.840000 13.828229 -13.567364 375.293274
2.800000 4.920000 4.880000 12.966198 -15.809483 418.062012
2.800000 4.920000 4.920000 17.574364 -17.283871 607.590454
2.800000 4.920000 4.960000 23.006651 -13.565425 713.326721
2.800000 4.920000 5.000000 24.115376 -7.436250 636.849121
2.800000 4.920000 5.040000 22.155436 -4.281673 509.196045
2.800000 4.920000 5.080000 22.786640 -4.113994 536.155884
2.800000 4.920000 5.120000 27.603531 -0.622923 762.342957
2.800000 4.920000 5.160000 29.834623 10.637280 1003.256470
2.800000 4.920000 5.200000 20.835327 24.311335 1025.151855
2.800000 4.960000 4.800000 27.433632 -5.709235 785.199524
2.800000 4.960000 4.840000 22.609915 -1.873016 514.716431
2.800000 4.960000 4.880000 20.571640 -2.576004 429.828186
2.800000 4.960000 4.920000 21.959339 -3.060359 491.578369
2.800000 4.960000 4.960000 24.182301 -1.863581 588.256592
2.800000 4.960000 5.000000 26.653095 -0.269924 710.460388
2.800000 4.960000 5.040000 31.176834 2.506441 978.277222
2.800000 4.960000 5.080000 36.916756 10.602427 1475.258301
2.800000 4.960000 5.120000 37.274364 26.024210 2066.637695
2.800000 4.960000 5.160000 24.810410 42.526943 2424.097168
2.800000 4.960000 5.200000 0.540883 47.696808 2275.278076
2.800000 5.000000 4.800000 27.507612 12.417492 910.862793
2.800000 5.000000 4.840000 19.706985 14.879412 609.762146
2.800000 5.000000 4.880000 15.125958 12.598461 387.515839
2.800000 5.000000 4.920000 14.940258 9.049692 305.108215
2.800000 5.000000 4.960000 19.055414 6.853747 410.082642
2.800000 5.000000 5.000000 26.697605 9.184475 797.116699
2.800000 5.000000 5.040000 34.029335 19.608438 1542.486450
2.800000 5.000000 5.080000 33.329552 37.856331 2543.960938
2.800000 5.000000 5.120000 17.966978 55.902885 3447.944824
2.800000 5.000000 5.160000 -9.762912 60.906403 3804.904297
2.800000 5.000000 5.200000 -36.508877 45.204617 3376.355469
2.800000 5.040000 4.800000 14.361197 27.392448 956.590210
2.800000 5.040000 4.840000 4.255981 25.142536 650.260498
2.800000 5.040000 4.880000 -0.198308 17.998257 323.976593
2.800000 5.040000 4.920000 2.939763 10.931045 128.129944
2.800000 5.040000 4.960000 12.314740 9.819653 248.078400
2.800000 5.040000 5.000000 21.945248 19.245960 852.000854
2.800000 5.040000 5.040000 22.342184 38.056511 1947.471191
2.800000 5.040000 5.080000 6.561632 56.676414 3255.270996
2.800000 5.040000 5.120000 -22.352894 61.324631 4260.362305
2.800000 5.040000 5.160000 -50.175858 44.270737 4477.514648
2.800000 5.040000 5.200000 -60.250660 11.869837 3771.035156
2.800000 5.080000 4.800000 -5.895854 30.106920 941.187744
2.800000 5.080000 4.840000 -14.364265 21.132675 652.922119
2.800000 5.080000 4.880000 -13.642053 9.696112 280.120178
2.800000 5.080000 4.920000 -3.891603 3.614233 28.207251
2.800000 5.080000 4.960000 8.314334 9.365705 156.844574
2.800000 5.080000 5.000000 11.982356 26.520439 846.910522
2.800000 5.080000 5.040000 -1.101196 45.041714 2029.968628
2.800000 5.080000 5.080000 -28.325779 50.189259 3321.311523
2.800000 5.080000 5.120000 -55.177589 33.526379 4168.584473
2.800000 5.080000 5.160000 -64.507088 1.228446 4162.673828
2.800000 5.080000 5.200000 -49.738384 -28.735533 3299.637695
2.800000 5.120000 4.800000 -22.333694 19.675354 885.913452
2.800000 5.120000 4.840000 -24.456175 5.892297 632.823669
2.800000 5.120000 4.880000 -15.688669 -4.894407 270.089569
2.800000 5.120000 4.920000 -1.394891 -4.172979 19.359478
2.800000 5.120000 4.960000 6.820173 9.757439 141.722382
2.800000 5.120000 5.000000 -1.058735 27.822910 775.235229
2.800000 5.120000 5.040000 -24.140659 34.768906 1791.648193
2.800000 5.120000 5.080000 -48.636181 20.838093 2799.704102
2.800000 5.120000 5.120000 -57.054531 -8.914778 3334.692627
2.800000 5.120000 5.160000 -42.114449 -36.844627 3131.153320
2.800000 5.120000 5.200000 -13.284206 -46.013836 2293.743408
2.800000 5.160000 4.800000 -28.038595 3.620724 799.272461
2.800000 5.160000 4.840000 -21.992067 -10.054432 584.742615
2.800000 5.160000 4.880000 -7.317664 -14.621546 267.337799
2.800000 5.160000 4.920000 5.306373 -5.181343 55.003902
2.800000 5.160000 4.960000 4.070924 11.894251 158.045624
2.800000 5.160000 5.000000 -13.177576 21.727402 645.728516
2.800000 5.160000 5.040000 -34.705410 12.720550 1366.277832
2.800000 5.160000 5.080000 -42.995136 -12.392301 2002.150879
2.800000 5.160000 5.120000 -29.390007 -37.115063 2241.300293
2.800000 5.160000 5.160000 -2.182680 -44.236404 1961.623535
2.800000 5.160000 5.200000 19.847471 -30.177540 1304.605957
2.800000 5.200000 4.800000 -24.674891 -9.408840 697.376465
2.800000 5.200000 4.840000 -12.592794 -18.652794 506.505188
2.800000 5.200000 4.880000 2.609924 -15.132786 235.812912
2.800000 5.200000 4.920000 8.291479 -0.625937 69.140427
2.800000 5.200000 4.960000 -1.766288 12.082779 149.113312
2.800000 5.200000 5.000000 -19.733479 9.578575 481.159302
2.800000 5.200000 5.040000 -28.968538 -9.194907 923.722534
2.800000 5.200000 5.080000 -18.698162 -30.279177 1266.449829
2.800000 5.200000 5.120000 5.389482 -36.263298 1344.073242
2.800000 5.200000 5.160000 25.354265 -21.887577 1121.904785
2.800000 5.200000 5.200000 26.673262 1.019109 712.501465
2.840000 4.800000 4.800000 -4.731145 -4.056600 38.839745
2.840000 4.800000 4.840000 -6.695515 -4.101362 61.651093
2.840000 4.800000 4.880000 -8.461099 -8.256437 139.758942
2.840000 4.800000 4.920000 -5.480662 -15.012728 255.419647
2.840000 4.800000 4.960000 3.752894 -19.061726 377.433624
2.840000 4.800000 5.000000 15.476006 -15.495346 479.612488
2.840000 4.800000 5.040000 23.067671 -4.156479 549.393738
2.840000 4.800000 5.080000 22.017422 9.932219 583.415833
2.840000 4.800000 5.120000 13.017846 20.330608 582.797974
2.840000 4.800000 5.160000 0.640515 23.499329 552.628723
2.840000 4.800000 5.200000 -10.382304 19.886501 503.265167
2.840000 4.840000 4.800000 -0.210866 -9.721718 94.556259
2.840000 4.840000 4.840000 2.172244 -8.952015 84.857216
2.840000 4.840000 4.880000 4.786349 -7.811131 83.922897
2.840000 4.840000 4.920000 7.359837 -5.298031 82.236328
2.840000 4.840000 4.960000 8.478514 -1.360249 73.735474
2.840000 4.840000 5.000000 7.279547 2.498520 59.234406
2.840000 4.840000 5.040000 4.722061 4.661745 44.029728
2.840000 4.840000 5.080000 2.673683 5.262053 34.837780
2.840000 4.840000 5.120000 1.636873 6.106213 39.965195
2.840000 4.840000 5.160000 -0.237489 8.257155 68.237022
2.840000 4.840000 5.200000 -5.071370 9.855232 122.844398
2.840000 4.880000 4.800000 10.144753 -11.375320 232.313934
2.840000 4.880000 4.840000 15.574513 -4.346644 261.458801
2.840000 4.880000 4.880000 15.431396 6.145844 275.899384
2.840000 4.880000 4.920000 7.250996 14.645998 267.082214
2.840000 4.880000 4.960000 -5.446372 14.515852 240.372925
2.840000 4.880000 5.000000 -13.913755 4.322451 212.276169
2.840000 4.880000 5.040000 -10.990342 -8.994865 201.695221
2.840000 4.880000 5.080000 1.834867 -14.656607 218.182861
2.840000 4.880000 5.120000 14.289515 -7.255651 256.834717
2.840000 4.880000 5.160000 15.528234 7.703886 300.475922
2.840000 4.880000 5.200000 3.750748 17.767971 329.768921
2.840000 4.920000 4.800000 21.155262 -3.087119 457.075409
2.840000 4.920000 4.840000 22.357777 12.424956 654.249756
2.840000 4.920000 4.880000 10.388463 27.175966 846.453308
2.840000 4.920000 4.920000 -11.592151 28.913338 970.359009
2.840000 4.920000 4.960000 -29.350889 11.834348 1001.526489
2.840000 4.920000 5.000000 -27.672382 -14.889179 987.448364
2.840000 4.920000 5.040000 -4.641558 -31.591232 1019.550049
2.840000 4.920000 5.080000 23.972485 -24.016270 1151.461182
2.840000 4.920000 5.120000 36.349651 3.417379 1332.975586
2.840000 4.920000 5.160000 22.933031 30.070858 1430.180420
2.840000 4.920000 5.200000 -5.242113 36.063438 1328.051270
2.840000 4.960000 4.800000 22.935520 13.692537 713.523682
2.840000 4.960000 4.840000 12.561346 31.727453 1164.418701
2.840000 4.960000 4.880000 -12.235048 38.379166 1622.656738
2.840000 4.960000 4.920000 -37.674187 22.245672 1914.214355
2.840000 4.960000 4.960000 -42.819386 -11.404609 1963.564819
2.840000 4.960000 5.000000 -18.224314 -39.559372 1897.069580
2.840000 4.960000 5.040000 21.818670 -38.604507 1966.362305
2.840000 4.960000 5.080000 47.797226 -5.788841 2318.085449
2.840000 4.960000 5.120000 39.092731 35.836437 2812.491943
2.840000 4.960000 5.160000 2.134191 55.532394 3088.401611
2.840000 4.960000 5.200000 -34.777710 40.437653 2844.692871
2.840000 5.000000 4.800000 10.283904 28.440056 914.595459
2.840000 5.000000 4.840000 -11.043492 38.014549 1567.064697
2.840000 5.000000 4.880000 -37.996567 27.539513 2202.163818
2.840000 5.000000 4.920000 -50.260307 -4.209923 2543.821777
2.840000 5.000000 4.960000 -32.120880 -38.295601 2498.304199
2.840000 5.000000 5.000000 9.565651 -47.122223 2312.005615
2.840000 5.000000 5.040000 45.563271 -18.604748 2422.148438
2.840000 5.000000 5.080000 46.697220 29.665836 3060.692139
2.840000 5.000000 5.120000 9.656484 62.235146 3966.460938
2.840000 5.000000 5.160000 -38.536766 55.035034 4513.937500
2.840000 5.000000 5.200000 -62.890305 15.557701 4197.232422
2.840000 5.040000 4.800000 -10.696880 29.729031 998.238525
2.840000 5.040000 4.840000 -32.954170 24.176868 1670.498291
2.840000 5.040000 4.880000 -47.494743 -0.020585 2255.751221
2.840000 5.040000 4.920000 -38.116699 -31.807150 2464.577637
2.840000 5.040000 4.960000 -3.880080 -47.316612 2253.916748
2.840000 5.040000 5.000000 33.562691 -29.162174 1976.886719
2.840000 5.040000 5.040000 44.143421 14.733782 2165.725830
2.840000 5.040000 5.080000 15.411009 53.086960 3055.724609
2.840000 5.040000 5.120000 -33.960289 55.842453 4271.680664
2.840000 5.040000 5.160000 -67.943901 20.168301 5023.133789
2.840000 5.040000 5.200000 -63.143265 -26.735291 4701.847656
2.840000 5.080000 4.800000 -26.622112 15.726226 956.051025
2.840000 5.080000 4.840000 -38.043900 -0.913313 1448.172363
2.840000 5.080000 4.880000 -34.009438 -24.938833 1778.587158
2.840000 5.080000 4.920000 -10.473829 -40.533897 1752.697876
2.840000 5.080000 4.960000 20.172348 -31.951984 1427.852905
2.840000 5.080000 5.000000 34.435162 0.331995 1185.890625
2.840000 5.080000 5.040000 16.854624 34.766708 1492.802368
2.840000 5.080000 5.080000 -23.777248 43.751163 2479.521973
2.840000 5.080000 5.120000 -58.439247 17.341669 3715.878906
2.840000 5.080000 5.160000 -61.145264 -26.523331 4442.230469
2.840000 5.080000 5.200000 -30.983135 -56.280937 4127.498535
2.840000 5.120000 4.800000 -28.325851 -3.864501 817.288269
2.840000 5.120000 4.840000 -25.065170 -20.105925 1032.510986
2.840000 5.120000 4.880000 -9.557772 -31.158997 1062.234009
2.840000 5.120000 4.920000 11.359192 -27.036057 859.979614
2.840000 5.120000 4.960000 22.914474 -6.479618 567.058594
2.840000 5.120000 5.000000 13.201622 17.798164 491.057495
2.840000 5.120000 5.040000 -14.595135 26.269562 903.107849
2.840000 5.120000 5.080000 -41.264656 8.713032 1778.688721
2.840000 5.120000 5.120000 -45.727654 -25.056190 2718.831055
2.840000 5.120000 5.160000 -23.027658 -51.420498 3174.340820
2.840000 5.120000 5.200000 10.668262 -52.159039 2834.376953
2.840000 5.160000 4.800000 -18.442482 -16.832520 623.458862
2.840000 5.160000 4.840000 -6.777582 -23.587614 602.311157
2.840000 5.160000 4.880000 7.025377 -19.977692 448.464081
2.840000 5.160000 4.920000 13.748242 -6.625471 232.911041
2.840000 5.160000 4.960000 6.927378 7.852968 109.657677
2.840000 5.160000 5.000000 -10.528072 11.495292 242.982056
2.840000 5.160000 5.040000 -26.140253 -1.513783 685.604370
2.840000 5.160000 5.080000 -26.493748 -24.377220 1296.167480
2.840000 5.160000 5.120000 -8.542958 -41.343224 1782.244263
2.840000 5.160000 5.160000 16.638615 -39.916294 1870.154053
2.840000 5.160000 5.200000 32.168137 -21.389343 1492.293091
2.840000 5.200000 4.800000 -7.395269 -19.362179 429.583984
2.840000 5.200000 4.840000 3.329270 -16.568626 285.603424
2.840000 5.200000 4.880000 7.879109 -6.725732 107.315834
2.840000 5.200000 4.920000 2.258404 2.501132 11.356051
2.840000 5.200000 4.960000 -9.506298 2.449074 96.367668
2.840000 5.200000 5.000000 -17.192286 -9.097717 378.343140
2.840000 5.200000 5.040000 -12.207186 -24.772541 762.694153
2.840000 5.200000 5.080000 4.722329 -32.521282 1079.934204
2.840000 5.200000 5.120000 23.100710 -25.302322 1173.850342
2.840000 5.200000 5.160000 30.630707 -7.297058 991.487244
2.840000 5.200000 5.200000 23.196152 9.101925 620.906494
2.880000 4.800000 4.800000 -9.321056 0.098257 86.891747
2.880000 4.800000 4.840000 -8.597514 -5.113457 100.064690
2.880000 4.800000 4.880000 -4.725560 -9.484938 112.294960
2.880000 4.800000 4.920000 1.256718 -11.500709 133.845642
2.880000 4.800000 4.960000 8.096661 -10.538378 176.613312
2.880000 4.800000 5.000000 14.644560 -6.180740 252.664688
2.880000 4.800000 5.040000 19.134855 1.897156 369.741913
2.880000 4.800000 5.080000 18.881741 12.760197 519.342773
2.880000 4.800000 5.120000 11.759390 22.977093 666.230042
2.880000 4.800000 5.160000 -1.238306 27.401804 752.392273
2.880000 4.800000 5.200000 -14.902812 22.432600 725.315369
2.880000 4.840000 4.800000 -1.850014 -6.279407 42.853497
2.880000 4.840000 4.840000 7.738352 -2.182899 64.647141
2.880000 4.840000 4.880000 10.177685 9.884460 201.287827
2.880000 4.840000 4.920000 0.832558 19.929256 397.868408
2.880000 4.840000 4.960000 -13.562126 18.083359 510.939148
2.880000 4.840000 5.000000 -20.323021 5.024178 438.267548
2.880000 4.840000 5.040000 -13.156965 -7.590126 230.715744
2.880000 4.840000 5.080000 1.087704 -7.980687 64.874458
2.880000 4.840000 5.120000 8.551859 4.143373 90.301834
2.880000 4.840000 5.160000 1.695169 16.980606 291.214569
2.880000 4.840000 5.200000 -13.344227 17.875359 497.596832
2.880000 4.880000 4.800000 10.042503 -3.154463 110.802513
2.880000 4.880000 4.840000 16.840820 17.958069 606.105469
2.880000 4.880000 4.880000 0.270580 41.301025 1705.847900
2.880000 4.880000 4.920000 -34.064583 43.407585 3044.614258
2.880000 4.880000 4.960000 -60.712662 15.270176 3919.205566
2.880000 4.880000 5.000000 -56.206772 -25.646248 3816.931152
2.880000 4.880000 5.040000 -21.771564 -48.637257 2839.583740
2.880000 4.880000 5.080000 16.095058 -36.995819 1627.741577
2.880000 4.880000 5.120000 28.883347 -3.051575 843.559814
2.880000 4.880000 5.160000 11.075323 23.664932 682.691772
2.880000 4.880000 5.200000 -16.855888 23.414074 832.339844
2.880000 4.920000 4.800000 15.114592 10.947238 348.292908
2.880000 4.920000 4.840000 3.422989 42.500252 1817.988159
2.880000 4.920000 4.880000 -38.666489 56.033707 4634.873535
2.880000 4.920000 4.920000 -84.260788 27.480652 7855.066406
2.880000 4.920000 4.960000 -93.896729 -32.954086 9902.567383
2.880000 4.920000 5.000000 -52.265984 -83.515457 9706.564453
2.880000 4.920000 5.040000 13.941250 -85.652466 7530.703125
2.880000 4.920000 5.080000 56.862953 -38.823582 4740.666016
2.880000 4.920000 5.120000 48.764229 18.592840 2723.643555
2.880000 4.920000 5.160000 4.695719 43.658649 1928.127441
2.880000 4.920000 5.200000 -34.183773 25.448498 1816.156494
2.880000 4.960000 4.800000 4.977247 25.700804 685.304321
2.880000 4.960000 4.840000 -29.499750 48.608574 3233.028809
2.880000 4.960000 4.880000 -81.760925 32.344753 7731.032227
2.880000 4.960000 4.920000 -108.490532 -28.977335 12609.880859
2.880000 4.960000 4.960000 -76.501205 -98.320564 15519.368164
2.880000 4.960000 5.000000 1.838341 -122.548210 15021.443359
2.880000 4.960000 5.040000 73.124527 -79.612450 11685.337891
2.880000 4.960000 5.080000 87.095909 -0.730352 7586.230469
2.880000 4.960000 5.120000 39.920536 55.535858 4677.880859
2.880000 4.960000 5.160000 -24.493565 53.691414 3482.702637
2.880000 4.960000 5.200000 -55.497910 8.695938 3155.637451
2.880000 5.000000 4.800000 -15.688472 26.864971 967.854858
2.880000 5.000000 4.840000 -58.951244 25.060865 4103.296387
2.880000 5.000000 4.880000 -94.069046 -20.459337 9267.570312
2.880000 5.000000 4.920000 -80.759079 -89.661491 14561.211914
2.880000 5.000000 4.960000 -11.787931 -131.465118 17422.033203
2.880000 5.000000 5.000000 71.467331 -106.723801 16497.548828
2.880000 5.000000 5.040000 109.389488 -26.776962 12683.066406
2.880000 5.000000 5.080000 75.381668 51.820618 8367.772461
2.880000 5.000000 5.120000 -0.360532 74.570084 5560.827148
2.880000 5.000000 5.160000 -57.986504 34.681747 4565.258301
2.880000 5.000000 5.200000 -60.109318 -25.363983 4256.461914
2.880000 5.040000 4.800000 -31.189344 10.208046 1076.979370
2.880000 5.040000 4.840000 -61.228455 -14.600583 3962.100586
2.880000 5.040000 4.880000 -62.765366 -66.497772 8361.445312
2.880000 5.040000 4.920000 -16.811977 -110.776268 12554.024414
2.880000 5.040000 4.960000 56.289734 -106.318947 14472.252930
2.880000 5.040000 5.000000 106.085678 -44.787048 13260.050781
2.880000 5.040000 5.040000 93.390289 35.289597 9967.101562
2.880000 5.040000 5.080000 26.462540 77.452423 6699.144043
2.880000 5.040000 5.120000 -43.935158 55.012016 4956.620117
2.880000 5.040000 5.160000 -67.792557 -7.026871 4645.207520
2.880000 5.040000 5.200000 -37.216614 -56.291153 4553.770020
2.880000 5.080000 4.800000 -28.807041 -13.079104 1000.908630
2.880000 5.080000 4.840000 -34.059692 -42.423042 2959.777100
2.880000 5.080000 4.880000 -10.371115 -74.345764 5634.852539
2.880000 5.080000 4.920000 38.199528 -80.233482 7896.615723
2.880000 5.080000 4.960000 81.455956 -44.192394 8588.040039
2.880000 5.080000 5.000000 84.653824 16.878740 7451.162109
2.880000 5.080000 5.040000 40.049129 61.606441 5399.286133
2.880000 5.080000 5.080000 -22.247496 57.506630 3801.963379
2.880000 5.080000 5.120000 -57.416592 9.667984 3390.135010
2.880000 5.080000 5.160000 -43.494011 -43.162769 3754.753662
2.880000 5.080000 5.200000 1.475683 -62.222424 3873.807617
2.880000 5.120000 4.800000 -10.928463 -26.132755 802.352173
2.880000 5.120000 4.840000 0.890528 -41.046501 1685.608398
2.880000 5.120000 4.880000 25.324032 -44.843777 2652.270996
2.880000 5.120000 4.920000 49.891685 -27.509243 3245.938477
2.880000 5.120000 4.960000 55.577480 6.531403 3131.515381
2.880000 5.120000 5.000000 32.848396 36.614258 2419.621094
2.880000 5.120000 5.040000 -6.518764 40.190346 1657.758179
2.880000 5.120000 5.080000 -35.510559 12.580342 1419.264771
2.880000 5.120000 5.120000 -33.251656 -26.697533 1818.430908
2.880000 5.120000 5.160000 -2.982775 -48.945755 2404.583984
2.880000 5.120000 5.200000 30.676842 -40.130707 2551.542236
2.880000 5.160000 4.800000 7.387427 -22.142315 544.856201
2.880000 5.160000 4.840000 18.389881 -18.743412 689.503174
2.880000 5.160000 4.880000 25.268944 -8.219131 706.073669
2.880000 5.160000 4.920000 23.452209 5.287811 577.967041
2.880000 5.160000 4.960000 12.081255 14.645157 360.437347
2.880000 5.160000 5.000000 -3.766808 13.120395 186.333603
2.880000 5.160000 5.040000 -14.390549 -0.422308 207.266235
2.880000 5.160000 5.080000 -11.539572 -18.676847 481.986359
2.880000 5.160000 5.120000 4.560919 -29.589268 896.326782
2.880000 5.160000 5.160000 23.869993 -25.230488 1206.354004
2.880000 5.160000 5.200000 33.583302 -8.627209 1202.266846
2.880000 5.200000 4.800000 13.351607 -10.033678 278.940125
2.880000 5.200000 4.840000 12.675615 0.475037 160.896881
2.880000 5.200000 4.880000 3.721674 5.953815 49.298775
2.880000 5.200000 4.920000 -6.150829 1.683483 40.666817
2.880000 5.200000 4.960000 -8.946606 -9.332825 167.143372
2.880000 5.200000 5.000000 -2.204777 -19.297390 377.250305
2.880000 5.200000 5.040000 9.905446 -21.781437 572.548828
2.880000 5.200000 5.080000 20.460522 -15.808372 668.537598
2.880000 5.200000 5.120000 24.642387 -5.345117 635.817505
2.880000 5.200000 5.160000 22.006765 4.192062 501.871124
2.880000 5.200000 5.200000 15.536325 9.184298 325.728699
2.920000 4.800000 4.800000 -14.935930 -1.310595 224.799667
2.920000 4.800000 4.840000 -8.404585 -7.346321 124.605484
2.920000 4.800000 4.880000 -0.960716 -7.499361 57.163395
2.920000 4.800000 4.920000 3.454014 -4.620461 33.278866
2.920000 4.800000 4.960000 5.812248 -2.545078 40.259655
2.920000 4.800000 5.000000 9.647377 -1.003418 94.078735
2.920000 4.800000 5.040000 15.244114 4.188530 249.926788
2.920000 4.800000 5.080000 17.405491 15.336299 538.153198
2.920000 4.800000 5.120000 10.197048 27.902897 882.551453
2.920000 4.800000 5.160000 -5.693598 32.737785 1104.179688
2.920000 4.800000 5.200000 -21.135836 24.373825 1040.806885
2.920000 4.840000 4.800000 -4.330855 -4.922884 42.991096
2.920000 4.840000 4.840000 5.777256 9.238485 118.726295
2.920000 4.840000 4.880000 -3.698845 28.151766 806.203369
2.920000 4.840000 4.920000 -28.742706 30.678864 1767.335938
2.920000 4.840000 4.960000 -47.418858 9.101036 2331.376953
2.920000 4.840000 5.000000 -40.630058 -20.820011 2084.274414
2.920000 4.840000 5.040000 -11.889954 -33.449318 1260.227783
2.920000 4.840000 5.080000 14.674221 -17.886837 535.271729
2.920000 4.840000 5.120000 16.927406 11.208546 412.168579
2.920000 4.840000 5.160000 -4.422085 27.746548 789.425720
2.920000 4.840000 5.200000 -27.514961 19.077442 1121.021973
2.920000 4.880000 4.800000 4.370827 3.779860 33.391464
2.920000 4.880000 4.840000 -3.705574 37.156395 1394.328979
2.920000 4.880000 4.880000 -46.520485 52.545151 4925.148438
2.920000 4.880000 4.920000 -93.747421 22.393620 9290.053711
2.920000 4.880000 4.960000 -101.856483 -41.168961 12069.626953
2.920000 4.880000 5.000000 -56.083416 -91.966423 11603.172852
2.920000 4.880000 5.040000 12.295326 -90.416733 8326.360352
2.920000 4.880000 5.080000 52.522797 -40.174473 4372.632812
2.920000 4.880000 5.120000 39.767071 15.603725 1824.896118
2.920000 4.880000 5.160000 -4.777383 34.555672 1216.917847
2.920000 4.880000 5.200000 -37.394924 12.061083 1543.850098
2.920000 4.920000 4.800000 -0.457417 17.460890 305.091888
2.920000 4.920000 4.840000 -40.145550 48.228607 3937.663574
2.920000 4.920000 4.880000 -104.957901 29.123007 11864.310547
2.920000 4.920000 4.920000 -137.703247 -47.759769 21243.179688
2.920000 4.920000 4.960000 -96.350868 -133.937653 27222.785156
2.920000 4.920000 5.000000 1.317398 -162.668396 26462.744141
2.920000 4.920000 5.040000 87.695610 -109.511856 19683.367188
2.920000 4.920000 5.080000 103.643814 -16.087540 11000.848633
2.920000 4.920000 5.120000 49.576111 47.230614 4688.521484
2.920000 4.920000 5.160000 -19.408104 43.438137 2263.546143
2.920000 4.920000 5.200000 -47.242897 -3.831708 2246.573242
2.920000 4.960000 4.800000 -18.145197 20.529633 750.713989
2.920000 4.960000 4.840000 -78.288345 22.268726 6624.960938
2.920000 4.960000 4.880000 -129.357147 -41.180168 18429.078125
2.920000 4.960000 4.920000 -110.654968 -140.360031 31945.460938
2.920000 4.960000 4.960000 -12.061024 -200.565506 40371.992188
2.920000 4.960000 5.000000 106.301796 -166.886032 39151.019531
2.920000 4.960000 5.040000 161.461029 -57.439560 29368.966797
2.920000 4.960000 5.080000 119.830994 49.152397 16775.425781
2.920000 4.960000 5.120000 25.006935 82.052216 7357.912598
2.920000 4.960000 5.160000 -44.796890 37.071533 3381.060059
2.920000 4.960000 5.200000 -46.716373 -28.477041 2993.361328
2.920000 5.000000 4.800000 -33.359512 4.729900 1135.229004
2.920000 5.000000 4.840000 -84.204422 -29.590994 7966.011719
2.920000 5.000000 4.880000 -90.334633 -112.872452 20900.535156
2.920000 5.000000 4.920000 -17.550058 -186.886780 35234.671875
2.920000 5.000000 4.960000 101.475250 -183.109283 43826.234375
2.920000 5.000000 5.000000 185.523376 -87.769348 42122.378906
2.920000 5.000000 5.040000 173.304016 38.474613 31514.578125
2.920000 5.000000 5.080000 78.251068 109.570831 18128.996094
2.920000 5.000000 5.120000 -23.771816 87.264130 8180.127441
2.920000 5.000000 5.160000 -62.089520 9.405268 3943.567383
2.920000 5.000000 5.200000 -29.040489 -51.049923 3449.444824
2.920000 5.040000 4.800000 -29.658224 -20.428188 1296.921143
2.920000 5.040000 4.840000 -47.486603 -70.657410 7247.447266
2.920000 5.040000 4.880000 -9.682734 -133.349533 17875.853516
2.920000 5.040000 4.920000 80.166985 -150.892151 29195.187500
2.920000 5.040000 4.960000 165.988678 -89.514099 35565.015625
2.920000 5.040000 5.000000 182.093109 22.427542 33660.898438
2.920000 5.040000 5.040000 111.832947 111.405319 24917.753906
2.920000 5.040000 5.080000 5.456951 119.600616 14334.085938
2.920000 5.040000 5.120000 -62.149361 53.487892 6723.497559
2.920000 5.040000 5.160000 -54.707825 -25.528887 3644.670166
2.920000 5.040000 5.200000 0.324512 -57.895370 3351.979248
2.920000 5.080000 4.800000 -6.246039 -34.751717 1246.694824
2.920000 5.080000 4.840000 6.640104 -70.714584 5044.643066
2.920000 5.080000 4.880000 56.223045 -90.274696 11310.551758
2.920000 5.080000 4.920000 117.319153 -61.885952 17593.654297
2.920000 5.080000 4.960000 143.500122 11.926140 20734.517578
2.920000 5.080000 5.000000 106.559380 88.065231 19110.386719
2.920000 5.080000 5.040000 25.290916 114.917671 13845.702148
2.920000 5.080000 5.080000 -46.262733 76.103889 7932.041992
2.920000 5.080000 5.120000 -63.046700 4.907337 3998.968262
2.920000 5.080000 5.160000 -25.317898 -44.930435 2659.739990
2.920000 5.080000 5.200000 26.079033 -44.693054 2677.584961
2.920000 5.120000 4.800000 19.720329 -26.344341 1082.915649
2.920000 5.120000 4.840000 39.115635 -33.655182 2662.704102
2.920000 5.120000 4.880000 66.161484 -22.167532 4868.741211
2.920000 5.120000 4.920000 81.549088 12.190369 6798.858887
2.920000 5.120000 4.960000 67.237404 54.200356 7458.546875
2.920000 5.120000 5.000000 24.104530 76.852676 6487.362305
2.920000 5.120000 5.040000 -23.984009 62.464733 4477.075195
2.920000 5.120000 5.080000 -46.735744 19.240223 2554.416016
2.920000 5.120000 5.120000 -31.734449 -23.365894 1553.040283
2.920000 5.120000 5.160000 5.464624 -38.036514 1476.638428
2.920000 5.120000 5.200000 35.184986 -21.079815 1682.341797
2.920000 5.160000 4.800000 28.949123 -3.415318 849.716187
2.920000 5.160000 4.840000 32.229839 6.997818 1087.732056
2.920000 5.160000 4.880000 28.650578 18.316895 1156.364258
2.920000 5.160000 4.920000 19.026321 26.468658 1062.590820
2.920000 5.160000 4.960000 5.706146 28.484840 843.946228
2.920000 5.160000 5.000000 -7.493790 22.415949 558.631653
2.920000 5.160000 5.040000 -15.068800 8.784073 304.228668
2.920000 5.160000 5.080000 -12.121931 -7.367580 201.222443
2.920000 5.160000 5.120000 1.219805 -17.597673 311.166016
2.920000 5.160000 5.160000 17.790489 -15.574945 559.080444
2.920000 5.160000 5.200000 27.431587 -2.757420 760.095337
2.920000 5.200000 4.800000 18.469452 13.703863 528.916504
2.920000 5.200000 4.840000 3.666699 20.283485 424.864441
2.920000 5.200000 4.880000 -11.353577 11.686913 265.487610
2.920000 5.200000 4.920000 -13.578495 -5.724582 217.146362
2.920000 5.200000 4.960000 -1.586422 -17.687216 315.354340
2.920000 5.200000 5.000000 13.721087 -15.815113 438.386017
2.920000 5.200000 5.040000 20.425812 -4.685654 439.169128
2.920000 5.200000 5.080000 16.678677 4.343107 297.040833
2.920000 5.200000 5.120000 10.518768 5.077211 136.422562
2.920000 5.200000 5.160000 9.915792 1.494610 100.556778
2.920000 5.200000 5.200000 14.464749 1.575565 211.711380
2.960000 4.800000 4.800000 -17.545364 -5.489956 337.979431
2.960000 4.800000 4.840000 -7.421082 -7.800434 115.919220
2.960000 4.800000 4.880000 -1.133499 -3.521332 13.684598
2.960000 4.800000 4.920000 -0.507275 0.350410 0.380115
2.960000 4.800000 4.960000 -0.185597 -0.057411 0.037742
2.960000 4.800000 5.000000 5.182110 -0.736885 27.397261
2.960000 4.800000 5.040000 13.303337 5.598112 208.317627
2.960000 4.800000 5.080000 15.082764 20.113239 632.032166
2.960000 4.800000 5.120000 4.041357 34.113186 1180.041992
2.960000 4.800000 5.160000 -15.371081 36.085281 1538.417725
2.960000 4.800000 5.200000 -29.989283 23.112446 1433.542236
2.960000 4.840000 4.800000 -8.010451 -4.396156 83.493515
2.960000 4.840000 4.840000 -7.662891 16.417360 328.249634
2.960000 4.840000 4.880000 -31.644218 28.028072 1786.929443
2.960000 4.840000 4.920000 -59.905872 10.334457 3695.514648
2.960000 4.840000 4.960000 -62.659924 -28.713310 4750.720215
2.960000 4.840000 5.000000 -30.646362 -57.413929 4235.558594
2.960000 4.840000 5.040000 13.151474 -49.839973 2656.984131
2.960000 4.840000 5.080000 33.685116 -11.449368 1265.775024
2.960000 4.840000 5.120000 16.571274 25.429096 921.246033
2.960000 4.840000 5.160000 -19.216465 32.051983 1396.602051
2.960000 4.840000 5.200000 -40.908592 9.260656 1759.272705
2.960000 4.880000 4.800000 -6.907558 4.927967 71.999222
2.960000 4.880000 4.840000 -37.701450 32.838959 2499.796631
2.960000 4.880000 4.880000 -92.309113 17.539059 8828.590820
2.960000 4.880000 4.920000 -119.026314 -48.484875 16518.046875
2.960000 4.880000 4.960000 -80.767494 -121.330002 21244.357422
2.960000 4.880000 5.000000 4.865425 -142.001862 20188.201172
2.960000 4.880000 5.040000 76.823746 -91.458588 14266.560547
2.960000 4.880000 5.080000 84.749352 -9.679661 7276.148438
2.960000 4.880000 5.120000 33.413712 40.920689 2790.979004
2.960000 4.880000 5.160000 -25.527529 31.587887 1649.449341
2.960000 4.880000 5.200000 -44.287102 -11.778274 2100.075195
2.960000 4.920000 4.800000 -18.309841 9.246737 420.752411
2.960000 4.920000 4.840000 -78.727516 13.340349 6375.986816
2.960000 4.920000 4.880000 -130.891769 -51.544361 19789.476562
2.960000 4.920000 4.920000 -109.831696 -153.625809 35663.890625
2.960000 4.920000 4.960000 -6.166969 -213.531586 45633.769531
2.960000 4.920000 5.000000 115.231216 -175.362030 44030.074219
2.960000 4.920000 5.040000 168.553299 -61.385300 32178.369141
2.960000 4.920000 5.080000 122.951630 45.298599 17169.066406
2.960000 4.920000 5.120000 27.479240 74.548386 6312.570312
2.960000 4.920000 5.160000 -37.897415 27.739119 2205.672852
2.960000 4.920000 5.200000 -34.896469 -33.508263 2340.567383
2.960000 4.960000 4.800000 -31.073059 -2.514202 971.856201
2.960000 4.960000 4.840000 -92.221878 -40.676003 10159.412109
2.960000 4.960000 4.880000 -99.839432 -139.741455 29495.585938
2.960000 4.960000 4.920000 -11.870604 -227.572632 51930.214844
2.960000 4.960000 4.960000 130.553131 -221.226944 65985.476562
2.960000 4.960000 5.000000 229.160660 -106.601944 63878.585938
2.960000 4.960000 5.040000 213.419540 41.593998 47277.960938
2.960000 4.960000 5.080000 103.393311 122.827675 25776.814453
2.960000 4.960000 5.120000 -10.626837 97.241013 9568.744141
2.960000 4.960000 5.160000 -50.600346 13.201103 2734.664062
2.960000 4.960000 5.200000 -14.469770 -46.540138 2375.358643
2.960000 5.000000 4.800000 -28.058331 -25.465008 1435.736572
2.960000 5.000000 4.840000 -56.165916 -92.632721 11735.431641
2.960000 5.000000 4.880000 -5.834473 -180.010315 32437.753906
2.960000 5.000000 4.920000 118.135986 -204.983490 55974.343750
2.960000 5.000000 4.960000 236.460388 -120.739029 70491.429688
2.960000 5.000000 5.000000 259.036316 31.779217 68109.734375
2.960000 5.000000 5.040000 165.976257 151.972931 50643.890625
2.960000 5.000000 5.080000 27.145895 165.002869 27962.847656
2.960000 5.000000 5.120000 -59.764313 83.738449 10583.901367
2.960000 5.000000 5.160000 -52.723236 -10.483805 2889.649658
2.960000 5.000000 5.200000 8.350764 -45.664253 2154.959473
2.960000 5.040000 4.800000 -4.101561 -40.346027 1644.624634
2.960000 5.040000 4.840000 10.172119 -101.015579 10307.619141
2.960000 5.040000 4.880000 89.193947 -137.938324 26982.541016
2.960000 5.040000 4.920000 190.757629 -95.304359 45471.394531
2.960000 5.040000 4.960000 236.656616 23.278152 56548.226562
2.960000 5.040000 5.000000 180.991333 146.846558 54321.773438
2.960000 5.040000 5.040000 55.195282 193.330292 40423.121094
2.960000 5.040000 5.080000 -55.867023 139.402588 22554.207031
2.960000 5.040000 5.120000 -85.790390 37.991539 8803.348633
2.960000 5.040000 5.160000 -38.885658 -32.023331 2537.587891
2.960000 5.040000 5.200000 24.101410 -33.846169 1726.441040
2.960000 5.080000 4.800000 25.996008 -31.184301 1648.253052
2.960000 5.080000 4.840000 60.045689 -57.895599 6957.384766
2.960000 5.080000 4.880000 120.672836 -44.915794 16579.361328
2.960000 5.080000 4.920000 162.240204 22.824677 26842.849609
2.960000 5.080000 4.960000 140.989258 113.126434 32675.560547
2.960000 5.080000 5.000000 56.826111 166.791718 31048.683594
2.960000 5.080000 5.040000 -40.739403 146.353729 23079.113281
2.960000 5.080000 5.080000 -91.364944 68.733658 13071.869141
2.960000 5.080000 5.120000 -72.883965 -9.383106 5400.114746
2.960000 5.080000 5.160000 -15.618174 -39.781792 1826.518311
2.960000 5.080000 5.200000 29.126791 -19.485279 1228.046021
2.960000 5.120000 4.800000 39.526428 -1.946276 1566.126465
2.960000 5.120000 4.840000 60.399231 2.648039 3655.079346
2.960000 5.120000 4.880000 77.729736 29.704689 6924.280762
2.960000 5.120000 4.920000 70.723259 71.478073 10110.894531
2.960000 5.120000 4.960000 31.512154 103.396690 11683.891602
2.960000 5.120000 5.000000 -24.036316 101.311523 10841.768555
2.960000 5.120000 5.040000 -65.007629 61.924950 8060.691406
2.960000 5.120000 5.080000 -68.401497 7.730633 4738.527344
2.960000 5.120000 5.120000 -37.000458 -29.383770 2232.439941
2.960000 5.120000 5.160000 3.783457 -32.306854 1058.047363
2.960000 5.120000 5.200000 27.084539 -9.679853 827.271851
2.960000 5.160000 4.800000 27.207396 25.615765 1396.409790
2.960000 5.160000 4.840000 20.691668 35.582680 1694.272217
2.960000 5.160000 4.880000 8.833733 40.614925 1727.606934
2.960000 5.160000 4.920000 -3.867538 39.421951 1569.048096
2.960000 5.160000 4.960000 -14.946808 33.481010 1344.385132
2.960000 5.160000 5.000000 -23.684425 23.367153 1106.975830
2.960000 5.160000 5.040000 -27.854393 8.718964 851.887512
2.960000 5.160000 5.080000 -23.289572 -8.034695 606.960510
2.960000 5.160000 5.120000 -8.439365 -19.802511 463.362366
2.960000 5.160000 5.160000 11.103477 -19.130720 489.271667
2.960000 5.160000 5.200000 24.518696 -5.476957 631.163513
2.960000 5.200000 4.800000 2.343447 32.044792 1032.360352
2.960000 5.200000 4.840000 -18.659340 25.236729 985.063416
2.960000 5.200000 4.880000 -26.966148 2.427769 733.067200
2.960000 5.200000 4.920000 -13.963333 -18.303745 530.001770
2.960000 5.200000 4.960000 8.830784 -20.086781 481.461487
2.960000 5.200000 5.000000 21.200375 -4.415611 468.953491
2.960000 5.200000 5.040000 14.761749 10.878139 336.243164
2.960000 5.200000 5.080000 0.802189 10.563927 112.240059
2.960000 5.200000 5.120000 -2.663122 -2.371981 12.718512
2.960000 5.200000 5.160000 9.626507 -10.912517 211.752655
2.960000 5.200000 5.200000 24.948069 -2.801855 630.256531
3.000000 4.800000 4.800000 -17.967442 -8.852871 401.202271
3.000000 4.800000 4.840000 -8.836983 -7.458246 133.717697
3.000000 4.800000 4.880000 -5.709461 -2.675301 39.755180
3.000000 4.800000 4.920000 -6.325182 -1.255875 41.585148
3.000000 4.800000 4.960000 -3.883282 -3.352325 26.317963
3.000000 4.800000 5.000000 4.132355 -2.082073 21.411385
3.000000 4.800000 5.040000 11.447777 8.426068 202.050217
3.000000 4.800000 5.080000 8.425968 24.896809 690.848022
3.000000 4.800000 5.120000 -7.536864 35.941353 1348.585205
3.000000 4.800000 5.160000 -27.587797 32.233257 1800.069458
3.000000 4.800000 5.200000 -38.333992 15.926387 1723.144775
3.000000 4.840000 4.800000 -14.110416 -6.737320 244.495331
3.000000 4.840000 4.840000 -25.687908 8.869312 738.533325
3.000000 4.840000 4.880000 -52.193848 2.489716 2730.396484
3.000000 4.840000 4.920000 -64.418907 -31.471497 5140.250488
3.000000 4.840000 4.960000 -41.052361 -68.286880 6348.394531
3.000000 4.840000 5.000000 7.147629 -74.315918 5573.943848
3.000000 4.840000 5.040000 44.134895 -39.916187 3541.190918
3.000000 4.840000 5.080000 41.264702 9.454979 1792.172241
3.000000 4.840000 5.120000 3.880154 35.986092 1310.054321
3.000000 4.840000 5.160000 -34.620613 23.905405 1770.055176
3.000000 4.840000 5.200000 -44.785683 -8.307516 2074.772217
3.000000 4.880000 4.800000 -18.410837 -4.914810 363.114288
3.000000 4.880000 4.840000 -59.818165 -0.695808 3578.697021
3.000000 4.880000 4.880000 -96.202950 -47.557098 11516.685547
3.000000 4.880000 4.920000 -78.067451 -121.554436 20870.007812
3.000000 4.880000 4.960000 0.943321 -162.342102 26355.849609
3.000000 4.880000 5.000000 90.348366 -128.672012 24719.312500
3.000000 4.880000 5.040000 125.173996 -39.962704 17265.546875
3.000000 4.880000 5.080000 84.568359 38.867149 8662.462891
3.000000 4.880000 5.120000 9.226389 55.547241 3170.622314
3.000000 4.880000 5.160000 -38.721478 14.679092 1714.828491
3.000000 4.880000 5.200000 -32.298721 -33.628448 2174.080078
3.000000 4.920000 4.800000 -25.316990 -13.189787 814.920410
3.000000 4.920000 4.840000 -77.830917 -45.463341 8124.567383
3.000000 4.920000 4.880000 -82.767815 -132.530457 24414.833984
3.000000 4.920000 4.920000 -2.173409 -208.427200 43446.621094
3.000000 4.920000 4.960000 125.246658 -198.517639 55095.980469
3.000000 4.920000 5.000000 210.073303 -92.491531 52685.476562
3.000000 4.920000 5.040000 190.867249 39.746330 38010.074219
3.000000 4.920000 5.080000 89.658333 108.068840 19717.490234
3.000000 4.920000 5.120000 -10.242298 80.567780 6596.071777
3.000000 4.920000 5.160000 -41.035992 4.927447 1708.232422
3.000000 4.920000 5.200000 -5.954199 -44.254547 1993.917480
3.000000 4.960000 4.800000 -21.448885 -30.657337 1399.927002
3.000000 4.960000 4.840000 -50.473015 -98.426270 12235.255859
3.000000 4.960000 4.880000 2.520052 -187.798340 35274.566406
3.000000 4.960000 4.920000 131.767502 -211.170670 61955.726562
3.000000 4.960000 4.960000 252.786591 -120.803581 78494.562500
3.000000 4.960000 5.000000 272.392822 37.747658 75622.734375
3.000000 4.960000 5.040000 173.648987 158.941360 55416.328125
3.000000 4.960000 5.080000 32.284386 168.446335 29416.449219
3.000000 4.960000 5.120000 -51.933357 84.763832 9881.980469
3.000000 4.960000 5.160000 -41.354019 -6.398520 1751.095947
3.000000 4.960000 5.200000 17.961353 -35.250137 1565.182373
3.000000 5.000000 4.800000 -0.011410 -42.824982 1833.979126
3.000000 5.000000 4.840000 15.049355 -115.785759 13632.825195
3.000000 5.000000 4.880000 110.105133 -160.715393 37952.578125
3.000000 5.000000 4.920000 232.425858 -108.511925 65796.617188
3.000000 5.000000 4.960000 286.058777 34.735580 83036.187500
3.000000 5.000000 5.000000 217.634369 181.255066 80218.117188
3.000000 5.000000 5.040000 68.640633 233.796051 59372.128906
3.000000 5.000000 5.080000 -58.755764 169.414444 32153.494141
3.000000 5.000000 5.120000 -90.262924 54.758820 11145.923828
3.000000 5.000000 5.160000 -37.484501 -19.271969 1776.496582
3.000000 5.000000 5.200000 26.498821 -17.047373 992.800415
3.000000 5.040000 4.800000 28.820990 -34.092281 1992.933105
3.000000 5.040000 4.840000 75.423439 -77.293274 11662.945312
3.000000 5.040000 4.880000 164.692047 -62.305542 31005.451172
3.000000 5.040000 4.920000 227.150757 34.511120 52788.480469
3.000000 5.040000 4.960000 197.786407 164.325058 66122.187500
3.000000 5.040000 5.000000 78.759514 240.198151 63898.214844
3.000000 5.040000 5.040000 -56.362892 211.104340 47741.820312
3.000000 5.040000 5.080000 -123.740875 105.751373 26495.156250
3.000000 5.040000 5.120000 -98.469887 4.686836 9718.285156
3.000000 5.040000 5.160000 -27.506189 -30.906208 1711.784180
3.000000 5.040000 5.200000 21.284885 -5.180395 479.882843
3.000000 5.080000 4.800000 44.145874 -4.303041 1967.374268
3.000000 5.080000 4.840000 87.635452 -7.773327 7740.397461
3.000000 5.080000 4.880000 131.371826 38.620899 18750.130859
3.000000 5.080000 4.920000 127.132553 120.952766 30792.257812
3.000000 5.080000 4.960000 56.593662 186.481827 37978.316406
3.000000 5.080000 5.000000 -46.426247 185.720901 36647.648438
3.000000 5.080000 5.040000 -120.110031 115.574928 27783.984375
3.000000 5.080000 5.080000 -124.701355 22.821533 16071.250000
3.000000 5.080000 5.120000 -72.640457 -35.461678 6534.166992
3.000000 5.080000 5.160000 -12.472056 -37.193146 1538.882324
3.000000 5.080000 5.200000 15.334091 -5.666500 267.243591
3.000000 5.120000 4.800000 33.134155 28.067921 1885.680420
3.000000 5.120000 4.840000 47.353813 43.175575 4106.513672
3.000000 5.120000 4.880000 45.592003 75.490448 7777.438477
3.000000 5.120000 4.920000 15.132721 106.069016 11479.634766
3.000000 5.120000 4.960000 -36.190002 110.529099 13526.398438
3.000000 5.120000 5.000000 -82.549232 78.556969 12985.573242
3.000000 5.120000 5.040000 -98.207382 23.704041 10206.571289
3.000000 5.120000 5.080000 -76.483818 -25.546352 6502.390625
3.000000 5.120000 5.120000 -33.847816 -46.230843 3282.965332
3.000000 5.120000 5.160000 3.632908 -35.889431 1301.249268
3.000000 5.120000 5.200000 19.235550 -10.639854 483.212891
3.000000 5.160000 4.800000 4.008368 41.269733 1719.257935
3.000000 5.160000 4.840000 -8.236383 44.875359 2081.635742
3.000000 5.160000 4.880000 -21.896278 40.358891 2108.287109
3.000000 5.160000 4.920000 -31.149490 30.053280 1873.490479
3.000000 5.160000 4.960000 -35.479515 18.556526 1603.140625
3.000000 5.160000 5.000000 -37.365532 6.759789 1441.877686
3.000000 5.160000 5.040000 -36.140533 -7.604210 1363.962158
3.000000 5.160000 5.080000 -26.905708 -23.534527 1277.791016
3.000000 5.160000 5.120000 -7.121208 -33.313187 1160.479980
3.000000 5.160000 5.160000 16.639118 -28.082743 1065.500732
3.000000 5.160000 5.200000 30.974253 -7.765869 1019.713074
3.000000 5.200000 4.800000 -20.653809 30.015667 1327.520020
3.000000 5.200000 4.840000 -35.837486 10.455718 1393.647461
3.000000 5.200000 4.880000 -29.466639 -16.713610 1147.627563
3.000000 5.200000 4.920000 -3.929478 -28.754025 842.234741
3.000000 5.200000 4.960000 18.925127 -16.255211 622.392334
3.000000 5.200000 5.000000 19.948465 6.070671 434.794342
3.000000 5.200000 5.040000 2.936752 14.405338 216.138290
3.000000 5.200000 5.080000 -9.365173 1.105492 88.928589
3.000000 5.200000 5.120000 0.238737 -17.002264 289.134003
3.000000 5.200000 5.160000 24.517218 -16.617390 877.231567
3.000000 5.200000 5.200000 38.960297 6.876037 1565.184570
3.040000 4.800000 4.800000 -19.073166 -11.501818 496.077454
3.040000 4.800000 4.840000 -12.389679 -10.299791 259.589844
3.040000 4.800000 4.880000 -9.555311 -8.072083 156.462494
3.040000 4.800000 4.920000 -7.331318 -7.900124 116.160172
3.040000 4.800000 4.960000 -2.008957 -7.386299 58.593323
3.040000 4.800000 5.000000 4.980148 -1.386982 26.725597
3.040000 4.800000 5.040000 6.961712 11.341747 177.100677
3.040000 4.800000 5.080000 -1.699316 24.692558 612.610107
3.040000 4.800000 5.120000 -18.988548 29.287506 1218.322998
3.040000 4.800000 5.160000 -35.371799 20.796684 1683.666260
3.040000 4.800000 5.200000 -41.333199 4.428192 1728.042236
3.040000 4.840000 4.800000 -19.723352 -15.555944 630.998047
3.040000 4.840000 4.840000 -33.282459 -13.607269 1292.879883
3.040000 4.840000 4.880000 -45.721817 -33.236095 3195.122559
3.040000 4.840000 4.920000 -34.082008 -64.146599 5276.369141
3.040000 4.840000 4.960000 4.438126 -78.257973 6144.006836
3.040000 4.840000 5.000000 45.260963 -56.543869 5245.764160
3.040000 4.840000 5.040000 56.888817 -9.680489 3330.049316
3.040000 4.840000 5.080000 30.037504 29.223988 1756.293091
3.040000 4.840000 5.120000 -13.365974 33.749733 1317.693726
3.040000 4.840000 5.160000 -40.375874 6.959995 1678.652710
3.040000 4.840000 5.200000 -36.359207 -23.970329 1896.568604
3.040000 4.880000 4.800000 -19.843670 -24.550043 996.475830
3.040000 4.880000 4.840000 -48.316994 -44.007595 4271.200195
3.040000 4.880000 4.880000 -47.473976 -96.808426 11625.649414
3.040000 4.880000 4.920000 6.625496 -140.924759 19903.683594
3.040000 4.880000 4.960000 88.215668 -128.987289 24419.724609
3.040000 4.880000 5.000000 139.116180 -55.991745 22488.388672
3.040000 4.880000 5.040000 120.583458 30.831551 15490.955078
3.040000 4.880000 5.080000 49.378292 72.229431 7655.306641
3.040000 4.880000 5.120000 -17.903168 48.794685 2701.444824
3.040000 4.880000 5.160000 -36.438316 -5.687798 1360.101929
3.040000 4.880000 5.200000 -9.912424 -40.352119 1726.549683
3.040000 4.920000 4.800000 -11.599755 -37.381935 1531.963379
3.040000 4.920000 4.840000 -30.165932 -86.985222 8476.412109
3.040000 4.920000 4.880000 13.435390 -152.120972 23321.298828
3.040000 4.920000 4.920000 113.976685 -165.061951 40236.132812
3.040000 4.920000 4.960000 204.991364 -90.195969 50156.773438
3.040000 4.920000 5.000000 214.788162 34.722397 47339.597656
3.040000 4.920000 5.040000 132.985474 126.431473 33670.054688
3.040000 4.920000 5.080000 21.516590 128.723709 17032.755859
3.040000 4.920000 5.120000 -41.398037 59.571449 5262.555176
3.040000 4.920000 5.160000 -29.065556 -11.705688 981.829651
3.040000 4.920000 5.200000 19.067936 -31.488358 1355.102783
3.040000 4.960000 4.800000 8.877172 -44.043381 2018.623535
3.040000 4.960000 4.840000 23.881479 -106.578613 11929.326172
3.040000 4.960000 4.880000 110.103470 -143.383179 32681.511719
3.040000 4.960000 4.920000 218.843903 -92.231758 56399.351562
3.040000 4.960000 4.960000 263.006958 39.329266 70719.445312
3.040000 4.960000 5.000000 196.541534 169.964798 67516.609375
3.040000 4.960000 5.040000 60.541256 212.675964 48896.308594
3.040000 4.960000 5.080000 -51.250851 150.767609 25357.521484
3.040000 4.960000 5.120000 -74.612930 48.177536 7888.164062
3.040000 4.960000 5.160000 -25.058916 -13.460093 809.123352
3.040000 4.960000 5.200000 29.005573 -6.769489 887.149292
3.040000 5.000000 4.800000 33.692303 -33.368511 2248.628906
3.040000 5.000000 4.840000 82.028458 -77.610275 12752.023438
3.040000 5.000000 4.880000 175.507324 -60.347656 34444.660156
3.040000 5.000000 4.920000 239.383545 43.109856 59162.941406
3.040000 5.000000 4.960000 205.381866 179.092896 74255.976562
3.040000 5.000000 5.000000 78.839294 255.246277 71366.296875
3.040000 5.000000 5.040000 -60.088558 220.967209 52437.140625
3.040000 5.000000 5.080000 -124.887939 111.205986 27963.769531
3.040000 5.000000 5.120000 -95.162827 11.777092 9194.664062
3.040000 5.000000 5.160000 -24.783459 -17.926865 935.592285
3.040000 5.000000 5.200000 16.868998 10.618217 397.309631
3.040000 5.040000 4.800000 46.515144 -5.165606 2190.342285
3.040000 5.040000 4.840000 102.234505 -12.528542 10608.857422
3.040000 5.040000 4.880000 160.102325 45.506218 27703.570312
3.040000 5.040000 4.920000 155.817719 150.678543 46983.187500
3.040000 5.040000 4.960000 66.372452 233.148193 58763.378906
3.040000 5.040000 5.000000 -61.955765 230.039810 56756.828125
3.040000 5.040000 5.040000 -149.480240 141.651764 42409.562500
3.040000 5.040000 5.080000 -150.191223 31.016670 23519.437500
3.040000 5.040000 5.120000 -86.539261 -32.143757 8522.264648
3.040000 5.040000 5.160000 -21.463816 -28.241043 1258.251953
3.040000 5.040000 5.200000 0.872398 6.728574 46.034782
3.040000 5.080000 4.800000 36.136192 25.990526 1981.331787
3.040000 5.080000 4.840000 69.556282 45.624413 6919.663086
3.040000 5.080000 4.880000 77.199631 102.959564 16560.455078
3.040000 5.080000 4.920000 30.431534 161.959167 27156.849609
3.040000 5.080000 4.960000 -56.455978 174.254181 33551.796875
3.040000 5.080000 5.000000 -133.337387 121.609154 32567.644531
3.040000 5.080000 5.040000 -154.619781 33.297855 25016.025391
3.040000 5.080000 5.080000 -115.719574 -38.163372 14847.462891
3.040000 5.080000 5.120000 -52.749184 -59.618805 6336.877930
3.040000 5.080000 5.160000 -8.439070 -38.991631 1591.565186
3.040000 5.080000 5.200000 1.627363 -9.467149 92.275215
3.040000 5.120000 4.800000 7.746378 41.167065 1754.733521
3.040000 5.120000 4.840000 10.248625 59.670811 3665.640137
3.040000 5.120000 4.880000 -8.940937 82.409286 6871.230957
3.040000 5.120000 4.920000 -48.161819 88.093529 10080.030273
3.040000 5.120000 4.960000 -88.272896 64.017189 11890.304688
3.040000 5.120000 5.000000 -106.331490 16.998299 11595.328125
3.040000 5.120000 5.040000 -92.274239 -31.201614 9488.076172
3.040000 5.120000 5.080000 -54.966881 -59.304123 6538.336914
3.040000 5.120000 5.120000 -14.231934 -59.753365 3773.012451
3.040000 5.120000 5.160000 12.980606 -40.368355 1798.100220
3.040000 5.120000 5.200000 21.169676 -15.823249 698.530396
3.040000 5.160000 4.800000 -20.038843 33.109272 1497.779053
3.040000 5.160000 4.840000 -31.901739 29.686966 1899.036865
3.040000 5.160000 4.880000 -40.966156 17.725370 1992.414673
3.040000 5.160000 4.920000 -41.968018 2.944237 1769.983032
3.040000 5.160000 4.960000 -37.378372 -8.568062 1470.554443
3.040000 5.160000 5.000000 -32.191353 -17.259117 1334.160400
3.040000 5.160000 5.040000 -25.877659 -27.420078 1421.513916
3.040000 5.160000 5.080000 -12.471184 -38.337391 1625.285889
3.040000 5.160000 5.120000 10.185955 -41.132545 1795.640015
3.040000 5.160000 5.160000 33.097588 -27.179253 1834.162109
3.040000 5.160000 5.200000 41.184319 0.251812 1696.211426
3.040000 5.200000 4.800000 -30.922337 12.488977 1112.165527
3.040000 5.200000 4.840000 -34.140282 -10.609299 1278.116089
3.040000 5.200000 4.880000 -15.681443 -30.531248 1178.064697
3.040000 5.200000 4.920000 12.090634 -28.525158 959.868042
3.040000 5.200000 4.960000 25.557447 -6.743797 698.661926
3.040000 5.200000 5.000000 15.184280 12.284214 381.464294
3.040000 5.200000 5.040000 -3.163261 9.320791 96.883377
3.040000 5.200000 5.080000 -4.696709 -10.062998 123.322998
3.040000 5.200000 5.120000 16.922350 -20.488527 706.145691
3.040000 5.200000 5.160000 41.213501 -4.021490 1714.724976
3.040000 5.200000 5.200000 41.556122 29.352640 2588.488770
3.080000 4.800000 4.800000 -20.962336 -16.352295 706.817078
3.080000 4.800000 4.840000 -13.461153 -17.790089 497.689880
3.080000 4.800000 4.880000 -6.984749 -16.249619 312.836823
3.080000 4.800000 4.920000 -1.663063 -12.761074 165.610794
3.080000 4.800000 4.960000 2.478340 -7.105416 56.629112
3.080000 4.800000 5.000000 3.982597 1.195862 17.291168
3.080000 4.800000 5.040000 0.309881 10.770248 116.094276
3.080000 4.800000 5.080000 -9.661049 17.597137 402.995117
3.080000 4.800000 5.120000 -23.246885 17.115326 833.352051
3.080000 4.800000 5.160000 -34.435848 7.950497 1249.038086
3.080000 4.800000 5.200000 -37.708313 -6.125043 1459.432983
3.080000 4.840000 4.800000 -18.085896 -29.944447 1223.769531
3.080000 4.840000 4.840000 -20.632050 -37.158970 1806.470459
3.080000 4.840000 4.880000 -13.865299 -52.906658 2991.361084
3.080000 4.840000 4.920000 9.718376 -63.202785 4089.038818
3.080000 4.840000 4.960000 40.260834 -52.049328 4330.067383
3.080000 4.840000 5.000000 56.238514 -18.808510 3516.530518
3.080000 4.840000 5.040000 43.460762 17.625160 2199.484131
3.080000 4.840000 5.080000 9.119507 33.504532 1205.719116
3.080000 4.840000 5.120000 -23.283518 20.427347 959.398682
3.080000 4.840000 5.160000 -33.807236 -8.137690 1209.151245
3.080000 4.840000 5.200000 -21.865665 -29.918152 1373.203125
3.080000 4.880000 4.800000 -4.480135 -42.912636 1861.565918
3.080000 4.880000 4.840000 -6.559759 -65.840111 4377.950684
3.080000 4.880000 4.880000 21.261417 -93.864243 9262.543945
3.080000 4.880000 4.920000 75.327957 -93.201950 14360.904297
3.080000 4.880000 4.960000 120.638741 -46.970016 16759.888672
3.080000 4.880000 5.000000 120.152138 23.229919 14976.165039
3.080000 4.880000 5.040000 69.966156 72.151520 10101.105469
3.080000 4.880000 5.080000 5.118294 69.783173 4895.888184
3.080000 4.880000 5.120000 -30.734533 26.921225 1669.363770
3.080000 4.880000 5.160000 -22.492117 -17.071413 797.328491
3.080000 4.880000 5.200000 7.749711 -31.141537 1029.853271
3.080000 4.920000 4.800000 18.946562 -45.416878 2421.665039
3.080000 4.920000 4.840000 33.706234 -79.504959 7457.148926
3.080000 4.920000 4.880000 90.731491 -95.579407 17367.625000
3.080000 4.920000 4.920000 158.374405 -55.457878 28158.027344
3.080000 4.920000 4.960000 181.182465 33.986980 33982.199219
3.080000 4.920000 5.000000 131.392761 118.774506 31371.441406
3.080000 4.920000 5.040000 38.291840 142.797363 21857.353516
3.080000 4.920000 5.080000 -35.434757 97.321609 10727.118164
3.080000 4.920000 5.120000 -48.250599 26.701584 3041.094971
3.080000 4.920000 5.160000 -12.399532 -14.310423 358.536621
3.080000 4.920000 5.200000 25.130939 -8.485627 703.570007
3.080000 4.960000 4.800000 42.023415 -30.339764 2686.468750
3.080000 4.960000 4.840000 79.597900 -57.190418 9606.569336
3.080000 4.960000 4.880000 148.273239 -37.832237 23416.230469
3.080000 4.960000 4.920000 191.647125 44.883854 38743.179688
3.080000 4.960000 4.960000 159.424301 148.567734 47488.476562
3.080000 4.960000 5.000000 58.516590 202.845322 44570.414062
3.080000 4.960000 5.040000 -47.713348 171.542984 31703.560547
3.080000 4.960000 5.080000 -93.708450 84.887115 15987.095703
3.080000 4.960000 5.120000 -67.173119 10.269522 4617.690918
3.080000 4.960000 5.160000 -12.741064 -8.591518 236.148895
3.080000 4.960000 5.200000 16.018814 15.656779 501.737152
3.080000 5.000000 4.800000 50.647369 -1.326309 2566.915039
3.080000 5.000000 4.840000 98.367203 -4.029421 9692.342773
3.080000 5.000000 4.880000 146.622864 50.437271 24042.181641
3.080000 5.000000 4.920000 138.300781 144.761917 40083.117188
3.080000 5.000000 4.960000 54.693291 215.631424 49488.265625
3.080000 5.000000 5.000000 -60.157021 208.182098 46958.652344
3.080000 5.000000 5.040000 -134.412216 126.408127 34045.660156
3.080000 5.000000 5.080000 -130.159088 29.726528 17825.054688
3.080000 5.000000 5.120000 -72.371086 -20.624083 5662.926758
3.080000 5.000000 5.160000 -19.273539 -12.310262 523.011841
3.080000 5.000000 5.200000 -6.828960 17.667738 358.783661
3.080000 5.040000 4.800000 37.753693 27.123596 2161.030762
3.080000 5.040000 4.840000 73.532219 48.308720 7740.719727
3.080000 5.040000 4.880000 81.553001 110.961975 18963.451172
3.080000 5.040000 4.920000 29.776611 174.836823 31454.560547
3.080000 5.040000 4.960000 -64.668549 186.241898 38868.062500
3.080000 5.040000 5.000000 -145.050705 127.229782 37227.125000
3.080000 5.040000 5.040000 -162.877441 33.537094 27653.796875
3.080000 5.040000 5.080000 -118.270660 -36.509750 15320.911133
3.080000 5.040000 5.120000 -55.007751 -51.411953 5669.041992
3.080000 5.040000 5.160000 -17.950424 -27.070906 1055.051636
3.080000 5.040000 5.200000 -16.273363 -2.615057 271.660889
3.080000 5.080000 4.800000 10.246021 39.537643 1668.206177
3.080000 5.080000 4.840000 21.131073 66.712677 4897.103516
3.080000 5.080000 4.880000 -1.631126 105.716736 11178.688477
3.080000 5.080000 4.920000 -58.989502 120.427635 17982.576172
3.080000 5.080000 4.960000 -119.474876 87.846695 21991.289062
3.080000 5.080000 5.000000 -144.447891 20.227818 21274.357422
3.080000 5.080000 5.040000 -120.335587 -44.424919 16454.226562
3.080000 5.080000 5.080000 -67.787476 -73.867432 10051.539062
3.080000 5.080000 5.120000 -21.142111 -65.106216 4685.808105
3.080000 5.080000 5.160000 0.068365 -39.946983 1595.766113
3.080000 5.080000 5.200000 1.069441 -21.083399 445.653412
3.080000 5.120000 4.800000 -15.535654 31.490294 1232.995117
3.080000 5.120000 4.840000 -23.174067 44.515686 2518.683594
3.080000 5.120000 4.880000 -47.165012 48.991493 4624.705078
3.080000 5.120000 4.920000 -74.709480 32.490189 6637.118652
3.080000 5.120000 4.960000 -87.767975 -2.118378 7707.704590
3.080000 5.120000 5.000000 -77.302162 -39.318012 7521.530762
3.080000 5.120000 5.040000 -48.563019 -63.189140 6351.234375
3.080000 5.120000 5.080000 -14.843460 -67.356293 4757.198242
3.080000 5.120000 5.120000 12.279915 -55.458549 3226.447021
3.080000 5.120000 5.160000 27.518738 -35.240688 1999.187012
3.080000 5.120000 5.200000 30.384220 -13.814602 1114.044067
3.080000 5.160000 4.800000 -26.718079 12.699976 875.145081
3.080000 5.160000 4.840000 -34.587654 5.419754 1225.679565
3.080000 5.160000 4.880000 -36.135769 -8.718716 1381.809814
3.080000 5.160000 4.920000 -28.438515 -21.234669 1259.660278
3.080000 5.160000 4.960000 -17.476849 -26.550438 1010.366028
3.080000 5.160000 5.000000 -9.513138 -27.943167 871.320374
3.080000 5.160000 5.040000 -2.597633 -31.498758 998.919434
3.080000 5.160000 5.080000 10.441212 -35.746460 1386.828369
3.080000 5.160000 5.120000 30.384907 -30.855568 1875.308594
3.080000 5.160000 5.160000 45.963280 -10.219738 2217.066162
3.080000 5.160000 5.200000 43.026260 18.376045 2188.937988
3.080000 5.200000 4.800000 -23.645075 -2.118433 563.577271
3.080000 5.200000 4.840000 -18.177256 -19.824028 723.404724
3.080000 5.200000 4.880000 2.946067 -27.898054 786.980774
3.080000 5.200000 4.920000 23.341389 -15.699093 791.281982
3.080000 5.200000 4.960000 25.088619 6.232727 668.285706
3.080000 5.200000 5.000000 9.621841 16.228516 355.944550
3.080000 5.200000 5.040000 -2.261139 5.722988 37.865341
3.080000 5.200000 5.080000 6.872894 -9.664894 140.646851
3.080000 5.200000 5.120000 30.254906 -6.209057 953.911682
3.080000 5.200000 5.160000 42.088097 21.058262 2214.858154
3.080000 5.200000 5.200000 24.768353 50.397766 3153.406250
3.120000 4.800000 4.800000 -20.153881 -24.395077 1001.298706
3.120000 4.800000 4.840000 -8.174433 -25.867645 735.956421
3.120000 4.800000 4.880000 1.516602 -20.147980 408.241180
3.120000 4.800000 4.920000 5.314751 -11.106104 151.592117
3.120000 4.800000 4.960000 3.831440 -3.250927 25.248459
3.120000 4.800000 5.000000 0.063837 1.808037 3.273072
3.120000 4.800000 5.040000 -4.356218 5.275211 46.804493
3.120000 4.800000 5.080000 -10.455616 7.824497 170.542664
3.120000 4.800000 5.120000 -19.159903 7.256154 419.753632
3.120000 4.800000 5.160000 -27.897827 0.449450 778.490784
3.120000 4.800000 5.200000 -31.104971 -12.215949 1116.748657
3.120000 4.840000 4.800000 -5.365014 -42.073517 1798.964111
3.120000 4.840000 4.840000 5.959356 -44.638870 2028.142700
3.120000 4.840000 4.880000 20.223614 -42.975372 2255.877197
3.120000 4.840000 4.920000 34.986320 -32.963123 2310.610107
3.120000 4.840000 4.960000 43.134377 -13.623524 2046.174805
3.120000 4.840000 5.000000 37.668427 8.908081 1498.264282
3.120000 4.840000 5.040000 18.518093 23.620546 900.849976
3.120000 4.840000 5.080000 -5.320679 22.340698 527.416443
3.120000 4.840000 5.120000 -21.237774 6.422360 492.289734
3.120000 4.840000 5.160000 -22.009672 -13.870924 676.828186
3.120000 4.840000 5.200000 -10.533597 -27.085291 844.569641
3.120000 4.880000 4.800000 22.150270 -45.985008 2605.255615
3.120000 4.880000 4.840000 37.022694 -50.188786 3889.594238
3.120000 4.880000 4.880000 61.510162 -44.759224 5786.888184
3.120000 4.880000 4.920000 84.054688 -19.355450 7439.823730
3.120000 4.880000 4.960000 85.966721 21.143085 7837.307129
3.120000 4.880000 5.000000 58.978386 55.806263 6592.789062
3.120000 4.880000 5.040000 15.808270 63.474930 4278.968262
3.120000 4.880000 5.080000 -18.090384 41.117989 2017.950928
3.120000 4.880000 5.120000 -24.993200 6.806707 670.991272
3.120000 4.880000 5.160000 -8.494106 -15.876872 324.224915
3.120000 4.880000 5.200000 12.274894 -17.211105 446.895142
3.120000 4.920000 4.800000 48.141541 -28.361603 3121.988281
3.120000 4.920000 4.840000 69.384583 -29.250935 5669.837402
3.120000 4.920000 4.880000 98.991745 -8.752579 9875.972656
3.120000 4.920000 4.920000 111.975243 38.212482 13998.648438
3.120000 4.920000 4.960000 87.179787 90.147491 15726.885742
3.120000 4.920000 5.000000 30.594255 113.731628 13870.892578
3.120000 4.920000 5.040000 -25.416416 93.108765 9315.236328
3.120000 4.920000 5.080000 -48.430607 45.031166 4373.329590
3.120000 4.920000 5.120000 -33.047699 4.317863 1110.794312
3.120000 4.920000 5.160000 -2.693596 -6.456285 48.939079
3.120000 4.920000 5.200000 14.493761 6.344072 250.316360
3.120000 4.960000 4.800000 55.881550 4.117069 3139.697754
3.120000 4.960000 4.840000 79.843185 12.969387 6543.139160
3.120000 4.960000 4.880000 99.689156 51.130150 12552.219727
3.120000 4.960000 4.920000 85.342552 107.079208 18749.308594
3.120000 4.960000 4.960000 29.101288 144.600479 21756.183594
3.120000 4.960000 5.000000 -41.273033 134.041672 19670.632812
3.120000 4.960000 5.040000 -83.723541 80.773239 13533.947266
3.120000 4.960000 5.080000 -77.997246 21.780699 6557.969238
3.120000 4.960000 5.120000 -41.556801 -6.944122 1775.188477
3.120000 4.960000 5.160000 -10.327026 -0.195269 106.685608
3.120000 4.960000 5.200000 -4.802405 17.805328 340.092834
3.120000 5.000000 4.800000 39.562614 33.257717 2671.276367
3.120000 5.000000 4.840000 57.345345 52.748470 6070.889648
3.120000 5.000000 4.880000 54.870224 96.639374 12349.910156
3.120000 5.000000 4.920000 12.475800 137.225067 18986.365234
3.120000 5.000000 4.960000 -55.741287 139.003357 22429.025391
3.120000 5.000000 5.000000 -109.748009 92.625916 20624.185547
3.120000 5.000000 5.040000 -117.810463 25.863377 14548.219727
3.120000 5.000000 5.080000 -83.808350 -20.277390 7435.011719
3.120000 5.000000 5.120000 -41.034134 -26.798328 2401.950684
3.120000 5.000000 5.160000 -19.913214 -8.986038 477.284973
3.120000 5.000000 5.200000 -22.663620 4.147116 530.838196
3.120000 5.040000 4.800000 9.809476 42.872051 1934.238647
3.120000 5.040000 4.840000 14.453830 65.693962 4524.609863
3.120000 5.040000 4.880000 -8.504782 96.675102 9418.406250
3.120000 5.040000 4.920000 -59.036079 105.467194 14608.587891
3.120000 5.040000 4.960000 -109.214050 73.849457 17381.451172
3.120000 5.040000 5.000000 -126.453888 14.939932 16213.787109
3.120000 5.040000 5.040000 -102.259628 -37.036423 11828.727539
3.120000 5.040000 5.080000 -58.274284 -56.337864 6569.847168
3.120000 5.040000 5.120000 -24.787237 -45.477528 2682.612793
3.120000 5.040000 5.160000 -14.361158 -27.236753 948.083618
3.120000 5.040000 5.200000 -16.177231 -19.847622 655.630859
3.120000 5.080000 4.800000 -14.676523 31.384249 1200.371338
3.120000 5.080000 4.840000 -21.849621 46.944328 2681.176025
3.120000 5.080000 4.880000 -49.185074 54.604095 5400.778320
3.120000 5.080000 4.920000 -82.481026 37.162880 8184.199219
3.120000 5.080000 4.960000 -98.177895 -2.941338 9647.550781
3.120000 5.080000 5.000000 -84.377731 -44.781788 9125.009766
3.120000 5.080000 5.040000 -50.408798 -67.086060 7041.586426
3.120000 5.080000 5.080000 -16.775024 -64.971710 4502.724609
3.120000 5.080000 5.120000 2.882276 -49.858635 2494.191162
3.120000 5.080000 5.160000 9.748022 -35.454124 1352.018921
3.120000 5.080000 5.200000 12.382188 -25.874409 822.803589
3.120000 5.120000 4.800000 -22.366301 11.859388 640.896484
3.120000 5.120000 4.840000 -32.458164 14.353616 1259.558716
3.120000 5.120000 4.880000 -46.531242 4.603144 2186.345459
3.120000 5.120000 4.920000 -51.896381 -16.622646 2969.546875
3.120000 5.120000 4.960000 -42.391430 -38.611782 3287.903076
3.120000 5.120000 5.000000 -22.677906 -51.104156 3125.922119
3.120000 5.120000 5.040000 -1.833950 -52.033226 2710.819824
3.120000 5.120000 5.080000 15.004936 -45.483868 2293.930420
3.120000 5.120000 5.120000 27.724630 -34.706528 1973.198242
3.120000 5.120000 5.160000 35.946625 -19.690285 1679.867065
3.120000 5.120000 5.200000 36.106594 -1.580065 1306.182739
3.120000 5.160000 4.800000 -17.125820 -0.620766 293.679047
3.120000 5.160000 4.840000 -20.596560 -8.478291 496.099670
3.120000 5.160000 4.880000 -15.604341 -19.546289 625.552856
3.120000 5.160000 4.920000 -3.496002 -24.443226 609.693359
3.120000 5.160000 4.960000 6.917019 -20.884661 484.014221
3.120000 5.160000 5.000000 10.744568 -15.879101 367.591583
3.120000 5.160000 5.040000 13.205982 -15.793564 423.834625
3.120000 5.160000 5.080000 22.245092 -16.743158 775.177490
3.120000 5.160000 5.120000 36.204399 -8.211330 1378.184448
3.120000 5.160000 5.160000 42.322914 13.088507 1962.537964
3.120000 5.160000 5.200000 29.929617 35.507683 2156.577637
3.120000 5.200000 4.800000 -12.019056 -2.261242 149.570938
3.120000 5.200000 4.840000 -5.082644 -12.701791 187.168762
3.120000 5.200000 4.880000 10.988291 -12.575234 278.879059
3.120000 5.200000 4.920000 21.095848 1.702402 447.932983
3.120000 5.200000 4.960000 15.230865 17.123245 525.184814
3.120000 5.200000 5.000000 1.480171 18.484377 343.863098
3.120000 5.200000 5.040000 -2.132534 7.000994 53.561615
3.120000 5.200000 5.080000 11.025307 0.662834 121.996735
3.120000 5.200000 5.120000 26.343864 14.104509 892.936401
3.120000 5.200000 5.160000 22.512760 40.053680 2111.121826
3.120000 5.200000 5.200000 -4.192378 54.397926 2976.710205
3.160000 4.800000 4.800000 -13.793030 -32.266335 1231.364014
3.160000 4.800000 4.840000 1.524904 -28.726786 827.553528
3.160000 4.800000 4.880000 9.200116 -17.004744 373.803467
3.160000 4.800000 4.920000 7.013751 -6.007204 85.279205
3.160000 4.800000 4.960000 0.658210 -1.753347 3.507468
3.160000 4.800000 5.000000 -2.960755 -2.406204 14.555891
3.160000 4.800000 5.040000 -3.076291 -1.872979 12.971618
3.160000 4.800000 5.080000 -5.024926 2.081130 29.580984
3.160000 4.800000 5.120000 -12.795677 4.471112 183.720200
3.160000 4.800000 5.160000 -22.669533 -1.417323 515.916504
3.160000 4.800000 5.200000 -25.495636 -15.472395 889.422485
3.160000 4.840000 4.800000 13.447689 -43.132935 2041.290405
3.160000 4.840000 4.840000 28.210073 -31.547197 1791.033936
3.160000 4.840000 4.880000 32.852764 -15.260681 1312.192505
3.160000 4.840000 4.920000 28.622742 -1.716322 822.207092
3.160000 4.840000 4.960000 20.608761 6.136883 462.382324
3.160000 4.840000 5.000000 12.332476 9.807561 248.278198
3.160000 4.840000 5.040000 3.788195 10.951978 134.296234
3.160000 4.840000 5.080000 -5.558956 8.395905 101.393204
3.160000 4.840000 5.120000 -13.115925 0.097564 172.037003
3.160000 4.840000 5.160000 -13.903605 -12.447883 348.260010
3.160000 4.840000 5.200000 -5.489419 -22.989605 558.655640
3.160000 4.880000 4.800000 44.023628 -29.489870 2807.732422
3.160000 4.880000 4.840000 52.945847 -11.188720 2928.450195
3.160000 4.880000 4.880000 51.694016 8.362761 2742.207031
3.160000 4.880000 4.920000 41.994476 24.184208 2348.411865
3.160000 4.880000 4.960000 26.956724 33.395802 1841.944580
3.160000 4.880000 5.000000 10.058456 34.522770 1292.994141
3.160000 4.880000 5.040000 -4.583532 27.367229 769.974060
3.160000 4.880000 5.080000 -12.570980 14.138260 357.919922
3.160000 4.880000 5.120000 -11.356095 -0.055532 128.963989
3.160000 4.880000 5.160000 -2.559285 -9.228927 91.723030
3.160000 4.880000 5.200000 8.415058 -10.189115 174.631256
3.160000 4.920000 4.800000 56.654686 4.297892 3228.225342
3.160000 4.920000 4.840000 56.438587 24.563148 3788.662598
3.160000 4.920000 4.880000 47.029774 43.814827 4131.538574
3.160000 4.920000 4.920000 28.888447 57.446808 4134.678223
3.160000 4.920000 4.960000 5.549915 60.467232 3687.087646
3.160000 4.920000 5.000000 -15.673416 50.660107 2812.102295
3.160000 4.920000 5.040000 -26.841854 31.827772 1733.492188
3.160000 4.920000 5.080000 -24.826624 12.845058 781.356812
3.160000 4.920000 5.120000 -14.022323 2.025990 200.730179
3.160000 4.920000 5.160000 -3.006207 1.303838 10.737272
3.160000 4.920000 5.200000 2.271413 5.780502 38.573524
3.160000 4.960000 4.800000 41.229721 37.506088 3106.596680
3.160000 4.960000 4.840000 32.573673 53.879559 3964.051025
3.160000 4.960000 4.880000 15.565391 67.549210 4805.176758
3.160000 4.960000 4.920000 -9.056263 72.100945 5280.562500
3.160000 4.960000 4.960000 -34.122581 62.185810 5031.425781
3.160000 4.960000 5.000000 -49.008350 39.918049 3995.269043
3.160000 4.960000 5.040000 -47.813023 15.645418 2530.864258
3.160000 4.960000 5.080000 -34.810204 0.722382 1212.272095
3.160000 4.960000 5.120000 -21.030075 -1.432922 444.317322
3.160000 4.960000 5.160000 -14.660666 2.854252 223.081894
3.160000 4.960000 5.200000 -14.654783 4.786169 237.670074
3.160000 5.000000 4.800000 8.379668 49.106010 2481.618896
3.160000 5.000000 4.840000 -4.446005 57.820648 3362.994141
3.160000 5.000000 4.880000 -24.523115 61.672462 4404.875977
3.160000 5.000000 4.920000 -47.822147 53.407871 5139.358398
3.160000 5.000000 4.960000 -63.834175 31.740093 5082.235352
3.160000 5.000000 5.000000 -64.059448 5.325376 4131.972656
3.160000 5.000000 5.040000 -50.254494 -13.203718 2699.852295
3.160000 5.000000 5.080000 -33.357815 -17.865194 1431.908936
3.160000 5.000000 5.120000 -23.543945 -13.828215 745.536865
3.160000 5.000000 5.160000 -21.465721 -11.002155 581.824585
3.160000 5.000000 5.200000 -19.651800 -13.534442 569.374390
3.160000 5.040000 4.800000 -19.050442 35.235142 1604.434570
3.160000 5.040000 4.840000 -30.924253 36.344471 2277.229980
3.160000 5.040000 4.880000 -47.322464 30.271946 3155.806152
3.160000 5.040000 4.920000 -60.354675 12.884504 3808.697266
3.160000 5.040000 4.960000 -60.935852 -10.628857 3826.150635
3.160000 5.040000 5.000000 -48.084793 -29.009922 3153.722656
3.160000 5.040000 5.040000 -30.429003 -35.010124 2151.632812
3.160000 5.040000 5.080000 -18.007912 -31.552399 1319.838745
3.160000 5.040000 5.120000 -13.044632 -27.437595 922.984070
3.160000 5.040000 5.160000 -9.591488 -27.482815 847.301758
3.160000 5.040000 5.200000 -1.922472 -27.956320 785.251770
3.160000 5.080000 4.800000 -25.601658 11.550167 788.851257
3.160000 5.080000 4.840000 -33.451591 7.855816 1180.722900
3.160000 5.080000 4.880000 -41.050545 -3.584259 1697.994141
3.160000 5.080000 4.920000 -40.396393 -20.549412 2054.146973
3.160000 5.080000 4.960000 -29.272890 -34.351158 2036.904175
3.160000 5.080000 5.000000 -13.953280 -38.526974 1679.021729
3.160000 5.080000 5.040000 -2.591002 -34.966976 1229.402710
3.160000 5.080000 5.080000 2.979943 -30.656965 948.729614
3.160000 5.080000 5.120000 7.647556 -29.108416 905.784973
3.160000 5.080000 5.160000 15.534737 -26.661957 952.187988
3.160000 5.080000 5.200000 23.735165 -17.937748 885.120850
3.160000 5.120000 4.800000 -15.631379 -2.154015 248.979797
3.160000 5.120000 4.840000 -19.092627 -7.824871 425.756989
3.160000 5.120000 4.880000 -17.220390 -18.158905 626.287659
3.160000 5.120000 4.920000 -7.609069 -25.875410 727.434814
3.160000 5.120000 4.960000 4.124121 -25.636654 674.246399
3.160000 5.120000 5.000000 11.039375 -20.154156 528.057800
3.160000 5.120000 5.040000 13.038195 -16.301537 435.734619
3.160000 5.120000 5.080000 16.281975 -16.067265 523.259644
3.160000 5.120000 5.120000 24.390812 -13.682507 782.122681
3.160000 5.120000 5.160000 32.228138 -3.034975 1047.863892
3.160000 5.120000 5.200000 30.612820 13.231432 1112.215454
3.160000 5.160000 4.800000 -6.662761 -0.267366 44.463863
3.160000 5.160000 4.840000 -6.268768 -6.725114 84.524612
3.160000 5.160000 4.880000 1.719324 -11.295984 130.555328
3.160000 5.160000 4.920000 11.237438 -7.559834 183.431107
3.160000 5.160000 4.960000 13.922218 1.138719 195.124832
3.160000 5.160000 5.000000 9.896306 5.653568 129.899704
3.160000 5.160000 5.040000 8.069674 2.883236 73.432678
3.160000 5.160000 5.080000 14.796177 0.756485 219.499115
3.160000 5.160000 5.120000 24.344383 9.150019 676.371826
3.160000 5.160000 5.160000 23.713137 26.698236 1275.108643
3.160000 5.160000 5.200000 7.628928 39.572701 1624.199219
3.160000 5.200000 4.800000 -10.609998 5.191570 139.524460
3.160000 5.200000 4.840000 -5.809157 -1.535172 36.103065
3.160000 5.200000 4.880000 3.799244 0.806746 15.085094
3.160000 5.200000 4.920000 6.543491 11.346730 171.565567
3.160000 5.200000 4.960000 -1.147476 18.614643 347.821655
3.160000 5.200000 5.000000 -9.546644 14.807547 310.401855
3.160000 5.200000 5.040000 -7.216077 6.484770 94.124008
3.160000 5.200000 5.080000 3.908782 7.794665 76.035385
3.160000 5.200000 5.120000 8.638973 22.989819 603.163574
3.160000 5.200000 5.160000 -4.488122 38.852100 1529.628906
3.160000 5.200000 5.200000 -28.243931 37.559727 2208.452637
3.200000 4.800000 4.800000 -3.645253 -35.359360 1263.572144
3.200000 4.800000 4.840000 9.382631 -25.433798 734.911804
3.200000 4.800000 4.880000 10.679518 -11.981325 257.604248
3.200000 4.800000 4.920000 3.889696 -5.129375 41.440224
3.200000 4.800000 4.960000 -1.328001 -6.510895 44.155346
3.200000 4.800000 5.000000 0.125073 -8.810314 77.637276
3.200000 4.800000 5.040000 3.573162 -4.973276 37.500961
3.200000 4.800000 5.080000 0.502121 3.030689 9.437201
3.200000 4.800000 5.120000 -10.728119 5.679560 147.349930
3.200000 4.800000 5.160000 -21.323214 -3.486843 466.837524
3.200000 4.800000 5.200000 -20.135233 -19.518559 786.401733
3.200000 4.840000 4.800000 27.427757 -32.275211 1793.971069
3.200000 4.840000 4.840000 32.501015 -10.725967 1171.362305
3.200000 4.840000 4.880000 21.679052 4.879840 493.794159
3.200000 4.840000 4.920000 7.150335 6.146000 88.900612
3.200000 4.840000 4.960000 1.102934 -1.369636 3.092366
3.200000 4.840000 5.000000 4.258376 -5.776097 51.497063
3.200000 4.840000 5.040000 7.157016 -2.064992 55.487068
3.200000 4.840000 5.080000 2.101339 3.205482 14.690741
3.200000 4.840000 5.120000 -7.559550 0.322715 57.250946
3.200000 4.840000 5.160000 -10.898270 -11.640682 254.277756
3.200000 4.840000 5.200000 -1.611854 -22.599686 513.343872
3.200000 4.880000 4.800000 47.695740 -4.487100 2295.017578
3.200000 4.880000 4.840000 36.518654 19.747011 1723.556519
3.200000 4.880000 4.880000 13.910852 26.798943 911.695190
3.200000 4.880000 4.920000 -2.280735 16.492458 277.202942
3.200000 4.880000 4.960000 -3.140589 2.482841 16.027798
3.200000 4.880000 5.000000 4.909213 -2.197637 28.929979
3.200000 4.880000 5.040000 9.081726 2.846848 90.582291
3.200000 4.880000 5.080000 4.202081 7.446877 73.113449
3.200000 4.880000 5.120000 -2.944472 3.455972 20.613663
3.200000 4.880000 5.160000 -2.412519 -6.167677 43.860489
3.200000 4.880000 5.200000 7.345712 -11.012973 175.245056
3.200000 4.920000 4.800000 40.366344 30.839149 2580.494873
3.200000 4.920000 4.840000 14.553726 44.470589 2189.444336
3.200000 4.920000 4.880000 -10.630891 35.526970 1375.181519
3.200000 4.920000 4.920000 -18.866543 14.427069 564.086731
3.200000 4.920000 4.960000 -9.630670 -0.792971 93.378593
3.200000 4.920000 5.000000 3.633034 -0.821946 13.874529
3.200000 4.920000 5.040000 7.628156 8.471109 129.948456
3.200000 4.920000 5.080000 1.054503 14.345959 206.918518
3.200000 4.920000 5.120000 -6.640944 10.501393 154.381393
3.200000 4.920000 5.160000 -6.538875 1.993357 46.730362
3.200000 4.920000 5.200000 0.880735 -1.724103 3.748224
3.200000 4.960000 4.800000 9.499875 49.009289 2492.157959
3.200000 4.960000 4.840000 -19.251965 44.312992 2334.279297
3.200000 4.960000 4.880000 -34.709385 21.547672 1669.043701
3.200000 4.960000 4.920000 -28.779133 -1.996271 832.223572
3.200000 4.960000 4.960000 -10.363983 -10.351029 214.555954
3.200000 4.960000 5.000000 3.539205 -1.743323 15.565145
3.200000 4.960000 5.040000 2.851137 11.859988 148.788300
3.200000 4.960000 5.080000 -8.382873 16.900776 355.908783
3.200000 4.960000 5.120000 -17.903080 9.939560 419.315125
3.200000 4.960000 5.160000 -17.290270 -1.297887 300.637939
3.200000 4.960000 5.200000 -8.463111 -6.727058 116.877548
3.200000 5.000000 4.800000 -22.274807 38.837906 2004.549927
3.200000 5.000000 4.840000 -40.598442 19.748854 2038.250732
3.200000 5.000000 4.880000 -39.872017 -6.106203 1627.063477
3.200000 5.000000 4.920000 -21.930548 -21.677589 950.866821
3.200000 5.000000 4.960000 -1.427546 -18.211298 333.689270
3.200000 5.000000 5.000000 6.308748 -2.095798 44.192665
3.200000 5.000000 5.040000 -2.340038 11.197214 130.853378
3.200000 5.000000 5.080000 -17.376348 10.468304 411.522888
3.200000 5.000000 5.120000 -24.804955 -2.522758 621.650085
3.200000 5.000000 5.160000 -18.612373 -16.021606 603.112305
3.200000 5.000000 5.200000 -4.679673 -19.217510 391.212036
3.200000 5.040000 4.800000 -33.396332 12.309382 1266.835815
3.200000 5.040000 4.840000 -36.182533 -9.124694 1392.435669
3.200000 5.040000 4.880000 -22.990673 -26.799805 1246.800537
3.200000 5.040000 4.920000 -1.948059 -29.255182 859.660583
3.200000 5.040000 4.960000 12.195564 -15.927009 402.401367
3.200000 5.040000 5.000000 9.928735 1.436993 100.644722
3.200000 5.040000 5.040000 -4.811066 8.193051 90.272446
3.200000 5.040000 5.080000 -17.922365 -0.846132 321.927124
3.200000 5.040000 5.120000 -17.365162 -17.163473 596.133667
3.200000 5.040000 5.160000 -3.393992 -26.402582 708.615540
3.200000 5.040000 5.200000 12.387549 -20.976526 593.466064
3.200000 5.080000 4.800000 -22.222937 -7.153266 545.028137
3.200000 5.080000 4.840000 -15.131987 -20.869740 664.523071
3.200000 5.080000 4.880000 0.715209 -26.522078 703.932129
3.200000 5.080000 4.920000 16.007191 -18.835344 611.000366
3.200000 5.080000 4.960000 19.789167 -2.791307 399.402527
3.200000 5.080000 5.000000 9.622660 8.817789 170.348984
3.200000 5.080000 5.040000 -4.832425 6.294831 62.977226
3.200000 5.080000 5.080000 -9.759211 -7.592027 152.881058
3.200000 5.080000 5.120000 0.124838 -19.548443 382.157227
3.200000 5.080000 5.160000 16.443272 -17.926056 591.724670
3.200000 5.080000 5.200000 25.038269 -3.495708 639.134888
3.200000 5.120000 4.800000 -6.760500 -6.966205 94.232368
3.200000 5.120000 4.840000 0.715570 -12.140027 147.892303
3.200000 5.120000 4.880000 11.785437 -10.248859 243.935638
3.200000 5.120000 4.920000 18.373638 0.275899 337.666687
3.200000 5.120000 4.960000 14.063259 12.154060 345.496429
3.200000 5.120000 5.000000 2.183299 15.008220 230.013458
3.200000 5.120000 5.040000 -5.742634 6.215622 71.611801
3.200000 5.120000 5.080000 -1.146401 -5.075377 27.073692
3.200000 5.120000 5.120000 12.174610 -6.338577 188.398697
3.200000 5.120000 5.160000 21.096811 5.477714 475.080780
3.200000 5.120000 5.200000 16.273348 20.411880 681.466675
3.200000 5.160000 4.800000 -5.418672 3.678954 42.896706
3.200000 5.160000 4.840000 -1.610027 0.778829 3.198762
3.200000 5.160000 4.880000 4.456481 3.654016 33.212059
3.200000 5.160000 4.920000 5.313706 11.711076 165.384766
3.200000 5.160000 4.960000 -1.647236 16.987577 291.291168
3.200000 5.160000 5.000000 -9.568116 13.253801 267.212097
3.200000 5.160000 5.040000 -9.116336 4.437916 102.802681
3.200000 5.160000 5.080000 0.243006 1.524562 2.383342
3.200000 5.160000 5.120000 8.115009 10.290890 171.755798
3.200000 5.160000 5.160000 3.948041 23.621370 573.556152
3.200000 5.160000 5.200000 -10.781720 28.174641 910.055847
3.200000 5.200000 4.800000 -18.176529 5.028031 355.667297
3.200000 5.200000 4.840000 -14.204094 -0.327552 201.863571
3.200000 5.200000 4.880000 -8.905340 1.534544 81.659912
3.200000 5.200000 4.920000 -9.618992 6.756326 138.172943
3.200000 5.200000 4.960000 -15.111965 7.233586 280.696259
3.200000 5.200000 5.000000 -17.071005 1.553236 293.831757
3.200000 5.200000 5.040000 -11.151022 -2.278006 129.534607
3.200000 5.200000 5.080000 -3.998320 3.430804 27.756973
3.200000 5.200000 5.120000 -6.544901 15.195271 273.731964
3.200000 5.200000 5.160000 -20.481457 20.268711 830.310730
3.200000 5.200000 5.200000 -34.103584 10.694163 1277.419556
