#kx 	ky 	kz 	real 	imag 	intensity
6.800000 2.800000 0.983333 2.382910 -39.073486 1532.415527
6.800000 2.800000 0.991667 -30.639246 21.157635 1386.408936
6.800000 2.800000 1.000000 -26.093897 -104.276840 11554.550781
6.800000 2.800000 1.008333 72.209793 -50.412209 7755.645508
6.800000 2.800000 1.016667 52.298153 -9.898283 2833.072754
6.800000 2.900000 0.983333 -67.505310 34.097160 5719.583008
6.800000 2.900000 0.991667 -41.191772 -30.996361 2657.536377
6.800000 2.900000 1.000000 42.536755 14.033972 2006.327881
6.800000 2.900000 1.008333 -53.439968 55.049370 5886.263184
6.800000 2.900000 1.016667 -32.899574 -62.426720 4979.477051
6.800000 3.000000 0.983333 -52.765129 -98.344086 12455.718750
6.800000 3.000000 0.991667 76.258797 -64.634132 9992.975586
6.800000 3.000000 1.000000 -7.324146 87.795715 7761.730469
6.800000 3.000000 1.008333 -80.527611 -89.211655 14443.416016
6.800000 3.000000 1.016667 120.460068 -22.101166 14999.089844
6.800000 3.100000 0.983333 34.241898 -29.273033 2029.417969
6.800000 3.100000 0.991667 120.391945 122.741455 29559.685547
6.800000 3.100000 1.000000 -177.342041 99.442276 41338.964844
6.800000 3.100000 1.008333 3.077591 -81.403732 6636.039551
6.800000 3.100000 1.016667 -96.164627 77.989136 15329.941406
6.800000 3.200000 0.983333 -8.197155 -17.816254 384.612244
6.800000 3.200000 0.991667 -71.927216 151.829514 28225.726562
6.800000 3.200000 1.000000 -165.934906 -129.747314 44368.757812
6.800000 3.200000 1.008333 24.119059 -61.134460 4319.151367
6.800000 3.200000 1.016667 -12.338577 -171.652451 29616.804688
6.900000 2.800000 0.983333 -44.274467 82.217102 8719.880859
6.900000 2.800000 0.991667 -77.908165 -156.471619 30553.048828
6.900000 2.800000 1.000000 110.968399 36.125572 13619.041992
6.900000 2.800000 1.008333 -96.756050 -28.891520 10196.453125
6.900000 2.800000 1.016667 94.183807 -35.863426 10156.775391
6.900000 2.900000 0.983333 66.361511 -838.335754 707210.687500
6.900000 2.900000 0.991667 213.713867 329.651001 154343.406250
6.900000 2.900000 1.000000 -621.801392 -244.282715 446311.000000
6.900000 2.900000 1.008333 -48.180977 -670.612793 452042.937500
6.900000 2.900000 1.016667 406.738861 -586.096130 508945.187500
6.900000 3.000000 0.983333 1242.596802 -33.900730 1545196.000000
6.900000 3.000000 0.991667 -541.581909 328.878357 401471.937500
6.900000 3.000000 1.000000 248.761688 -940.758423 946908.812500
6.900000 3.000000 1.008333 834.184631 -294.512695 782601.750000
6.900000 3.000000 1.016667 1079.184570 387.613953 1314884.000000
6.900000 3.100000 0.983333 195.539032 707.230652 538410.687500
6.900000 3.100000 0.991667 -291.687347 -211.133026 129658.664062
6.900000 3.100000 1.000000 482.125519 -25.246241 233082.390625
6.900000 3.100000 1.008333 326.396912 375.689728 247677.718750
6.900000 3.100000 1.016667 -94.852509 712.610352 516810.500000
6.900000 3.200000 0.983333 109.137733 139.035980 31242.048828
6.900000 3.200000 0.991667 -237.185562 -10.172012 56360.460938
6.900000 3.200000 1.000000 99.434097 -188.019104 45238.324219
6.900000 3.200000 1.008333 81.100189 72.245453 11796.646484
6.900000 3.200000 1.016667 19.858295 7.680206 453.337463
7.000000 2.800000 0.983333 -159.265289 -87.277580 32982.808594
7.000000 2.800000 0.991667 156.184586 -143.322311 44934.910156
7.000000 2.800000 1.000000 -25.626425 74.196693 6161.863281
7.000000 2.800000 1.008333 31.176712 -186.159882 35627.488281
7.000000 2.800000 1.016667 170.068741 46.658329 31100.376953
7.000000 2.900000 0.983333 1256.613037 -86.834900 1586616.625000
7.000000 2.900000 0.991667 -484.882660 371.146545 372860.937500
7.000000 2.900000 1.000000 281.128265 -999.685669 1078404.500000
7.000000 2.900000 1.008333 987.251282 -191.307800 1011263.750000
7.000000 2.900000 1.016667 988.207275 470.259308 1197697.500000
7.000000 3.000000 0.983333 282.528412 1815.121216 3374487.250000
7.000000 3.000000 0.991667 -605.200867 -808.501953 1019943.500000
7.000000 3.000000 1.000000 1509.536987 214.553757 2324735.250000
7.000000 3.000000 1.008333 543.943115 1156.480591 1633321.500000
7.000000 3.000000 1.016667 -247.155319 1656.201660 2804089.750000
7.000000 3.100000 0.983333 -1018.011536 404.459503 1199935.000000
7.000000 3.100000 0.991667 370.078888 -456.075073 344962.875000
7.000000 3.100000 1.000000 38.442345 810.767578 658821.875000
7.000000 3.100000 1.008333 -477.260254 469.768585 448459.875000
7.000000 3.100000 1.016667 -1110.762207 109.911499 1245873.125000
7.000000 3.200000 0.983333 -176.578629 167.433075 59213.843750
7.000000 3.200000 0.991667 -49.667496 -220.849319 51241.281250
7.000000 3.200000 1.000000 206.304810 5.046652 42587.144531
7.000000 3.200000 1.008333 -22.783607 148.941452 22702.648438
7.000000 3.200000 1.016667 -47.549576 -92.137619 10750.302734
7.100000 2.800000 0.983333 46.065907 -130.671249 19197.042969
7.100000 2.800000 0.991667 115.837173 44.688324 15415.296875
7.100000 2.800000 1.000000 -48.690170 66.647820 6812.664062
7.100000 2.800000 1.008333 61.401573 -79.930786 10159.083984
7.100000 2.800000 1.016667 100.238304 158.630798 35211.449219
7.100000 2.900000 0.983333 172.679291 777.221130 633890.812500
7.100000 2.900000 0.991667 -259.484253 -302.399506 158777.531250
7.100000 2.900000 1.000000 654.474182 71.894669 433505.312500
7.100000 2.900000 1.008333 271.523193 586.719360 417964.437500
7.100000 2.900000 1.016667 -226.179199 717.178101 565501.500000
7.100000 3.000000 0.983333 -1123.433472 295.699524 1349541.000000
7.100000 3.000000 0.991667 482.196625 -500.100525 482614.125000
7.100000 3.000000 1.000000 39.330254 979.370178 960712.812500
7.100000 3.000000 1.008333 -671.665283 435.856689 641105.312500
7.100000 3.000000 1.016667 -1008.085571 0.042641 1016236.500000
7.100000 3.100000 0.983333 -295.989899 -653.724548 514965.812500
7.100000 3.100000 0.991667 380.208252 174.013229 174838.921875
7.100000 3.100000 1.000000 -449.478821 85.077942 209269.453125
7.100000 3.100000 1.008333 -251.758179 -215.632538 109879.570312
7.100000 3.100000 1.016667 -174.021667 -616.463562 410310.843750
7.100000 3.200000 0.983333 -57.875465 -86.806984 10885.022461
7.100000 3.200000 0.991667 158.637390 -37.823517 26596.441406
7.100000 3.200000 1.000000 101.866341 215.582336 56852.492188
7.100000 3.200000 1.008333 -163.528152 97.964096 36338.421875
7.100000 3.200000 1.016667 60.188347 -28.182266 4416.877441
7.200000 2.800000 0.983333 57.985046 16.548325 3636.112793
7.200000 2.800000 0.991667 21.169651 22.569567 957.539429
7.200000 2.800000 1.000000 -104.694145 -42.166245 12738.856445
7.200000 2.800000 1.008333 129.029022 -103.553268 27371.767578
7.200000 2.800000 1.016667 -21.092274 137.081497 19236.220703
7.200000 2.900000 0.983333 -33.020443 -18.904974 1447.747681
7.200000 2.900000 0.991667 82.860291 5.255886 6893.452148
7.200000 2.900000 1.000000 45.137688 37.223549 3423.003418
7.200000 2.900000 1.008333 2.876242 108.692543 11822.341797
7.200000 2.900000 1.016667 -70.855820 -40.749603 6681.077637
7.200000 3.000000 0.983333 93.453697 -93.713081 17515.734375
7.200000 3.000000 0.991667 101.758438 72.704262 15640.689453
7.200000 3.000000 1.000000 -43.852470 63.662468 5975.949219
7.200000 3.000000 1.008333 -4.934923 -30.481075 953.449402
7.200000 3.000000 1.016667 50.742546 50.042324 5079.040039
7.200000 3.100000 0.983333 137.753906 55.590725 22066.466797
7.200000 3.100000 0.991667 64.280502 123.830376 19465.945312
7.200000 3.100000 1.000000 16.425650 103.252258 10930.831055
7.200000 3.100000 1.008333 -35.960667 123.378082 16515.320312
7.200000 3.100000 1.016667 -90.741470 45.812084 10332.761719
7.200000 3.200000 0.983333 27.977600 110.096016 12903.878906
7.200000 3.200000 0.991667 -23.537554 110.994301 12873.750977
7.200000 3.200000 1.000000 -164.400040 131.977646 44445.472656
7.200000 3.200000 1.008333 -153.380600 -88.150505 31296.121094
7.200000 3.200000 1.016667 -36.238285 -20.154202 1719.405029
