#kx 	ky 	kz 	real 	imag 	intensity
6.800000 2.800000 0.800000 -25.525717 5.778715 684.955750
6.800000 2.800000 0.840000 -23.102879 -4.259005 551.882080
6.800000 2.800000 0.880000 -18.955357 -8.875489 438.079834
6.800000 2.800000 0.920000 -17.000433 -12.265748 439.463287
6.800000 2.800000 0.960000 -13.952585 -18.263117 528.216064
6.800000 2.800000 1.000000 -4.868778 -23.650566 583.054321
6.800000 2.800000 1.040000 8.455448 -21.083149 515.993774
6.800000 2.800000 1.080000 17.087097 -8.387221 362.314392
6.800000 2.800000 1.120000 13.735118 7.083390 238.827881
6.800000 2.800000 1.160000 0.814077 14.767146 218.731323
6.800000 2.800000 1.200000 -11.728212 11.164347 262.193604
6.800000 2.840000 0.800000 -22.493223 -17.385128 808.187744
6.800000 2.840000 0.840000 -13.368882 -23.901215 749.995056
6.800000 2.840000 0.880000 -4.930803 -25.029945 650.810974
6.800000 2.840000 0.920000 1.643713 -23.819548 570.072632
6.800000 2.840000 0.960000 7.411392 -21.025707 497.009094
6.800000 2.840000 1.000000 11.720933 -15.653772 382.420837
6.800000 2.840000 1.040000 12.066620 -8.667247 220.724487
6.800000 2.840000 1.080000 7.974856 -3.910187 78.887894
6.800000 2.840000 1.120000 3.208527 -4.111016 27.195095
6.800000 2.840000 1.160000 2.303513 -6.907764 53.023380
6.800000 2.840000 1.200000 4.860231 -6.816185 70.082230
6.800000 2.880000 0.800000 -3.615638 -31.479687 1004.043518
6.800000 2.880000 0.840000 8.911426 -30.849630 1031.113159
6.800000 2.880000 0.880000 18.624220 -25.027241 973.224365
6.800000 2.880000 0.920000 23.874149 -15.589806 813.017029
6.800000 2.880000 0.960000 22.539989 -5.133350 534.402405
6.800000 2.880000 1.000000 14.491009 1.065259 211.124115
6.800000 2.880000 1.040000 5.070451 -1.843082 29.106424
6.800000 2.880000 1.080000 3.117472 -12.089712 155.879761
6.800000 2.880000 1.120000 12.792030 -19.806583 555.936768
6.800000 2.880000 1.160000 27.175783 -14.757915 956.319275
6.800000 2.880000 1.200000 32.313217 2.739227 1051.647461
6.800000 2.920000 0.800000 19.160683 -27.583088 1127.958496
6.800000 2.920000 0.840000 29.530287 -18.807613 1225.764160
6.800000 2.920000 0.880000 34.323818 -6.166940 1216.155640
6.800000 2.920000 0.920000 30.810001 7.565346 1006.490601
6.800000 2.920000 0.960000 18.196058 15.528504 572.230957
6.800000 2.920000 1.000000 3.281602 10.389750 118.715805
6.800000 2.920000 1.040000 -1.015020 -6.528509 43.651691
6.800000 2.920000 1.080000 13.111356 -21.457130 632.316101
6.800000 2.920000 1.120000 37.626511 -17.738564 1730.410889
6.800000 2.920000 1.160000 51.826145 7.818726 2747.081787
6.800000 2.920000 1.200000 39.859219 38.438751 3066.294922
6.800000 2.960000 0.800000 31.362564 -8.845205 1061.848022
6.800000 2.960000 0.840000 33.897133 4.641048 1170.554932
6.800000 2.960000 0.880000 29.098673 17.951763 1168.998535
6.800000 2.960000 0.920000 16.063038 26.173086 943.051636
6.800000 2.960000 0.960000 -0.422877 22.020275 485.071350
6.800000 2.960000 1.000000 -7.886642 4.317703 80.841682
6.800000 2.960000 1.040000 4.506073 -14.793647 239.156677
6.800000 2.960000 1.080000 32.372658 -15.912971 1301.211670
6.800000 2.960000 1.120000 54.208046 9.896792 3036.458740
6.800000 2.960000 1.160000 47.718090 48.698532 4648.563477
6.800000 2.960000 1.200000 11.079544 71.822029 5281.160156
6.800000 3.000000 0.800000 25.925980 12.126530 819.209167
6.800000 3.000000 0.840000 18.722324 22.850052 872.650269
6.800000 3.000000 0.880000 6.658658 27.990835 827.824585
6.800000 3.000000 0.920000 -7.088586 23.857706 619.438171
6.800000 3.000000 0.960000 -14.203645 9.025009 283.194336
6.800000 3.000000 1.000000 -5.211618 -8.609493 101.284340
6.800000 3.000000 1.040000 19.255013 -12.734642 532.926636
6.800000 3.000000 1.080000 42.497833 8.125025 1872.081787
6.800000 3.000000 1.120000 41.843674 46.170647 3882.621582
6.800000 3.000000 1.160000 9.022032 75.479721 5778.585449
6.800000 3.000000 1.200000 -38.737762 71.837090 6661.181641
6.800000 3.040000 0.800000 7.282196 22.203861 546.041809
6.800000 3.040000 0.840000 -5.001552 22.751148 542.630249
6.800000 3.040000 0.880000 -14.786361 15.629005 462.902283
6.800000 3.040000 0.920000 -17.484882 2.869269 313.953796
6.800000 3.040000 0.960000 -8.773322 -9.772997 172.482651
6.800000 3.040000 1.000000 10.372324 -11.995586 251.479187
6.800000 3.040000 1.040000 28.828798 4.521583 851.544312
6.800000 3.040000 1.080000 29.519249 35.769333 2150.831299
6.800000 3.040000 1.120000 3.227214 62.864971 3962.419434
6.800000 3.040000 1.160000 -39.876713 64.047073 5692.180176
6.800000 3.040000 1.200000 -74.272141 33.050186 6608.666016
6.800000 3.080000 0.800000 -12.649562 16.073338 418.363586
6.800000 3.080000 0.840000 -20.530724 4.706038 443.657410
6.800000 3.080000 0.880000 -18.034250 -9.265118 411.076599
6.800000 3.080000 0.920000 -5.567030 -18.062468 357.244568
6.800000 3.080000 0.960000 11.573884 -15.216061 365.483276
6.800000 3.080000 1.000000 23.857113 1.426648 571.197205
6.800000 3.080000 1.040000 20.892944 26.271358 1126.699463
6.800000 3.080000 1.080000 -1.672638 45.845486 2104.606201
6.800000 3.080000 1.120000 -36.159603 45.528885 3380.396240
6.800000 3.080000 1.160000 -64.662735 20.383656 4596.762695
6.800000 3.080000 1.200000 -70.234474 -18.902569 5290.188477
6.800000 3.120000 0.800000 -22.739046 -1.600812 519.626831
6.800000 3.120000 0.840000 -18.100559 -18.662682 675.925903
6.800000 3.120000 0.880000 -1.142197 -27.712547 769.289917
6.800000 3.120000 0.920000 18.590199 -21.304935 799.495728
6.800000 3.120000 0.960000 28.682129 -1.218570 824.149414
6.800000 3.120000 1.000000 21.309813 22.175690 945.869324
6.800000 3.120000 1.040000 -1.896633 35.521343 1265.363037
6.800000 3.120000 1.080000 -30.251785 29.968170 1813.261719
6.800000 3.120000 1.120000 -49.590664 6.413743 2500.369873
6.800000 3.120000 1.160000 -50.152454 -24.683849 3124.561279
6.800000 3.120000 1.200000 -32.084270 -49.191002 3449.155029
6.800000 3.160000 0.800000 -19.071272 -20.615898 788.728638
6.800000 3.160000 0.840000 -1.097253 -33.042301 1092.997681
6.800000 3.160000 0.880000 22.583572 -27.947029 1291.054199
6.800000 3.160000 0.920000 35.946617 -5.724504 1324.929199
6.800000 3.160000 0.960000 28.542480 20.417131 1231.532471
6.800000 3.160000 1.000000 3.726762 33.518700 1137.391968
6.800000 3.160000 1.040000 -23.516827 24.982052 1177.144043
6.800000 3.160000 1.080000 -37.291618 0.144742 1390.685791
6.800000 3.160000 1.120000 -31.305773 -26.525652 1683.661621
6.800000 3.160000 1.160000 -11.393033 -41.951366 1889.718262
6.800000 3.160000 1.200000 10.611191 -42.102238 1885.195801
6.800000 3.200000 0.800000 -5.736989 -32.230019 1071.687134
6.800000 3.200000 0.840000 18.732204 -32.826584 1428.480103
6.800000 3.200000 0.880000 37.672848 -13.610353 1604.485107
6.800000 3.200000 0.920000 36.241180 14.715215 1529.960815
6.800000 3.200000 0.960000 13.762058 32.792015 1264.710571
6.800000 3.200000 1.000000 -14.521276 27.793726 983.358704
6.800000 3.200000 1.040000 -29.127222 3.754886 862.494263
6.800000 3.200000 1.080000 -21.433130 -22.086494 947.192261
6.800000 3.200000 1.120000 0.844577 -33.352448 1113.098999
6.800000 3.200000 1.160000 21.648724 -26.437656 1167.616943
6.800000 3.200000 1.200000 29.916363 -10.610714 1007.576050
6.840000 2.800000 0.800000 -23.773508 9.010766 646.373596
6.840000 2.800000 0.840000 -26.931896 -1.985170 729.267944
6.840000 2.800000 0.880000 -24.477814 -13.987862 794.823669
6.840000 2.800000 0.920000 -15.601248 -24.078072 823.152466
6.840000 2.800000 0.960000 -1.471733 -27.882835 779.618530
6.840000 2.800000 1.000000 12.767778 -22.051502 649.284912
6.840000 2.800000 1.040000 19.826021 -8.318645 462.270966
6.840000 2.800000 1.080000 15.806103 5.868135 284.267883
6.840000 2.800000 1.120000 4.133507 12.448633 172.054352
6.840000 2.800000 1.160000 -6.948494 9.278402 134.370316
6.840000 2.800000 1.200000 -11.525842 1.318867 134.584442
6.840000 2.840000 0.800000 -18.827408 -11.824604 494.292542
6.840000 2.840000 0.840000 -9.421268 -20.981987 529.004089
6.840000 2.840000 0.880000 4.285602 -22.044933 504.345490
6.840000 2.840000 0.920000 15.158003 -13.685840 417.067261
6.840000 2.840000 0.960000 16.891396 -0.685716 285.789459
6.840000 2.840000 1.000000 8.969902 8.534918 153.303970
6.840000 2.840000 1.040000 -2.114775 8.036449 69.056793
6.840000 2.840000 1.080000 -7.522530 -0.544062 56.884453
6.840000 2.840000 1.120000 -3.490538 -8.955920 92.392357
6.840000 2.840000 1.160000 5.090557 -9.522285 116.587692
6.840000 2.840000 1.200000 9.002710 -2.461819 87.109344
6.840000 2.880000 0.800000 -0.055967 -21.392998 457.663483
6.840000 2.880000 0.840000 17.539810 -17.816994 625.090210
6.840000 2.880000 0.880000 28.822828 -0.132116 830.772888
6.840000 2.880000 0.920000 22.576513 22.546761 1018.055359
6.840000 2.880000 0.960000 -0.618896 33.425365 1117.638062
6.840000 2.880000 1.000000 -25.277378 21.726049 1110.967041
6.840000 2.880000 1.040000 -31.918776 -5.985945 1054.639771
6.840000 2.880000 1.080000 -13.986288 -28.862949 1028.686035
6.840000 2.880000 1.120000 14.870716 -28.757135 1048.111084
6.840000 2.880000 1.160000 31.525311 -6.429699 1035.186279
6.840000 2.880000 1.200000 23.447929 18.574623 894.822021
6.840000 2.920000 0.800000 18.402195 -13.009739 507.894104
6.840000 2.920000 0.840000 30.996059 6.991534 1009.637207
6.840000 2.920000 0.880000 23.488424 35.606880 1819.556030
6.840000 2.920000 0.920000 -7.843952 51.820110 2746.851318
6.840000 2.920000 0.960000 -45.459946 37.187908 3449.547363
6.840000 2.920000 1.000000 -60.417603 -4.686792 3672.252686
6.840000 2.920000 1.040000 -36.896309 -45.691315 3449.033936
6.840000 2.920000 1.080000 10.886038 -54.282848 3065.133545
6.840000 2.920000 1.120000 47.615780 -23.032269 2797.747803
6.840000 2.920000 1.160000 46.157997 23.370228 2676.728271
6.840000 2.920000 1.200000 10.879219 48.769051 2496.777832
6.840000 2.960000 0.800000 22.530167 6.127909 545.159668
6.840000 2.960000 0.840000 17.842537 33.337799 1429.764893
6.840000 2.960000 0.880000 -11.957923 53.037231 2955.939941
6.840000 2.960000 0.920000 -54.429939 42.520916 4770.646484
6.840000 2.960000 0.960000 -78.605835 -2.383726 6184.559570
6.840000 2.960000 1.000000 -59.248993 -55.810452 6625.249512
6.840000 2.960000 1.040000 -2.664970 -77.998642 6090.890137
6.840000 2.960000 1.080000 52.729980 -48.790001 5160.915039
6.840000 2.960000 1.120000 66.100700 12.128723 4516.408691
6.840000 2.960000 1.160000 28.966440 59.503166 4379.681641
6.840000 2.960000 1.200000 -27.415760 60.283028 4385.667480
6.840000 3.000000 0.800000 9.463072 20.607845 514.233032
6.840000 3.000000 0.840000 -12.664598 38.418941 1636.407104
6.840000 3.000000 0.880000 -49.770828 33.579826 3604.739990
6.840000 3.000000 0.920000 -77.058716 -4.084177 5954.726562
6.840000 3.000000 0.960000 -66.498672 -57.823254 7765.601562
6.840000 3.000000 1.000000 -14.033003 -89.821838 8264.887695
6.840000 3.000000 1.040000 49.276371 -70.855339 7448.639648
6.840000 3.000000 1.080000 77.886276 -8.648294 6141.064941
6.840000 3.000000 1.120000 49.473507 53.818321 5344.039551
6.840000 3.000000 1.160000 -14.641170 72.161423 5421.634766
6.840000 3.000000 1.200000 -66.775101 37.150776 5839.094238
6.840000 3.040000 0.800000 -10.603224 18.872942 468.616272
6.840000 3.040000 0.840000 -36.459805 16.587921 1604.476562
6.840000 3.040000 0.880000 -58.572262 -9.952126 3529.754883
6.840000 3.040000 0.920000 -54.275391 -53.041321 5759.199707
6.840000 3.040000 0.960000 -13.985970 -84.843521 7394.030273
6.840000 3.040000 1.000000 43.328079 -76.408005 7715.505859
6.840000 3.040000 1.040000 78.666351 -24.605307 6793.816406
6.840000 3.040000 1.080000 63.249020 39.059143 5526.055176
6.840000 3.040000 1.120000 4.731263 70.260185 4958.878418
6.840000 3.040000 1.160000 -56.306213 47.555099 5431.876953
6.840000 3.040000 1.200000 -78.712509 -10.107471 6297.820312
6.840000 3.080000 0.800000 -22.739065 1.674605 519.869385
6.840000 3.080000 0.840000 -35.261658 -16.235395 1506.972656
6.840000 3.080000 0.880000 -31.267662 -44.857925 2989.900146
6.840000 3.080000 0.920000 -3.069519 -67.366470 4547.663086
6.840000 3.080000 0.960000 39.417324 -63.084454 5533.373535
6.840000 3.080000 1.000000 69.753922 -25.526869 5517.230469
6.840000 3.080000 1.040000 63.112396 26.603455 4690.918457
6.840000 3.080000 1.080000 18.241072 59.138412 3830.088379
6.840000 3.080000 1.120000 -37.510239 48.206833 3730.916504
6.840000 3.080000 1.160000 -67.475693 0.276300 4553.045410
6.840000 3.080000 1.200000 -53.975861 -52.295731 5648.237305
6.840000 3.120000 0.800000 -18.531345 -19.477674 722.790527
6.840000 3.120000 0.840000 -11.079876 -37.033089 1494.213379
6.840000 3.120000 0.880000 10.260798 -47.773396 2387.581299
6.840000 3.120000 0.920000 37.968674 -40.781624 3104.761230
6.840000 3.120000 0.960000 56.224525 -13.495138 3343.315918
6.840000 3.120000 1.000000 50.184883 22.485962 3024.140869
6.840000 3.120000 1.040000 18.295052 45.766491 2429.280762
6.840000 3.120000 1.080000 -22.996437 39.388618 2080.299316
6.840000 3.120000 1.120000 -48.569485 4.559267 2379.781738
6.840000 3.120000 1.160000 -42.391144 -38.450661 3275.462402
6.840000 3.120000 1.200000 -9.290394 -64.474854 4243.318359
6.840000 3.160000 0.800000 -1.261459 -31.670324 1004.600769
6.840000 3.160000 0.840000 17.853317 -34.772785 1527.887573
6.840000 3.160000 0.880000 36.797268 -23.151733 1890.041748
6.840000 3.160000 0.920000 44.187214 0.108636 1952.521729
6.840000 3.160000 0.960000 33.663528 23.908363 1704.843018
6.840000 3.160000 1.000000 8.744141 34.965385 1299.038086
6.840000 3.160000 1.040000 -18.048824 25.880976 995.584961
6.840000 3.160000 1.080000 -32.048157 0.321791 1027.187866
6.840000 3.160000 1.120000 -25.279562 -28.538208 1453.485596
6.840000 3.160000 1.160000 -1.405554 -45.855606 2104.712158
6.840000 3.160000 1.200000 26.904387 -44.068230 2665.854980
6.840000 3.200000 0.800000 18.129011 -29.662956 1208.552002
6.840000 3.200000 0.840000 34.150146 -16.819611 1449.131836
6.840000 3.200000 0.880000 37.212288 5.256010 1412.380005
6.840000 3.200000 0.920000 23.690752 23.898563 1132.393066
6.840000 3.200000 0.960000 0.965307 27.714539 769.027466
6.840000 3.200000 1.000000 -17.531868 14.612593 520.894287
6.840000 3.200000 1.040000 -21.480480 -7.149331 512.523987
6.840000 3.200000 1.080000 -9.916183 -25.148233 730.764343
6.840000 3.200000 1.120000 9.596614 -30.906706 1047.319458
6.840000 3.200000 1.160000 27.069298 -23.932545 1305.513672
6.840000 3.200000 1.200000 36.178791 -9.861118 1406.146606
6.880000 2.800000 0.800000 -28.087873 13.796585 979.274414
6.880000 2.800000 0.840000 -33.862820 -4.144627 1163.868530
6.880000 2.800000 0.880000 -25.502550 -23.225489 1189.803467
6.880000 2.800000 0.920000 -5.758812 -32.153290 1066.997925
6.880000 2.800000 0.960000 14.366341 -25.367432 849.898315
6.880000 2.800000 1.000000 23.282215 -7.874054 604.062256
6.880000 2.800000 1.040000 17.635288 8.322216 380.262665
6.880000 2.800000 1.080000 4.492319 13.702528 207.940216
6.880000 2.800000 1.120000 -5.316624 8.329039 97.639374
6.880000 2.800000 1.160000 -6.522645 0.106119 42.556160
6.880000 2.800000 1.200000 -2.624063 -3.748140 20.934261
6.880000 2.840000 0.800000 -22.718246 -5.914077 551.095032
6.880000 2.840000 0.840000 -9.764889 -15.890076 347.847565
6.880000 2.840000 0.880000 6.781033 -11.195938 171.331436
6.880000 2.840000 0.920000 12.611938 5.457629 188.846710
6.880000 2.840000 0.960000 1.775051 19.925785 400.187714
6.880000 2.840000 1.000000 -16.899895 18.921421 643.626587
6.880000 2.840000 1.040000 -27.087570 2.460052 739.788330
6.880000 2.840000 1.080000 -19.751209 -15.692957 636.379150
6.880000 2.840000 1.120000 -1.490726 -20.571117 425.393127
6.880000 2.840000 1.160000 11.822623 -9.794226 235.701263
6.880000 2.840000 1.200000 10.143305 4.666175 124.659821
6.880000 2.880000 0.800000 -5.890791 -12.927273 201.815796
6.880000 2.880000 0.840000 12.166283 -0.167442 148.046463
6.880000 2.880000 0.880000 10.887222 27.924820 898.327209
6.880000 2.880000 0.920000 -18.027859 46.999016 2533.911133
6.880000 2.880000 0.960000 -56.789368 34.352497 4405.126465
6.880000 2.880000 1.000000 -73.910675 -7.846100 5524.349609
6.880000 2.880000 1.040000 -52.158295 -50.747784 5295.825195
6.880000 2.880000 1.080000 -5.700161 -62.578426 3948.551270
6.880000 2.880000 1.120000 31.084831 -36.638161 2308.621582
6.880000 2.880000 1.160000 33.599796 3.098309 1138.545776
6.880000 2.880000 1.200000 7.700718 24.234859 646.629517
6.880000 2.920000 0.800000 7.018713 -4.106396 66.124817
6.880000 2.920000 0.840000 8.194035 28.312265 868.726562
6.880000 2.920000 0.880000 -26.665083 55.510597 3792.453125
6.880000 2.920000 0.920000 -81.459373 43.186111 8500.669922
6.880000 2.920000 0.960000 -113.346184 -15.252167 13079.986328
6.880000 2.920000 1.000000 -89.136574 -85.097534 15186.918945
6.880000 2.920000 1.040000 -18.348164 -115.768936 13739.101562
6.880000 2.920000 1.080000 50.743378 -84.489449 9713.357422
6.880000 2.920000 1.120000 71.178856 -17.175692 5361.434082
6.880000 2.920000 1.160000 36.970974 34.234112 2538.827148
6.880000 2.920000 1.200000 -14.666555 36.973232 1582.127686
6.880000 2.960000 0.800000 5.078529 9.622354 118.381149
6.880000 2.960000 0.840000 -21.573097 40.557785 2110.332520
6.880000 2.960000 0.880000 -78.200081 37.840500 7547.155762
6.880000 2.960000 0.920000 -123.052597 -18.994310 15502.725586
6.880000 2.960000 0.960000 -109.375526 -103.615936 22699.269531
6.880000 2.960000 1.000000 -30.785442 -156.596680 25470.263672
6.880000 2.960000 1.040000 65.151726 -134.734863 22398.230469
6.880000 2.960000 1.080000 113.027519 -51.196083 15396.258789
6.880000 2.960000 1.120000 84.609535 33.259003 8264.934570
6.880000 2.960000 1.160000 11.622671 61.703751 3942.439209
6.880000 2.960000 1.200000 -44.782364 27.559607 2764.991943
6.880000 3.000000 0.800000 -8.600388 13.354389 252.306366
6.880000 3.000000 0.840000 -51.866974 20.721678 3119.570801
6.880000 3.000000 0.880000 -98.352226 -19.610229 10057.721680
6.880000 3.000000 0.920000 -99.936348 -98.473312 19684.265625
6.880000 3.000000 0.960000 -33.274559 -163.952530 27987.628906
6.880000 3.000000 1.000000 69.932144 -160.769287 30737.269531
6.880000 3.000000 1.040000 141.376740 -80.913391 26534.359375
6.880000 3.000000 1.080000 131.808212 23.618574 17931.242188
6.880000 3.000000 1.120000 53.552326 81.821640 9562.632812
6.880000 3.000000 1.160000 -30.646868 62.353825 4827.229980
6.880000 3.000000 1.200000 -62.222523 -4.080765 3888.294922
6.880000 3.040000 0.800000 -20.018978 1.587751 403.280457
6.880000 3.040000 0.840000 -55.258293 -18.524614 3396.640381
6.880000 3.040000 0.880000 -66.244186 -75.049179 10020.671875
6.880000 3.040000 0.920000 -22.724741 -135.220215 18800.919922
6.880000 3.040000 0.960000 64.646950 -147.840988 26036.185547
6.880000 3.040000 1.000000 142.270782 -88.301163 28038.070312
6.880000 3.040000 1.040000 153.774170 12.950726 23814.216797
6.880000 3.040000 1.080000 88.864700 89.594482 15924.106445
6.880000 3.040000 1.120000 -5.319689 92.807335 8641.500000
6.880000 3.040000 1.160000 -62.969322 30.742535 4910.238770
6.880000 3.040000 1.200000 -53.348541 -41.991440 4609.347656
6.880000 3.080000 0.800000 -16.951115 -17.247229 584.807190
6.880000 3.080000 0.840000 -26.999763 -47.603046 2995.037354
6.880000 3.080000 0.880000 -4.645357 -88.089294 7781.302734
6.880000 3.080000 0.920000 53.355545 -104.421158 13750.592773
6.880000 3.080000 0.960000 116.366943 -69.328751 18347.742188
6.880000 3.080000 1.000000 138.436096 8.046394 19229.296875
6.880000 3.080000 1.040000 96.705643 81.550056 16002.392578
6.880000 3.080000 1.080000 14.922699 102.097031 10646.490234
6.880000 3.080000 1.120000 -52.459278 58.066963 6123.748047
6.880000 3.080000 1.160000 -63.558613 -15.077259 4267.020996
6.880000 3.080000 1.200000 -21.054083 -65.200638 4694.397461
6.880000 3.120000 0.800000 0.685841 -28.608850 818.936707
6.880000 3.120000 0.840000 11.986829 -46.618935 2317.009033
6.880000 3.120000 0.880000 42.146652 -54.961884 4797.148926
6.880000 3.120000 0.920000 78.878235 -36.404266 7547.046387
6.880000 3.120000 0.960000 96.211548 10.147388 9359.631836
6.880000 3.120000 1.000000 74.189911 61.633083 9302.780273
6.880000 3.120000 1.040000 18.948513 84.298134 7465.221680
6.880000 3.120000 1.080000 -36.986393 60.335693 5008.389160
6.880000 3.120000 1.120000 -57.904034 4.347740 3371.780029
6.880000 3.120000 1.160000 -32.684799 -46.620644 3241.780518
6.880000 3.120000 1.200000 17.477383 -61.817268 4126.833496
6.880000 3.160000 0.800000 21.614563 -24.224522 1054.016846
6.880000 3.160000 0.840000 35.365269 -21.077410 1694.959473
6.880000 3.160000 0.880000 48.325169 -7.644091 2393.754150
6.880000 3.160000 0.920000 51.743980 15.384216 2914.113525
6.880000 3.160000 0.960000 38.170135 39.340080 3004.601074
6.880000 3.160000 1.000000 8.989769 50.116730 2592.502441
6.880000 3.160000 1.040000 -22.456215 37.561302 1915.133057
6.880000 3.160000 1.080000 -37.501778 5.080280 1432.192505
6.880000 3.160000 1.120000 -25.348766 -29.792904 1530.177002
6.880000 3.160000 1.160000 7.835833 -46.506271 2224.233643
6.880000 3.160000 1.200000 42.540276 -36.104797 3113.231445
6.880000 3.200000 0.800000 33.314056 -7.941002 1172.885864
6.880000 3.200000 0.840000 33.907558 6.736973 1195.109375
6.880000 3.200000 0.880000 25.145969 19.115690 997.729370
6.880000 3.200000 0.920000 10.893164 23.727030 681.632935
6.880000 3.200000 0.960000 -2.968033 19.167421 376.199280
6.880000 3.200000 1.000000 -11.487934 7.498104 188.194183
6.880000 3.200000 1.040000 -11.653391 -7.354572 189.891251
6.880000 3.200000 1.080000 -2.538916 -20.378807 421.741882
6.880000 3.200000 1.120000 13.910511 -26.082193 873.783142
6.880000 3.200000 1.160000 32.116379 -20.530773 1452.974365
6.880000 3.200000 1.200000 44.304039 -4.331078 1981.606079
6.920000 2.800000 0.800000 -37.706444 13.857062 1613.794067
6.920000 2.800000 0.840000 -39.245796 -11.921818 1682.362305
6.920000 2.800000 0.880000 -20.838409 -31.763014 1443.128418
6.920000 2.800000 0.920000 5.836098 -32.061424 1061.994995
6.920000 2.800000 0.960000 22.742352 -14.066238 715.073608
6.920000 2.800000 1.000000 20.482948 7.229546 471.817505
6.920000 2.800000 1.040000 5.609140 16.358421 299.060425
6.920000 2.800000 1.080000 -6.639824 10.436300 153.003632
6.920000 2.800000 1.120000 -6.780712 -0.223010 46.027790
6.920000 2.800000 1.160000 1.378633 -3.755451 16.004044
6.920000 2.800000 1.200000 6.929285 1.603567 50.586418
6.920000 2.840000 0.800000 -31.927578 -5.773108 1052.698975
6.920000 2.840000 0.840000 -16.047436 -12.972809 425.813965
6.920000 2.840000 0.880000 -3.347897 -2.602940 17.983706
6.920000 2.840000 0.920000 -8.073868 13.612614 250.490601
6.920000 2.840000 0.960000 -27.168842 16.776848 1019.608643
6.920000 2.840000 1.000000 -42.112118 -0.419601 1773.606445
6.920000 2.840000 1.040000 -36.434204 -25.556789 1980.600586
6.920000 2.840000 1.080000 -11.958755 -37.586281 1555.740356
6.920000 2.840000 1.120000 12.465343 -26.697800 868.157288
6.920000 2.840000 1.160000 18.712749 -3.375395 361.560272
6.920000 2.840000 1.200000 6.113731 12.130833 184.534821
6.920000 2.880000 0.800000 -17.450890 -12.707052 466.002716
6.920000 2.880000 0.840000 -8.320843 7.524826 125.859436
6.920000 2.880000 0.880000 -28.894199 30.605581 1771.576416
6.920000 2.880000 0.920000 -70.275108 24.874634 5557.338379
6.920000 2.880000 0.960000 -97.210152 -19.636993 9835.424805
6.920000 2.880000 1.000000 -79.557602 -76.603119 12197.449219
6.920000 2.880000 1.040000 -22.440292 -103.812248 11280.548828
6.920000 2.880000 1.080000 35.448635 -80.755440 7778.046875
6.920000 2.880000 1.120000 55.250954 -27.321423 3799.128174
6.920000 2.880000 1.160000 31.447628 14.681717 1204.506104
6.920000 2.880000 1.200000 -6.220957 19.102308 403.598511
6.920000 2.920000 0.800000 -8.170982 -7.773270 127.188675
6.920000 2.920000 0.840000 -28.096844 23.495132 1341.453857
6.920000 2.920000 0.880000 -82.363914 23.378437 7330.365723
6.920000 2.920000 0.920000 -127.556381 -32.766098 17344.248047
6.920000 2.920000 0.960000 -113.630272 -118.838249 27034.367188
6.920000 2.920000 1.000000 -33.244072 -173.350540 31155.578125
6.920000 2.920000 1.040000 64.858643 -152.285431 27397.496094
6.920000 2.920000 1.080000 114.972260 -69.873077 18100.867188
6.920000 2.920000 1.120000 90.662605 12.927410 8386.826172
6.920000 2.920000 1.160000 24.986204 41.914986 2381.176270
6.920000 2.920000 1.200000 -23.319664 14.118851 743.148682
6.920000 2.960000 0.800000 -9.737167 -2.526766 101.196976
6.920000 2.960000 0.840000 -57.685692 10.718529 3442.526123
6.920000 2.960000 0.880000 -114.098358 -34.724667 14224.238281
6.920000 2.960000 0.920000 -117.248474 -129.588730 30540.443359
6.920000 2.960000 0.960000 -37.010353 -209.642181 45319.609375
6.920000 2.960000 1.000000 87.784805 -207.302399 50680.457031
6.920000 2.960000 1.040000 174.978409 -114.055290 43626.054688
6.920000 2.960000 1.080000 168.071533 7.436483 28303.341797
6.920000 2.960000 1.120000 84.237595 75.840065 12847.687500
6.920000 2.960000 1.160000 -4.047681 59.478500 3554.075684
6.920000 2.960000 1.200000 -34.844971 -3.283489 1224.953247
6.920000 3.000000 0.800000 -14.884123 -6.708693 266.543671
6.920000 3.000000 0.840000 -65.910942 -27.598602 5105.935547
6.920000 3.000000 0.880000 -86.717926 -104.969589 18538.613281
6.920000 3.000000 0.920000 -29.421589 -192.379791 37875.613281
6.920000 3.000000 0.960000 92.839310 -214.807297 54761.312500
6.920000 3.000000 1.000000 204.319366 -136.151443 60283.617188
6.920000 3.000000 1.040000 226.636261 1.294908 51365.671875
6.920000 3.000000 1.080000 146.936188 107.351807 33114.656250
6.920000 3.000000 1.120000 29.292143 119.098984 15042.597656
6.920000 3.000000 1.160000 -42.068710 50.809845 4351.416992
6.920000 3.000000 1.200000 -33.411560 -26.553207 1821.405273
6.920000 3.040000 0.800000 -11.831606 -18.213068 471.702759
6.920000 3.040000 0.840000 -38.691551 -62.271095 5374.725586
6.920000 3.040000 0.880000 -12.493126 -133.110031 17874.359375
6.920000 3.040000 0.920000 79.106430 -170.348969 35276.597656
6.920000 3.040000 0.960000 187.037277 -122.913933 50090.777344
6.920000 3.040000 1.000000 233.616180 -1.822351 54579.839844
6.920000 3.040000 1.040000 178.992630 119.324783 46276.765625
6.920000 3.040000 1.080000 59.174568 162.447815 29890.921875
6.920000 3.040000 1.120000 -42.592381 109.833878 13877.591797
6.920000 3.040000 1.160000 -65.557465 15.439252 4536.151855
6.920000 3.040000 1.200000 -17.529415 -46.257915 2447.075195
6.920000 3.080000 0.800000 3.178544 -25.397743 655.148499
6.920000 3.080000 0.840000 6.889050 -65.340446 4316.833008
6.920000 3.080000 0.880000 56.749084 -98.983215 13018.134766
6.920000 3.080000 0.920000 134.656876 -81.380562 24755.269531
6.920000 3.080000 0.960000 185.713013 0.168293 34489.351562
6.920000 3.080000 1.000000 162.170776 104.407410 37200.269531
6.920000 3.080000 1.040000 68.695816 163.507843 31453.929688
6.920000 3.080000 1.080000 -35.786804 138.720123 20523.968750
6.920000 3.080000 1.120000 -84.812004 53.419037 10046.669922
6.920000 3.080000 1.160000 -57.795425 -27.762400 4111.062012
6.920000 3.080000 1.200000 8.367483 -53.809349 2965.460938
6.920000 3.120000 0.800000 21.755125 -18.834000 828.005005
6.920000 3.120000 0.840000 38.719368 -35.575218 2764.785645
6.920000 3.120000 0.880000 76.824097 -32.948952 6987.575195
6.920000 3.120000 0.920000 111.313614 6.726433 12435.965820
6.920000 3.120000 0.960000 107.880226 71.535500 16755.470703
6.920000 3.120000 1.000000 54.040031 121.749771 17743.332031
6.920000 3.120000 1.040000 -23.815712 119.851898 14931.666016
6.920000 3.120000 1.080000 -77.173477 63.483955 9985.958008
6.920000 3.120000 1.120000 -73.646988 -9.942303 5522.728516
6.920000 3.120000 1.160000 -22.591187 -52.789722 3297.116699
6.920000 3.120000 1.200000 35.028664 -44.554497 3212.110352
6.920000 3.160000 0.800000 31.267693 -0.493622 977.912231
6.920000 3.160000 0.840000 38.904510 2.456158 1519.593628
6.920000 3.160000 0.880000 48.215576 15.283733 2558.334229
6.920000 3.160000 0.920000 47.473301 39.282341 3796.816650
6.920000 3.160000 0.960000 26.397057 62.873962 4649.939941
6.920000 3.160000 1.000000 -11.239899 67.247856 4648.609375
6.920000 3.160000 1.040000 -45.320030 42.204048 3835.086670
6.920000 3.160000 1.080000 -52.760651 -1.890533 2787.260498
6.920000 3.160000 1.120000 -26.473730 -38.817932 2207.690430
6.920000 3.160000 1.160000 17.368967 -45.783775 2397.834961
6.920000 3.160000 1.200000 51.238503 -20.787176 3057.490723
6.920000 3.200000 0.800000 26.352016 18.345448 1030.984253
6.920000 3.200000 0.840000 17.092144 22.865339 814.965088
6.920000 3.200000 0.880000 8.346737 21.951015 551.515076
6.920000 3.200000 0.920000 2.294189 18.614017 351.744965
6.920000 3.200000 0.960000 -2.646866 14.721753 223.735916
6.920000 3.200000 1.000000 -7.681053 8.316677 128.165695
6.920000 3.200000 1.040000 -9.516153 -3.077179 100.026207
6.920000 3.200000 1.080000 -2.166304 -16.696423 283.463409
6.920000 3.200000 1.120000 16.007023 -23.607328 813.530762
6.920000 3.200000 1.160000 37.514126 -15.384245 1643.984619
6.920000 3.200000 1.200000 49.396774 7.424334 2495.162109
6.960000 2.800000 0.800000 -46.810822 6.181683 2229.466064
6.960000 2.800000 0.840000 -39.391251 -22.520382 2058.838379
6.960000 2.800000 0.880000 -13.275517 -36.523506 1510.205933
6.960000 2.800000 0.920000 12.964226 -27.088478 901.856812
6.960000 2.800000 0.960000 21.692902 -4.130981 487.646973
6.960000 2.800000 1.000000 11.223959 13.053764 296.378021
6.960000 2.800000 1.040000 -4.174294 13.355064 195.782471
6.960000 2.800000 1.080000 -8.987255 2.710401 88.117020
6.960000 2.800000 1.120000 -1.031021 -3.866390 16.011978
6.960000 2.800000 1.160000 8.381101 1.763176 73.351639
6.960000 2.800000 1.200000 7.792263 13.473311 242.249481
6.960000 2.840000 0.800000 -40.399567 -13.812338 1822.905640
6.960000 2.840000 0.840000 -25.168663 -17.611412 943.623413
6.960000 2.840000 0.880000 -19.215012 -8.237892 437.079529
6.960000 2.840000 0.920000 -28.703339 -2.179230 828.630676
6.960000 2.840000 0.960000 -41.533909 -12.863701 1890.540283
6.960000 2.840000 1.000000 -39.208595 -35.774826 2817.152100
6.960000 2.840000 1.040000 -16.072479 -51.486183 2909.151855
6.960000 2.840000 1.080000 13.570377 -44.217701 2139.360107
6.960000 2.840000 1.120000 28.109230 -17.584362 1099.338623
6.960000 2.840000 1.160000 18.747364 8.352274 421.224121
6.960000 2.840000 1.200000 -2.802340 15.840658 258.779572
6.960000 2.880000 0.800000 -26.983717 -23.129902 1263.113281
6.960000 2.880000 0.840000 -30.587948 -5.900364 970.436829
6.960000 2.880000 0.880000 -59.696899 -3.614731 3576.785889
6.960000 2.880000 0.920000 -87.384048 -37.524117 9044.031250
6.960000 2.880000 0.960000 -77.826889 -93.683754 14833.669922
6.960000 2.880000 1.000000 -22.721802 -130.596741 17571.789062
6.960000 2.880000 1.040000 46.198334 -116.060814 15604.398438
6.960000 2.880000 1.080000 82.935150 -57.872696 10227.488281
6.960000 2.880000 1.120000 67.465652 2.123203 4556.122070
6.960000 2.880000 1.160000 21.773037 25.213305 1109.775879
6.960000 2.880000 1.200000 -12.921573 8.286809 235.638245
6.960000 2.920000 0.800000 -16.279024 -24.067881 844.269531
6.960000 2.920000 0.840000 -50.436073 -11.796724 2682.960205
6.960000 2.920000 0.880000 -95.070862 -48.257034 11367.209961
6.960000 2.920000 0.920000 -95.682327 -127.776138 25481.847656
6.960000 2.920000 0.960000 -24.820099 -194.902222 38602.914062
6.960000 2.920000 1.000000 84.002716 -190.691025 43419.523438
6.960000 2.920000 1.040000 159.417786 -108.256538 37133.507812
6.960000 2.920000 1.080000 153.386047 -2.569256 23533.880859
6.960000 2.920000 1.120000 82.318802 56.708050 9992.188477
6.960000 2.920000 1.160000 9.031488 44.490356 2060.959717
6.960000 2.920000 1.200000 -15.384224 -4.357086 255.658539
6.960000 2.960000 0.800000 -9.908106 -24.224558 684.999756
6.960000 2.960000 0.840000 -58.763485 -41.941536 5212.239746
6.960000 2.960000 0.880000 -78.994720 -118.631088 20313.500000
6.960000 2.960000 0.920000 -19.312248 -206.483337 43008.332031
6.960000 2.960000 0.960000 106.698708 -227.381180 63086.812500
6.960000 2.960000 1.000000 220.352158 -144.980118 69574.312500
6.960000 2.960000 1.040000 242.307220 -4.417248 58732.300781
6.960000 2.960000 1.080000 162.407776 102.369774 36855.855469
6.960000 2.960000 1.120000 47.583611 114.891609 15464.282227
6.960000 2.960000 1.160000 -19.454954 51.808792 3062.645996
6.960000 2.960000 1.200000 -10.684704 -15.100218 342.179474
6.960000 3.000000 0.800000 -2.223163 -26.428312 703.398132
6.960000 3.000000 0.840000 -35.775513 -75.082733 6917.304199
6.960000 3.000000 0.880000 -6.450092 -158.883301 25285.505859
6.960000 3.000000 0.920000 102.367493 -203.621368 51940.765625
6.960000 3.000000 0.960000 231.076828 -147.082947 75029.890625
6.960000 3.000000 1.000000 286.537659 -3.588441 82116.703125
6.960000 3.000000 1.040000 223.521866 138.537537 69154.671875
6.960000 3.000000 1.080000 87.189804 189.506378 43514.730469
6.960000 3.000000 1.120000 -25.798134 133.423279 18467.314453
6.960000 3.000000 1.160000 -50.670593 35.585983 3833.871094
6.960000 3.000000 1.200000 -3.190556 -22.114466 499.229248
6.960000 3.040000 0.800000 10.604334 -25.424833 758.874023
6.960000 3.040000 0.840000 9.866352 -81.355324 6716.033203
6.960000 3.040000 0.880000 76.665939 -132.428650 23415.013672
6.960000 3.040000 0.920000 186.362091 -111.852402 47241.789062
6.960000 3.040000 0.960000 260.259338 -0.495094 67735.164062
6.960000 3.040000 1.000000 231.318207 143.285660 74038.890625
6.960000 3.040000 1.040000 107.602707 225.945282 62629.613281
6.960000 3.040000 1.080000 -29.577393 197.602173 39921.437500
6.960000 3.040000 1.120000 -93.846619 93.352325 17521.843750
6.960000 3.040000 1.160000 -64.390320 -1.562187 4148.553711
6.960000 3.040000 1.200000 6.095463 -27.441536 790.192566
6.960000 3.080000 0.800000 23.988726 -14.733646 792.539307
6.960000 3.080000 0.840000 47.102264 -51.628212 4884.095703
6.960000 3.080000 0.880000 113.753235 -56.804783 16166.582031
6.960000 3.080000 0.920000 179.250427 5.044491 32156.162109
6.960000 3.080000 0.960000 181.358551 114.188545 45929.949219
6.960000 3.080000 1.000000 97.876602 201.910126 50347.527344
6.960000 3.080000 1.040000 -26.327759 205.794724 43044.621094
6.960000 3.080000 1.080000 -112.561981 124.349670 28133.039062
6.960000 3.080000 1.120000 -113.212402 18.725874 13167.706055
6.960000 3.080000 1.160000 -48.085449 -40.365211 3941.560791
6.960000 3.080000 1.200000 19.886070 -29.998175 1295.346313
6.960000 3.120000 0.800000 28.422722 4.412754 827.323547
6.960000 3.120000 0.840000 51.100681 -6.815882 2657.735840
6.960000 3.120000 0.880000 87.775269 13.046181 7874.700195
6.960000 3.120000 0.920000 101.946228 70.035835 15298.050781
6.960000 3.120000 0.960000 63.996628 132.842926 21742.810547
6.960000 3.120000 1.000000 -16.821655 153.875366 23960.597656
6.960000 3.120000 1.040000 -93.177971 110.406784 20871.792969
6.960000 3.120000 1.080000 -116.386955 27.334476 14293.097656
6.960000 3.120000 1.120000 -76.549469 -41.479778 7580.393555
6.960000 3.120000 1.160000 -9.084119 -56.971512 3328.274414
6.960000 3.120000 1.200000 37.438446 -23.589956 1958.123291
6.960000 3.160000 0.800000 19.332771 22.270546 869.733276
6.960000 3.160000 0.840000 25.306589 22.037298 1126.065918
6.960000 3.160000 0.880000 32.251892 35.279762 2284.846191
6.960000 3.160000 0.920000 23.967697 59.045906 4060.869385
6.960000 3.160000 0.960000 -7.069260 74.786888 5643.053223
6.960000 3.160000 1.000000 -47.953911 62.739479 6235.819824
6.960000 3.160000 1.040000 -71.918213 21.338875 5627.577148
6.960000 3.160000 1.080000 -59.778942 -27.319042 4319.852051
6.960000 3.160000 1.120000 -17.230389 -53.095341 3116.001465
6.960000 3.160000 1.160000 28.478821 -41.491577 2532.594238
6.960000 3.160000 1.200000 49.918114 -4.212145 2509.560303
6.960000 3.200000 0.800000 2.413287 29.159061 856.074829
6.960000 3.200000 0.840000 -4.578089 21.882545 499.804688
6.960000 3.200000 0.880000 -5.024277 14.620391 238.999191
6.960000 3.200000 0.920000 -3.163925 12.064967 155.573853
6.960000 3.200000 0.960000 -5.009514 12.047474 170.236862
6.960000 3.200000 1.000000 -10.620752 7.494835 168.972931
6.960000 3.200000 1.040000 -12.207483 -5.034409 174.367920
6.960000 3.200000 1.080000 -1.436157 -19.137680 368.313354
6.960000 3.200000 1.120000 20.667351 -22.196857 919.839844
6.960000 3.200000 1.160000 41.602867 -6.666327 1775.238525
6.960000 3.200000 1.200000 46.392712 21.617437 2619.597168
7.000000 2.800000 0.800000 -49.583435 -6.245522 2497.523682
7.000000 2.800000 0.840000 -34.080544 -31.673756 2164.710205
7.000000 2.800000 0.880000 -5.811607 -37.990852 1477.079590
7.000000 2.800000 0.920000 15.966106 -23.071911 787.229614
7.000000 2.800000 0.960000 18.681931 -0.919289 349.859619
7.000000 2.800000 1.000000 6.624100 11.298149 171.526871
7.000000 2.800000 1.040000 -4.796577 8.586657 96.737831
7.000000 2.800000 1.080000 -4.759777 0.866085 23.405581
7.000000 2.800000 1.120000 3.143937 1.082256 11.055619
7.000000 2.800000 1.160000 6.461420 11.412428 171.993469
7.000000 2.800000 1.200000 -1.895604 21.813950 479.441711
7.000000 2.840000 0.800000 -42.304562 -27.244881 2531.959473
7.000000 2.840000 0.840000 -29.517181 -30.883789 1825.072388
7.000000 2.840000 0.880000 -25.088238 -28.515255 1442.539429
7.000000 2.840000 0.920000 -27.034006 -32.078575 1759.872559
7.000000 2.840000 0.960000 -23.398293 -44.383518 2517.376953
7.000000 2.840000 1.000000 -5.939400 -54.771378 3035.180176
7.000000 2.840000 1.040000 19.199272 -49.355034 2804.531494
7.000000 2.840000 1.080000 35.337975 -25.792545 1914.027832
7.000000 2.840000 1.120000 30.435650 2.512352 932.640686
7.000000 2.840000 1.160000 8.709068 17.584642 385.067505
7.000000 2.840000 1.200000 -12.969843 12.743497 330.613525
7.000000 2.880000 0.800000 -26.751036 -40.108803 2324.333984
7.000000 2.880000 0.840000 -35.490505 -35.615417 2528.033936
7.000000 2.880000 0.880000 -52.396156 -53.855965 5645.822266
7.000000 2.880000 0.920000 -47.549053 -94.767990 11241.883789
7.000000 2.880000 0.960000 -4.098801 -128.618271 16559.460938
7.000000 2.880000 1.000000 60.003181 -121.616714 18391.007812
7.000000 2.880000 1.040000 103.659988 -69.150314 15527.160156
7.000000 2.880000 1.080000 98.237801 -3.212036 9660.982422
7.000000 2.880000 1.120000 52.955952 34.449928 3991.130371
7.000000 2.880000 1.160000 5.494041 27.913391 809.341919
7.000000 2.880000 1.200000 -12.445749 -2.409184 160.700851
7.000000 2.920000 0.800000 -8.922367 -44.230728 2035.965942
7.000000 2.920000 0.840000 -37.162048 -55.834564 4498.516602
7.000000 2.920000 0.880000 -46.303329 -108.966431 14017.680664
7.000000 2.920000 0.920000 1.932617 -169.089264 28594.914062
7.000000 2.920000 0.960000 97.155876 -178.530701 41312.476562
7.000000 2.920000 1.000000 180.268738 -111.387115 44903.906250
7.000000 2.920000 1.040000 192.770721 -3.096169 37170.136719
7.000000 2.920000 1.080000 129.236816 76.948158 22623.173828
7.000000 2.920000 1.120000 41.713516 84.936516 8954.229492
7.000000 2.920000 1.160000 -8.006996 37.360039 1459.884399
7.000000 2.920000 1.200000 -1.247626 -10.806540 118.337868
7.000000 2.960000 0.800000 8.457670 -41.148830 1764.758423
7.000000 2.960000 0.840000 -16.939671 -80.409729 6752.677246
7.000000 2.960000 0.880000 11.859158 -150.387390 22757.005859
7.000000 2.960000 0.920000 109.684708 -184.854187 46201.804688
7.000000 2.960000 0.960000 222.442963 -129.196899 66172.710938
7.000000 2.960000 1.000000 267.394226 1.469135 71501.828125
7.000000 2.960000 1.040000 207.093719 126.938652 59001.230469
7.000000 2.960000 1.080000 85.202164 169.125427 35862.820312
7.000000 2.960000 1.120000 -11.949612 118.380394 14156.710938
7.000000 2.960000 1.160000 -30.860661 35.766602 2231.630127
7.000000 2.960000 1.200000 9.162786 -7.987871 147.762741
7.000000 3.000000 0.800000 23.839748 -30.715937 1511.802368
7.000000 3.000000 0.840000 23.488968 -85.114693 7796.242188
7.000000 3.000000 0.880000 92.666321 -135.037689 26822.224609
7.000000 3.000000 0.920000 205.243225 -110.384666 54309.554688
7.000000 3.000000 0.960000 278.603455 7.311925 77673.343750
7.000000 3.000000 1.000000 244.876312 155.259521 84069.929688
7.000000 3.000000 1.040000 116.285561 237.121033 69748.718750
7.000000 3.000000 1.080000 -21.180792 205.937881 42859.035156
7.000000 3.000000 1.120000 -81.946526 102.888802 17301.337891
7.000000 3.000000 1.160000 -51.803070 15.409416 2921.008301
7.000000 3.000000 1.200000 10.730391 -2.242252 120.168976
7.000000 3.040000 0.800000 33.129890 -12.631673 1257.148804
7.000000 3.040000 0.840000 59.851524 -57.237122 6858.292969
7.000000 3.040000 0.880000 140.616180 -63.324493 23782.902344
7.000000 3.040000 0.920000 219.371567 12.670103 48284.414062
7.000000 3.040000 0.960000 220.024979 144.680725 69343.500000
7.000000 3.040000 1.000000 118.528275 248.111664 75608.351562
7.000000 3.040000 1.040000 -27.604628 250.518860 63521.714844
7.000000 3.040000 1.080000 -125.012733 155.841003 39914.601562
7.000000 3.040000 1.120000 -123.695648 39.739033 16879.804688
7.000000 3.040000 1.160000 -54.454124 -18.934601 3323.770752
7.000000 3.040000 1.200000 8.357239 -3.509333 82.158852
7.000000 3.080000 0.800000 30.796928 8.979312 1029.078857
7.000000 3.080000 0.840000 66.265747 -11.009790 4512.364746
7.000000 3.080000 0.880000 123.767151 17.899384 15638.695312
7.000000 3.080000 0.920000 146.075043 103.331467 32015.308594
7.000000 3.080000 0.960000 90.265923 195.655136 46428.871094
7.000000 3.080000 1.000000 -25.880981 225.038589 51312.191406
7.000000 3.080000 1.040000 -131.536987 163.518250 44040.195312
7.000000 3.080000 1.080000 -161.259888 52.248718 28734.679688
7.000000 3.080000 1.120000 -109.673538 -33.564175 13154.838867
7.000000 3.080000 1.160000 -31.022654 -48.683250 3332.463867
7.000000 3.080000 1.200000 13.338882 -10.071203 279.354919
7.000000 3.120000 0.800000 15.819183 25.017042 876.098999
7.000000 3.120000 0.840000 39.778118 23.392986 2129.530518
7.000000 3.120000 0.880000 61.856007 56.738434 7045.415039
7.000000 3.120000 0.920000 45.817799 111.813156 14601.452148
7.000000 3.120000 0.960000 -18.230591 145.620392 21537.652344
7.000000 3.120000 1.000000 -97.404701 121.943413 24357.871094
7.000000 3.120000 1.040000 -139.738083 46.474644 21686.625000
7.000000 3.120000 1.080000 -118.025711 -34.482380 15119.102539
7.000000 3.120000 1.120000 -52.667171 -72.027512 7961.793457
7.000000 3.120000 1.160000 7.688288 -53.948936 2969.597656
7.000000 3.120000 1.200000 28.064232 -9.393055 875.830627
7.000000 3.160000 0.800000 -4.510910 27.703802 787.848999
7.000000 3.160000 0.840000 3.137703 26.902552 733.592468
7.000000 3.160000 0.880000 5.554291 40.891113 1702.933228
7.000000 3.160000 0.920000 -11.633987 57.936901 3492.034180
7.000000 3.160000 0.960000 -45.653328 56.778358 5308.008301
7.000000 3.160000 1.000000 -74.738159 26.511108 6288.631348
7.000000 3.160000 1.040000 -75.108124 -20.486458 6060.925293
7.000000 3.160000 1.080000 -41.959793 -56.135212 4911.786133
7.000000 3.160000 1.120000 5.145069 -58.886688 3494.113770
7.000000 3.160000 1.160000 37.729885 -30.564453 2357.729980
7.000000 3.160000 1.200000 40.377846 6.895640 1677.920288
7.000000 3.200000 0.800000 -18.889412 17.955620 679.214172
7.000000 3.200000 0.840000 -17.014364 7.390804 344.112579
7.000000 3.200000 0.880000 -10.747795 2.416750 121.355782
7.000000 3.200000 0.920000 -6.716984 3.233570 55.573845
7.000000 3.200000 0.960000 -8.414978 3.900948 86.029243
7.000000 3.200000 1.000000 -11.794146 -1.892166 142.682159
7.000000 3.200000 1.040000 -8.263969 -13.467224 249.659302
7.000000 3.200000 1.080000 6.736282 -21.735806 517.822754
7.000000 3.200000 1.120000 27.454533 -16.316162 1019.968506
7.000000 3.200000 1.160000 40.548878 4.626459 1665.615601
7.000000 3.200000 1.200000 35.370056 30.938036 2208.202881
7.040000 2.800000 0.800000 -45.043274 -17.258169 2326.740967
7.040000 2.800000 0.840000 -25.938278 -36.762684 2024.289062
7.040000 2.800000 0.880000 1.022484 -37.830704 1432.207642
7.040000 2.800000 0.920000 19.552023 -21.112251 828.008728
7.040000 2.800000 0.960000 20.524849 0.272396 421.343597
7.040000 2.800000 1.000000 8.984467 12.235456 230.427017
7.040000 2.800000 1.040000 -1.994980 11.659685 139.928207
7.040000 2.800000 1.080000 -4.360855 7.122490 69.746918
7.040000 2.800000 1.120000 -1.858919 8.292332 72.218346
7.040000 2.800000 1.160000 -4.103910 15.378780 253.348969
7.040000 2.800000 1.200000 -14.913667 19.591057 606.226929
7.040000 2.840000 0.800000 -35.680176 -40.039932 2876.270996
7.040000 2.840000 0.840000 -22.668388 -46.491650 2675.329102
7.040000 2.840000 0.880000 -11.288887 -49.040215 2532.381592
7.040000 2.840000 0.920000 0.367035 -50.437027 2544.028564
7.040000 2.840000 0.960000 14.932594 -48.388988 2564.476562
7.040000 2.840000 1.000000 30.098381 -38.000259 2349.932373
7.040000 2.840000 1.040000 38.290565 -18.349892 1802.885864
7.040000 2.840000 1.080000 32.796059 3.766762 1089.769897
7.040000 2.840000 1.120000 14.713638 17.484875 522.212036
7.040000 2.840000 1.160000 -6.352634 16.276356 305.275726
7.040000 2.840000 1.200000 -19.241751 3.373550 381.625793
7.040000 2.880000 0.800000 -14.137583 -54.626968 3183.977051
7.040000 2.880000 0.840000 -15.009197 -61.646477 4025.563965
7.040000 2.880000 0.880000 -7.852863 -82.391998 6850.108887
7.040000 2.880000 0.920000 22.747993 -101.918625 10904.876953
7.040000 2.880000 0.960000 70.281464 -95.442268 14048.710938
7.040000 2.880000 1.000000 106.697166 -53.610603 14258.381836
7.040000 2.880000 1.040000 105.729080 4.367508 11197.713867
7.040000 2.880000 1.080000 67.194664 44.385506 6485.196289
7.040000 2.880000 1.120000 18.304100 45.923386 2443.997314
7.040000 2.880000 1.160000 -9.791903 18.315971 431.356140
7.040000 2.880000 1.200000 -7.646794 -10.208364 162.684174
7.040000 2.920000 0.800000 12.991167 -55.039875 3198.158447
7.040000 2.920000 0.840000 6.657803 -76.326096 5869.999023
7.040000 2.920000 0.880000 32.134060 -113.040634 13810.782227
7.040000 2.920000 0.920000 96.943230 -124.634315 24931.703125
7.040000 2.920000 0.960000 165.639313 -79.191681 33707.703125
7.040000 2.920000 1.000000 186.630356 10.291481 34936.804688
7.040000 2.920000 1.040000 139.414490 90.774788 27676.462891
7.040000 2.920000 1.080000 55.683044 113.496368 15982.027344
7.040000 2.920000 1.120000 -7.677553 75.737907 5795.175293
7.040000 2.920000 1.160000 -17.885735 19.824535 712.911743
7.040000 2.920000 1.200000 9.568524 -8.258984 159.767456
7.040000 2.960000 0.800000 36.580059 -39.850052 2926.127441
7.040000 2.960000 0.840000 41.401760 -74.841232 7315.315430
7.040000 2.960000 0.880000 96.161499 -104.806870 20231.513672
7.040000 2.960000 0.920000 179.987793 -77.535637 38407.378906
7.040000 2.960000 0.960000 229.578827 18.475809 53047.792969
7.040000 2.960000 1.000000 195.311569 132.480988 55697.820312
7.040000 2.960000 1.040000 90.825493 190.615067 44583.375000
7.040000 2.960000 1.080000 -14.907598 160.535568 25993.904297
7.040000 2.960000 1.120000 -57.411179 78.763214 9499.687500
7.040000 2.960000 1.160000 -30.666229 14.335428 1145.922119
7.040000 2.960000 1.200000 15.945299 5.826777 288.203888
7.040000 3.000000 0.800000 47.520409 -13.367348 2436.875244
7.040000 3.000000 0.840000 71.869080 -47.216011 7394.516602
7.040000 3.000000 0.880000 142.152435 -46.890594 22406.042969
7.040000 3.000000 0.920000 207.836945 25.546680 43848.828125
7.040000 3.000000 0.960000 201.643356 144.539993 61551.851562
7.040000 3.000000 1.000000 105.372742 233.186020 65479.132812
7.040000 3.000000 1.040000 -25.706844 229.140198 53166.074219
7.040000 3.000000 1.080000 -107.856674 141.330750 31607.443359
7.040000 3.000000 1.120000 -101.311417 41.131332 11955.789062
7.040000 3.000000 1.160000 -40.160381 -3.246464 1623.395752
7.040000 3.000000 1.200000 7.190102 15.688292 297.820068
7.040000 3.040000 0.800000 40.636093 14.436431 1859.702637
7.040000 3.040000 0.840000 76.625206 -3.226074 5881.830078
7.040000 3.040000 0.880000 134.360779 29.992846 18952.388672
7.040000 3.040000 0.920000 153.321381 120.761597 38090.808594
7.040000 3.040000 0.960000 90.331177 215.039978 54401.914062
7.040000 3.040000 1.000000 -32.085175 240.410522 58826.675781
7.040000 3.040000 1.040000 -137.893005 172.419617 48743.003906
7.040000 3.040000 1.080000 -162.402008 59.290028 29889.718750
7.040000 3.040000 1.120000 -107.615829 -20.772511 12012.664062
7.040000 3.040000 1.160000 -34.749138 -28.131990 1998.911377
7.040000 3.040000 1.200000 -3.704832 10.333932 120.515930
7.040000 3.080000 0.800000 18.794640 31.439388 1341.673584
7.040000 3.080000 0.840000 50.316025 31.720308 3537.880371
7.040000 3.080000 0.880000 77.083214 77.181198 11898.759766
7.040000 3.080000 0.920000 52.961300 147.817627 24654.949219
7.040000 3.080000 0.960000 -30.756927 187.264069 36013.820312
7.040000 3.080000 1.000000 -128.178452 153.020325 39844.937500
7.040000 3.080000 1.040000 -174.819733 58.895859 34030.660156
7.040000 3.080000 1.080000 -144.069519 -33.921551 21906.697266
7.040000 3.080000 1.120000 -69.309822 -69.946701 9696.392578
7.040000 3.080000 1.160000 -10.730665 -45.253010 2162.981934
7.040000 3.080000 1.200000 -1.007539 -2.967480 9.821074
7.040000 3.120000 0.800000 -6.708677 30.425322 970.706543
7.040000 3.120000 0.840000 10.896978 37.446365 1520.974365
7.040000 3.120000 0.880000 11.975803 70.023659 5046.732910
7.040000 3.120000 0.920000 -24.781631 101.287842 10873.355469
7.040000 3.120000 0.960000 -86.318314 94.734848 16425.542969
7.040000 3.120000 1.000000 -131.358734 39.939323 18850.267578
7.040000 3.120000 1.040000 -125.686035 -33.748962 16935.972656
7.040000 3.120000 1.080000 -73.066322 -80.670120 11846.355469
7.040000 3.120000 1.120000 -11.584579 -77.585861 6153.768555
7.040000 3.120000 1.160000 20.440363 -40.679871 2072.660400
7.040000 3.120000 1.200000 15.403231 -6.268096 276.548553
7.040000 3.160000 0.800000 -22.392538 14.847276 721.867310
7.040000 3.160000 0.840000 -15.066879 16.694967 505.732788
7.040000 3.160000 0.880000 -19.110855 27.353704 1113.449951
7.040000 3.160000 0.920000 -38.861877 30.529930 2442.322266
7.040000 3.160000 0.960000 -61.250549 12.683395 3912.498291
7.040000 3.160000 1.000000 -65.902634 -22.401131 4844.967773
7.040000 3.160000 1.040000 -43.452892 -54.601696 4869.499023
7.040000 3.160000 1.080000 -4.691010 -63.714417 4081.532471
7.040000 3.160000 1.120000 28.070065 -45.875839 2892.520996
7.040000 3.160000 1.160000 38.861553 -15.302973 1744.401367
7.040000 3.160000 1.200000 28.688189 8.851734 901.365356
7.040000 3.200000 0.800000 -22.184479 -2.758785 499.761993
7.040000 3.200000 0.840000 -15.491196 -8.382579 310.244781
7.040000 3.200000 0.880000 -9.073446 -9.677771 175.986664
7.040000 3.200000 0.920000 -5.274709 -9.044979 109.634201
7.040000 3.200000 0.960000 -3.532707 -9.689217 106.360939
7.040000 3.200000 1.000000 -0.645306 -12.908264 167.039703
7.040000 3.200000 1.040000 6.714478 -16.317795 311.354614
7.040000 3.200000 1.080000 18.519997 -14.793665 561.842773
7.040000 3.200000 1.120000 29.743774 -4.373087 903.816040
7.040000 3.200000 1.160000 32.737556 13.445482 1252.528564
7.040000 3.200000 1.200000 22.841419 30.817760 1471.464844
7.080000 2.800000 0.800000 -37.171406 -22.819443 1902.440430
7.080000 2.800000 0.840000 -18.008101 -37.810249 1753.906738
7.080000 2.800000 0.880000 7.915949 -35.998062 1358.522705
7.080000 2.800000 0.920000 25.429527 -16.912792 932.703369
7.080000 2.800000 0.960000 24.610947 7.224155 657.887085
7.080000 2.800000 1.000000 9.280613 21.467731 546.993286
7.080000 2.800000 1.040000 -7.163748 20.707115 480.103882
7.080000 2.800000 1.080000 -14.484360 12.465015 365.173279
7.080000 2.800000 1.120000 -14.053751 7.517317 254.017975
7.080000 2.800000 1.160000 -14.790960 8.557744 292.007507
7.080000 2.800000 1.200000 -21.818132 8.726326 552.179688
7.080000 2.840000 0.800000 -23.422400 -46.755352 2734.671875
7.080000 2.840000 0.840000 -5.922222 -54.491295 3004.374023
7.080000 2.840000 0.880000 14.888809 -52.819668 3011.593750
7.080000 2.840000 0.920000 32.777481 -40.161076 2687.275391
7.080000 2.840000 0.960000 41.190742 -19.849255 2090.670166
7.080000 2.840000 1.000000 37.323784 0.898815 1393.872681
7.080000 2.840000 1.040000 23.824471 14.948803 791.072144
7.080000 2.840000 1.080000 6.830353 18.915277 404.441437
7.080000 2.840000 1.120000 -7.675444 13.905447 252.273880
7.080000 2.840000 1.160000 -16.284033 3.591005 278.065063
7.080000 2.840000 1.200000 -18.320171 -8.091611 401.102844
7.080000 2.880000 0.800000 5.742365 -58.173401 3417.119385
7.080000 2.880000 0.840000 18.795216 -64.866096 4560.870605
7.080000 2.880000 0.880000 41.742252 -68.217453 6396.036621
7.080000 2.880000 0.920000 71.269791 -55.816380 8194.851562
7.080000 2.880000 0.960000 91.565399 -22.535202 8892.057617
7.080000 2.880000 1.000000 86.424240 20.063591 7871.697266
7.080000 2.880000 1.040000 54.808327 49.764885 5480.496094
7.080000 2.880000 1.080000 14.257881 51.097351 2814.226318
7.080000 2.880000 1.120000 -12.295185 28.046833 937.796387
7.080000 2.880000 1.160000 -14.451231 0.032218 208.839111
7.080000 2.880000 1.200000 -0.633636 -14.952479 223.978134
7.080000 2.920000 0.800000 38.231728 -47.852463 3751.523193
7.080000 2.920000 0.840000 51.091923 -57.870483 5959.377441
7.080000 2.920000 0.880000 84.407433 -60.199112 10748.547852
7.080000 2.920000 0.920000 124.699722 -31.874561 16566.007812
7.080000 2.920000 0.960000 139.853943 27.668396 20324.666016
7.080000 2.920000 1.000000 108.557236 88.322815 19585.593750
7.080000 2.920000 1.040000 43.858139 112.060997 14481.203125
7.080000 2.920000 1.080000 -14.476883 86.425659 7678.974609
7.080000 2.920000 1.120000 -33.297581 35.913437 2398.503906
7.080000 2.920000 1.160000 -13.400259 -0.448248 179.767868
7.080000 2.920000 1.200000 15.238678 -3.461207 244.197250
7.080000 2.960000 0.800000 57.621548 -17.885368 3640.129150
7.080000 2.960000 0.840000 75.781113 -28.682394 6565.456543
7.080000 2.960000 0.880000 117.389740 -17.691002 14093.322266
7.080000 2.960000 0.920000 150.904114 36.089462 24074.500000
7.080000 2.960000 0.960000 135.926727 113.695831 31402.816406
7.080000 2.960000 1.000000 65.012527 165.303406 31551.845703
7.080000 2.960000 1.040000 -22.444260 153.598053 24096.105469
7.080000 2.960000 1.080000 -71.705215 89.382774 13130.917969
7.080000 2.960000 1.120000 -60.469105 22.847198 4178.507324
7.080000 2.960000 1.160000 -16.172516 -1.899218 265.157288
7.080000 2.960000 1.200000 13.634558 15.724640 433.165466
7.080000 3.000000 0.800000 53.074615 17.807350 3134.016602
7.080000 3.000000 0.840000 76.340866 12.773123 5991.080566
7.080000 3.000000 0.880000 112.681564 42.759991 14525.551758
7.080000 3.000000 0.920000 118.541252 111.782349 26547.322266
7.080000 3.000000 0.960000 63.798897 178.810486 36043.488281
7.080000 3.000000 1.000000 -31.643913 190.488647 37287.261719
7.080000 3.000000 1.040000 -108.662880 132.023102 29237.720703
7.080000 3.000000 1.080000 -120.222160 44.398262 16424.574219
7.080000 3.000000 1.120000 -73.240517 -11.573746 5498.125000
7.080000 3.000000 1.160000 -19.173223 -9.576687 459.325409
7.080000 3.000000 1.200000 -3.409159 23.126350 546.450439
7.080000 3.040000 0.800000 27.016106 40.969402 2408.361816
7.080000 3.040000 0.840000 49.079754 44.929512 4427.483398
7.080000 3.040000 0.880000 66.315903 85.353653 11683.044922
7.080000 3.040000 0.920000 39.486790 144.714188 22501.402344
7.080000 3.040000 0.960000 -37.188564 173.770126 31579.046875
7.080000 3.040000 1.000000 -121.240036 137.318451 33555.503906
7.080000 3.040000 1.040000 -156.190872 51.722141 27070.767578
7.080000 3.040000 1.080000 -123.056870 -26.092346 15823.803711
7.080000 3.040000 1.120000 -57.392685 -49.407669 5735.038086
7.080000 3.040000 1.160000 -14.351894 -22.068462 692.993896
7.080000 3.040000 1.200000 -17.340120 11.152037 425.047699
7.080000 3.080000 0.800000 -5.334967 40.553959 1673.085449
7.080000 3.080000 0.840000 9.246334 49.864998 2572.012695
7.080000 3.080000 0.880000 5.776300 83.971329 7084.549805
7.080000 3.080000 0.920000 -36.927486 113.717453 14295.298828
7.080000 3.080000 0.960000 -102.369278 101.305656 20742.304688
7.080000 3.080000 1.000000 -145.476471 39.538254 22726.677734
7.080000 3.080000 1.040000 -133.125580 -36.140190 19028.533203
7.080000 3.080000 1.080000 -75.985901 -77.530060 11784.767578
7.080000 3.080000 1.120000 -18.751005 -66.779266 4811.070312
7.080000 3.080000 1.160000 1.614126 -29.730335 886.498230
7.080000 3.080000 1.200000 -12.446362 -7.215417 206.974152
7.080000 3.120000 0.800000 -25.606236 20.380619 1071.048950
7.080000 3.120000 0.840000 -19.061836 28.207735 1159.029907
7.080000 3.120000 0.880000 -31.387264 44.859104 2997.499512
7.080000 3.120000 0.920000 -64.743134 45.629066 6273.685059
7.080000 3.120000 0.960000 -96.162582 14.438492 9455.711914
7.080000 3.120000 1.000000 -97.192940 -36.826107 10802.629883
7.080000 3.120000 1.040000 -61.482269 -76.150017 9578.894531
7.080000 3.120000 1.080000 -12.066883 -79.815964 6516.197754
7.080000 3.120000 1.120000 19.482662 -53.143379 3203.792969
7.080000 3.120000 1.160000 21.026134 -23.164680 978.700745
7.080000 3.120000 1.200000 7.191143 -11.773058 190.317429
7.080000 3.160000 0.800000 -24.927519 -3.516491 633.746948
7.080000 3.160000 0.840000 -21.920483 -0.940329 481.391785
7.080000 3.160000 0.880000 -28.629190 0.621342 820.016602
7.080000 3.160000 0.920000 -38.880802 -9.181721 1596.020752
7.080000 3.160000 0.960000 -39.465946 -29.980904 2456.415527
7.080000 3.160000 1.000000 -23.153694 -49.429993 2979.417725
7.080000 3.160000 1.040000 3.652069 -54.036983 2933.333252
7.080000 3.160000 1.080000 26.312519 -41.136353 2384.548096
7.080000 3.160000 1.120000 34.643913 -20.329828 1613.502563
7.080000 3.160000 1.160000 30.156546 -3.861200 924.326111
7.080000 3.160000 1.200000 21.747101 3.514496 485.288086
7.080000 3.200000 0.800000 -9.932746 -14.891474 320.415436
7.080000 3.200000 0.840000 -6.240136 -16.375359 307.091675
7.080000 3.200000 0.880000 -1.718441 -18.981457 363.248749
7.080000 3.200000 0.920000 5.691355 -20.421921 449.446350
7.080000 3.200000 0.960000 14.272308 -17.625088 514.342529
7.080000 3.200000 1.000000 20.203621 -10.826937 525.408875
7.080000 3.200000 1.040000 21.983902 -3.470213 495.334320
7.080000 3.200000 1.080000 21.889956 2.029621 483.289520
7.080000 3.200000 1.120000 22.411091 7.172897 553.707458
7.080000 3.200000 1.160000 22.086721 14.856751 708.546326
7.080000 3.200000 1.200000 16.482784 24.133369 854.101685
7.120000 2.800000 0.800000 -30.840065 -23.659746 1510.893188
7.120000 2.800000 0.840000 -12.075879 -36.412853 1471.722778
7.120000 2.800000 0.880000 13.842609 -31.316952 1172.369263
7.120000 2.800000 0.920000 29.018532 -7.491281 898.194458
7.120000 2.800000 0.960000 21.808662 19.795952 867.497437
7.120000 2.800000 1.000000 -1.765779 31.919170 1021.951416
7.120000 2.800000 1.040000 -23.431097 23.471443 1099.924927
7.120000 2.800000 1.080000 -29.666822 5.946335 915.479248
7.120000 2.800000 1.120000 -23.031544 -4.962248 555.075928
7.120000 2.800000 1.160000 -16.728926 -4.788919 302.790710
7.120000 2.800000 1.200000 -19.170923 -2.608532 374.328735
7.120000 2.840000 0.800000 -11.256381 -45.805569 2224.856201
7.120000 2.840000 0.840000 11.309486 -49.751022 2603.068848
7.120000 2.840000 0.880000 34.612206 -36.687527 2543.979492
7.120000 2.840000 0.920000 44.419491 -9.922300 2071.543213
7.120000 2.840000 0.960000 34.107597 16.329245 1429.972412
7.120000 2.840000 1.000000 10.763694 27.890882 893.758423
7.120000 2.840000 1.040000 -10.825161 21.687334 587.524536
7.120000 2.840000 1.080000 -20.402628 6.534891 458.972015
7.120000 2.840000 1.120000 -18.902628 -6.302263 397.027893
7.120000 2.840000 1.160000 -14.042423 -12.733936 359.342773
7.120000 2.840000 1.200000 -10.859627 -16.494596 390.003204
7.120000 2.880000 0.800000 22.771280 -48.848305 2904.688232
7.120000 2.880000 0.840000 43.018291 -43.990860 3785.769043
7.120000 2.880000 0.880000 61.409805 -26.029028 4448.674805
7.120000 2.880000 0.920000 67.299309 2.927906 4537.769531
7.120000 2.880000 0.960000 53.946075 31.661003 3912.598145
7.120000 2.880000 1.000000 25.578854 46.105385 2779.984375
7.120000 2.880000 1.040000 -3.794212 39.595478 1582.197876
7.120000 2.880000 1.080000 -19.856550 18.126360 722.847534
7.120000 2.880000 1.120000 -17.922613 -4.311358 339.807861
7.120000 2.880000 1.160000 -4.897049 -16.342812 291.068573
7.120000 2.880000 1.200000 7.938308 -16.488430 334.885040
7.120000 2.920000 0.800000 52.318356 -25.668171 3396.065430
7.120000 2.920000 0.840000 66.210846 -15.666159 4629.304688
7.120000 2.920000 0.880000 79.361496 5.210158 6325.392578
7.120000 2.920000 0.920000 79.794014 37.852440 7799.891602
7.120000 2.920000 0.960000 57.223461 69.603668 8119.194824
7.120000 2.920000 1.000000 16.418434 81.024216 6834.488281
7.120000 2.920000 1.040000 -21.847704 62.769669 4417.353516
7.120000 2.920000 1.080000 -36.020065 26.200983 1983.936523
7.120000 2.920000 1.120000 -21.952188 -4.312929 500.499939
7.120000 2.920000 1.160000 3.729199 -11.549645 147.301224
7.120000 2.920000 1.200000 19.031017 0.909051 363.006012
7.120000 2.960000 0.800000 58.196762 13.286862 3563.403809
7.120000 2.960000 0.840000 65.131134 23.870441 4811.862305
7.120000 2.960000 0.880000 72.097961 46.602795 7369.936523
7.120000 2.960000 0.920000 62.075085 81.078842 10427.094727
7.120000 2.960000 0.960000 24.741116 107.643967 12199.346680
7.120000 2.960000 1.000000 -26.738819 102.773270 11277.309570
7.120000 2.960000 1.040000 -61.870415 63.482895 7858.026367
7.120000 2.960000 1.080000 -59.126541 14.623625 3709.798096
7.120000 2.960000 1.120000 -26.686377 -11.254074 838.816895
7.120000 2.960000 1.160000 4.547142 -2.954076 29.403065
7.120000 2.960000 1.200000 9.881797 20.467241 516.557861
7.120000 3.000000 0.800000 35.494843 45.604908 3339.691406
7.120000 3.000000 0.840000 37.378033 53.578594 4267.783203
7.120000 3.000000 0.880000 36.452930 75.613068 7046.152344
7.120000 3.000000 0.920000 13.350618 103.939880 10981.738281
7.120000 3.000000 0.960000 -34.285507 112.592407 13852.545898
7.120000 3.000000 1.000000 -81.480789 83.186455 13559.105469
7.120000 3.000000 1.040000 -95.575340 27.926781 9914.550781
7.120000 3.000000 1.080000 -67.967850 -17.015287 4909.148438
7.120000 3.000000 1.120000 -24.490410 -23.958374 1173.783813
7.120000 3.000000 1.160000 -1.663628 0.395827 2.924336
7.120000 3.000000 1.200000 -11.985122 22.853765 665.937744
7.120000 3.040000 0.800000 -1.686366 52.530151 2762.260498
7.120000 3.040000 0.840000 -2.201708 56.801079 3231.209961
7.120000 3.040000 0.880000 -10.735636 73.358200 5496.679199
7.120000 3.040000 0.920000 -41.290127 86.137787 9124.592773
7.120000 3.040000 0.960000 -83.808968 71.274910 12104.055664
7.120000 3.040000 1.000000 -108.209290 24.952602 12331.882812
7.120000 3.040000 1.040000 -93.027832 -26.741268 9369.273438
7.120000 3.040000 1.080000 -49.088238 -49.658310 4875.602539
7.120000 3.040000 1.120000 -11.475225 -34.319923 1309.537964
7.120000 3.040000 1.160000 -6.123240 -5.073682 63.236320
7.120000 3.040000 1.200000 -25.294689 4.911281 663.941956
7.120000 3.080000 0.800000 -29.989292 32.724964 1970.280884
7.120000 3.080000 0.840000 -30.876236 33.822090 2097.275879
7.120000 3.080000 0.880000 -42.665871 40.699539 3476.829102
7.120000 3.080000 0.920000 -68.174789 35.582367 5913.906738
7.120000 3.080000 0.960000 -89.652641 6.319448 8077.531738
7.120000 3.080000 1.000000 -84.708115 -36.065788 8476.206055
7.120000 3.080000 1.040000 -50.746235 -64.062881 6679.233398
7.120000 3.080000 1.080000 -10.792086 -59.798523 3692.332520
7.120000 3.080000 1.120000 7.499386 -33.347992 1168.329468
7.120000 3.080000 1.160000 -1.345859 -12.889265 167.944489
7.120000 3.080000 1.200000 -16.383091 -16.178555 530.151306
7.120000 3.120000 0.800000 -33.959995 2.942551 1161.939819
7.120000 3.120000 0.840000 -34.442917 1.983307 1190.248047
7.120000 3.120000 0.880000 -42.808834 -0.760246 1833.174316
7.120000 3.120000 0.920000 -52.561890 -15.489035 3002.662354
7.120000 3.120000 0.960000 -49.427071 -40.341751 4070.492188
7.120000 3.120000 1.000000 -27.225481 -59.834435 4321.386719
7.120000 3.120000 1.040000 3.044477 -59.239769 3518.619141
7.120000 3.120000 1.080000 22.175087 -40.053001 2095.977539
7.120000 3.120000 1.120000 21.282833 -19.386885 828.810303
7.120000 3.120000 1.160000 10.253884 -13.032610 274.991058
7.120000 3.120000 1.200000 6.751160 -19.879353 440.766815
7.120000 3.160000 0.800000 -16.996292 -15.313826 523.387207
7.120000 3.160000 0.840000 -17.369774 -17.761885 617.193604
7.120000 3.160000 0.880000 -17.659538 -25.372322 955.614014
7.120000 3.160000 0.920000 -10.796217 -36.330894 1436.492188
7.120000 3.160000 0.960000 5.127001 -42.125717 1800.862183
7.120000 3.160000 1.000000 22.846241 -35.928146 1812.782471
7.120000 3.160000 1.040000 31.962902 -20.428776 1438.962036
7.120000 3.160000 1.080000 29.104752 -6.067606 883.902405
7.120000 3.160000 1.120000 21.260941 -0.910832 452.857208
7.120000 3.160000 1.160000 18.304758 -2.894029 343.439575
7.120000 3.160000 1.200000 22.632214 -2.794025 520.023682
7.120000 3.200000 0.800000 2.816795 -12.443111 162.765366
7.120000 3.200000 0.840000 2.311917 -17.019371 295.003967
7.120000 3.200000 0.880000 9.994905 -23.508776 652.560669
7.120000 3.200000 0.920000 24.644156 -21.963814 1089.743530
7.120000 3.200000 0.960000 35.834091 -8.410003 1354.810181
7.120000 3.200000 1.000000 34.255081 9.503922 1263.735107
7.120000 3.200000 1.040000 21.861637 19.414217 854.843018
7.120000 3.200000 1.080000 10.365155 16.812649 390.101593
7.120000 3.200000 1.120000 9.128968 9.614873 175.783844
7.120000 3.200000 1.160000 15.466665 9.404412 327.660706
7.120000 3.200000 1.200000 18.000706 18.735798 675.055542
7.160000 2.800000 0.800000 -27.909792 -23.488180 1330.651123
7.160000 2.800000 0.840000 -8.597875 -34.483112 1263.008545
7.160000 2.800000 0.880000 16.014519 -24.723154 867.699219
7.160000 2.800000 0.920000 24.751671 3.015819 621.740356
7.160000 2.800000 0.960000 8.104956 28.051561 852.580383
7.160000 2.800000 1.000000 -21.319004 30.610943 1391.529785
7.160000 2.800000 1.040000 -40.224854 10.579217 1729.958618
7.160000 2.800000 1.080000 -36.592033 -13.193131 1513.035645
7.160000 2.800000 1.120000 -19.708853 -22.094875 876.622375
7.160000 2.800000 1.160000 -8.493879 -15.319810 306.842560
7.160000 2.800000 1.200000 -11.248837 -7.927023 189.374054
7.160000 2.840000 0.800000 -4.010936 -40.230408 1634.573364
7.160000 2.840000 0.840000 19.134792 -37.215729 1751.150757
7.160000 2.840000 0.880000 35.094280 -14.973387 1455.810791
7.160000 2.840000 0.920000 29.278254 14.021701 1053.824219
7.160000 2.840000 0.960000 3.693796 29.529600 885.641418
7.160000 2.840000 1.000000 -23.701641 21.332453 1016.841309
7.160000 2.840000 1.040000 -34.698524 -2.036244 1208.133789
7.160000 2.840000 1.080000 -26.220144 -22.106037 1176.172852
7.160000 2.840000 1.120000 -10.544839 -27.580025 871.851379
7.160000 2.840000 1.160000 -1.345894 -22.587883 512.023865
7.160000 2.840000 1.200000 -0.651837 -18.913887 358.160004
7.160000 2.880000 0.800000 28.870050 -33.245155 1938.720215
7.160000 2.880000 0.840000 43.818905 -16.867611 2204.612793
7.160000 2.880000 0.880000 44.537708 8.405776 2054.264404
7.160000 2.880000 0.920000 27.320570 29.068298 1591.379517
7.160000 2.880000 0.960000 0.607972 32.835011 1078.507568
7.160000 2.880000 1.000000 -20.481710 18.156872 749.172485
7.160000 2.880000 1.040000 -25.263231 -4.699766 660.318604
7.160000 2.880000 1.080000 -14.656115 -21.942034 696.254517
7.160000 2.880000 1.120000 1.340232 -26.432863 700.492493
7.160000 2.880000 1.160000 12.786495 -21.093025 608.410156
7.160000 2.880000 1.200000 16.949972 -13.673250 474.259308
7.160000 2.920000 0.800000 48.159954 -1.707876 2322.297852
7.160000 2.920000 0.840000 47.323360 18.160013 2569.286621
7.160000 2.920000 0.880000 35.146530 35.513435 2496.482666
7.160000 2.920000 0.920000 14.532909 43.716431 2122.331787
7.160000 2.920000 0.960000 -7.633693 38.570824 1545.981812
7.160000 2.920000 1.000000 -22.275057 21.139423 943.053345
7.160000 2.920000 1.040000 -22.542503 -0.970255 509.105865
7.160000 2.920000 1.080000 -8.846008 -16.632063 354.877380
7.160000 2.920000 1.120000 10.035113 -18.152687 430.223541
7.160000 2.920000 1.160000 22.446369 -7.079439 553.957947
7.160000 2.920000 1.200000 22.440277 6.833693 550.265381
7.160000 2.960000 0.800000 38.183323 35.857986 2743.761230
7.160000 2.960000 0.840000 24.034180 47.143082 2800.112061
7.160000 2.960000 0.880000 7.751126 51.146057 2675.999023
7.160000 2.960000 0.920000 -9.058737 48.787529 2462.283691
7.160000 2.960000 0.960000 -24.677753 38.416397 2084.811035
7.160000 2.960000 1.000000 -33.140781 19.355873 1472.961182
7.160000 2.960000 1.040000 -27.523329 -2.045847 761.719116
7.160000 2.960000 1.080000 -8.689126 -13.573229 259.733459
7.160000 2.960000 1.120000 11.262977 -7.415855 181.849548
7.160000 2.960000 1.160000 17.633011 10.576500 422.785400
7.160000 2.960000 1.200000 6.911417 24.193447 633.090576
7.160000 3.000000 0.800000 3.940775 54.625092 2999.430420
7.160000 3.000000 0.840000 -13.349589 51.647835 2845.710205
7.160000 3.000000 0.880000 -25.007061 44.428005 2599.200684
7.160000 3.000000 0.920000 -34.574833 35.945992 2487.533203
7.160000 3.000000 0.960000 -42.829411 22.650455 2347.401611
7.160000 3.000000 1.000000 -43.192333 3.295455 1876.437622
7.160000 3.000000 1.040000 -29.647690 -13.633688 1064.863037
7.160000 3.000000 1.080000 -7.783271 -15.641255 305.228180
7.160000 3.000000 1.120000 6.253148 -0.518687 39.370895
7.160000 3.000000 1.160000 0.882469 17.683634 313.489655
7.160000 3.000000 1.200000 -17.358322 20.550417 723.630981
7.160000 3.040000 0.800000 -31.619099 42.970985 2846.272949
7.160000 3.040000 0.840000 -42.270752 29.428930 2652.878418
7.160000 3.040000 0.880000 -45.478401 17.155495 2362.595947
7.160000 3.040000 0.920000 -47.091511 6.375460 2258.256836
7.160000 3.040000 0.960000 -46.327660 -7.246701 2198.766602
7.160000 3.040000 1.000000 -36.865894 -21.931995 1840.106567
7.160000 3.040000 1.040000 -18.027107 -27.791801 1097.360840
7.160000 3.040000 1.080000 -0.928503 -17.966093 323.642609
7.160000 3.040000 1.120000 0.649843 0.077478 0.428299
7.160000 3.040000 1.160000 -13.820612 8.610035 265.141998
7.160000 3.040000 1.200000 -27.782112 -2.523094 778.211792
7.160000 3.080000 0.800000 -45.469013 11.761868 2205.772705
7.160000 3.080000 0.840000 -46.759865 -3.908127 2201.758301
7.160000 3.080000 0.880000 -42.580235 -16.039778 2070.350830
7.160000 3.080000 0.920000 -36.193336 -26.077789 1990.008789
7.160000 3.080000 0.960000 -25.672916 -34.879715 1875.693115
7.160000 3.080000 1.000000 -9.758112 -37.715847 1517.705811
7.160000 3.080000 1.040000 5.378100 -29.295883 887.172729
7.160000 3.080000 1.080000 9.305988 -13.164492 259.905243
7.160000 3.080000 1.120000 -0.899997 -2.422800 6.679955
7.160000 3.080000 1.160000 -14.080941 -7.701019 257.578583
7.160000 3.080000 1.200000 -13.736217 -24.338348 781.038879
7.160000 3.120000 0.800000 -32.493744 -14.913136 1278.244995
7.160000 3.120000 0.840000 -28.670397 -27.046013 1553.478516
7.160000 3.120000 0.880000 -19.713276 -37.049297 1761.263672
7.160000 3.120000 0.920000 -5.897943 -42.796650 1866.338989
7.160000 3.120000 0.960000 10.661359 -40.520645 1755.587280
7.160000 3.120000 1.000000 23.444098 -28.276714 1349.198242
7.160000 3.120000 1.040000 24.838070 -11.079419 739.683228
7.160000 3.120000 1.080000 14.089585 0.017704 198.516739
7.160000 3.120000 1.120000 1.030021 -3.041749 10.313181
7.160000 3.120000 1.160000 -0.880894 -16.220901 263.893616
7.160000 3.120000 1.200000 12.653672 -24.904915 780.370178
7.160000 3.160000 0.800000 -8.215242 -19.597597 451.556030
7.160000 3.160000 0.840000 -4.665698 -28.944206 859.535828
7.160000 3.160000 0.880000 7.697055 -36.714283 1407.183228
7.160000 3.160000 0.920000 26.141756 -34.395596 1866.448486
7.160000 3.160000 0.960000 40.215118 -18.603573 1963.348633
7.160000 3.160000 1.000000 39.619083 3.162028 1579.670166
7.160000 3.160000 1.040000 24.442553 16.780540 879.024902
7.160000 3.160000 1.080000 7.080726 13.673174 237.092361
7.160000 3.160000 1.120000 2.139153 -0.527417 4.854144
7.160000 3.160000 1.160000 13.033670 -10.228151 274.491638
7.160000 3.160000 1.200000 28.418697 -3.994010 823.574524
7.160000 3.200000 0.800000 5.657320 -4.708250 54.172882
7.160000 3.200000 0.840000 8.031157 -15.618994 308.452454
7.160000 3.200000 0.880000 23.665533 -20.591215 984.055542
7.160000 3.200000 0.920000 41.361393 -8.597344 1784.679077
7.160000 3.200000 0.960000 44.392895 15.907958 2223.792236
7.160000 3.200000 1.000000 27.446819 35.093460 1984.878784
7.160000 3.200000 1.040000 3.414053 34.388611 1194.232300
7.160000 3.200000 1.080000 -8.171513 17.114628 359.684113
7.160000 3.200000 1.120000 0.021724 1.607049 2.583078
7.160000 3.200000 1.160000 16.243084 3.269443 274.527039
7.160000 3.200000 1.200000 21.823410 19.793184 868.031372
7.200000 2.800000 0.800000 -26.769810 -25.352654 1359.379761
7.200000 2.800000 0.840000 -6.966869 -33.908722 1198.338623
7.200000 2.800000 0.880000 13.598921 -20.450436 603.150940
7.200000 2.800000 0.920000 14.172728 6.195919 239.255615
7.200000 2.800000 0.960000 -8.368294 22.528795 577.574951
7.200000 2.800000 1.000000 -35.011120 13.297776 1402.609375
7.200000 2.800000 1.040000 -42.762512 -13.165981 2001.975464
7.200000 2.800000 1.080000 -26.999825 -33.406483 1844.983643
7.200000 2.800000 1.120000 -4.833730 -32.311329 1067.386963
7.200000 2.800000 1.160000 3.570188 -17.044271 303.253448
7.200000 2.800000 1.200000 -4.476988 -7.382350 74.542511
7.200000 2.840000 0.800000 -2.462757 -35.526329 1268.185181
7.200000 2.840000 0.840000 16.297693 -28.007549 1050.037598
7.200000 2.840000 0.880000 21.951714 -5.795423 515.464661
7.200000 2.840000 0.920000 6.356191 13.563707 224.375320
7.200000 2.840000 0.960000 -19.648811 12.870245 551.718994
7.200000 2.840000 1.000000 -35.288376 -8.286519 1313.935913
7.200000 2.840000 1.040000 -28.860455 -32.963367 1919.509521
7.200000 2.840000 1.080000 -7.819705 -42.887672 1900.500244
7.200000 2.840000 1.120000 9.833529 -34.865524 1312.302979
7.200000 2.840000 1.160000 13.406340 -21.366188 636.243896
7.200000 2.840000 1.200000 8.208309 -15.863444 319.025208
7.200000 2.880000 0.800000 24.189430 -21.735123 1057.544067
7.200000 2.880000 0.840000 28.242645 -4.025101 813.848450
7.200000 2.880000 0.880000 16.248644 12.063584 409.548492
7.200000 2.880000 0.920000 -5.071979 13.627499 211.433701
7.200000 2.880000 0.960000 -20.874498 -1.800448 438.986298
7.200000 2.880000 1.000000 -20.139132 -23.903633 976.968262
7.200000 2.880000 1.040000 -4.257417 -38.088104 1468.829346
7.200000 2.880000 1.080000 15.155835 -37.084244 1604.940430
7.200000 2.880000 1.120000 26.637981 -25.292477 1349.291382
7.200000 2.880000 1.160000 27.529625 -12.865374 923.398071
7.200000 2.880000 1.200000 23.576073 -6.125261 593.349976
7.200000 2.920000 0.800000 31.519926 10.338822 1100.396973
7.200000 2.920000 0.840000 16.955605 22.911362 812.422974
7.200000 2.920000 0.880000 -2.521160 20.939520 444.819763
7.200000 2.920000 0.920000 -14.693647 5.893535 250.637024
7.200000 2.920000 0.960000 -13.143147 -12.747378 335.237946
7.200000 2.920000 1.000000 -0.226035 -24.940538 622.081543
7.200000 2.920000 1.040000 16.371614 -25.978172 942.895142
7.200000 2.920000 1.080000 29.132978 -17.372404 1150.530762
7.200000 2.920000 1.120000 34.019730 -4.164519 1174.685303
7.200000 2.920000 1.160000 30.921448 8.112853 1021.954285
7.200000 2.920000 1.200000 22.723988 15.461275 755.430664
7.200000 2.960000 0.800000 10.822624 38.293667 1583.534058
7.200000 2.960000 0.840000 -12.507212 32.878292 1237.412354
7.200000 2.960000 0.880000 -23.906219 13.053452 741.899902
7.200000 2.960000 0.920000 -18.452263 -7.090598 390.762573
7.200000 2.960000 0.960000 -3.004916 -16.899139 294.610413
7.200000 2.960000 1.000000 12.547073 -15.194878 388.313354
7.200000 2.960000 1.040000 22.879070 -6.478138 565.418091
7.200000 2.960000 1.080000 27.092487 5.262584 761.697632
7.200000 2.960000 1.120000 24.754570 17.625729 923.455078
7.200000 2.960000 1.160000 15.354410 26.917618 960.316101
7.200000 2.960000 1.200000 1.829396 28.100563 792.988342
7.200000 3.000000 0.800000 -24.419018 40.986183 2276.155762
7.200000 3.000000 0.840000 -40.646999 17.300457 1951.484375
7.200000 3.000000 0.880000 -34.634361 -8.988197 1280.326660
7.200000 3.000000 0.920000 -14.262627 -21.557070 668.129761
7.200000 3.000000 0.960000 5.466918 -17.624771 340.519775
7.200000 3.000000 1.000000 15.851889 -5.155066 277.857086
7.200000 3.000000 1.040000 17.400194 7.931191 365.670532
7.200000 3.000000 1.080000 13.109867 18.991211 532.534729
7.200000 3.000000 1.120000 3.470939 26.826143 731.689392
7.200000 3.000000 1.160000 -10.458055 27.405319 860.422424
7.200000 3.000000 1.200000 -22.114321 17.278208 787.579651
7.200000 3.040000 0.800000 -48.802456 16.781780 2663.307861
7.200000 3.040000 0.840000 -48.510742 -13.719999 2541.530273
7.200000 3.040000 0.880000 -27.483818 -33.506462 1878.043213
7.200000 3.040000 0.920000 -1.682183 -33.021347 1093.239014
7.200000 3.040000 0.960000 14.314522 -18.030560 530.006592
7.200000 3.040000 1.000000 16.802261 -0.144554 282.336884
7.200000 3.040000 1.040000 9.887537 13.312656 274.990204
7.200000 3.040000 1.080000 -2.087125 20.221468 413.263855
7.200000 3.040000 1.120000 -16.218781 18.973122 623.028198
7.200000 3.040000 1.160000 -27.182354 7.847310 800.460632
7.200000 3.040000 1.200000 -26.934418 -9.612286 817.858887
7.200000 3.080000 0.800000 -46.253090 -14.917635 2361.884277
7.200000 3.080000 0.840000 -32.392776 -39.452534 2605.794434
7.200000 3.080000 0.880000 -5.974206 -47.343288 2277.078125
7.200000 3.080000 0.920000 17.238855 -36.323071 1616.543579
7.200000 3.080000 0.960000 26.739460 -15.267909 948.107788
7.200000 3.080000 1.000000 21.533564 4.551489 484.410431
7.200000 3.080000 1.040000 6.692987 15.582973 287.625122
7.200000 3.080000 1.080000 -10.734961 14.572100 327.585449
7.200000 3.080000 1.120000 -22.849726 2.005603 526.132446
7.200000 3.080000 1.160000 -22.262953 -16.338419 762.583008
7.200000 3.080000 1.200000 -7.056745 -29.192726 902.012939
7.200000 3.120000 0.800000 -23.049664 -30.555841 1464.946411
7.200000 3.120000 0.840000 -5.734527 -44.920765 2050.760010
7.200000 3.120000 0.880000 18.270830 -44.155510 2283.532227
7.200000 3.120000 0.920000 36.498154 -27.609272 2094.387207
7.200000 3.120000 0.960000 39.682953 -3.391304 1586.237671
7.200000 3.120000 1.000000 26.551254 16.268738 969.640991
7.200000 3.120000 1.040000 4.589508 21.327209 475.913452
7.200000 3.120000 1.080000 -13.353334 9.550570 269.524902
7.200000 3.120000 1.120000 -16.016815 -11.147188 380.798157
7.200000 3.120000 1.160000 -1.336987 -26.292393 693.077454
7.200000 3.120000 1.200000 20.665543 -24.088121 1007.302246
7.200000 3.160000 0.800000 -0.952595 -22.299723 498.185059
7.200000 3.160000 0.840000 12.804223 -31.579483 1161.211914
7.200000 3.160000 0.880000 33.257202 -27.820574 1880.025879
7.200000 3.160000 0.920000 47.455101 -8.209426 2319.381348
7.200000 3.160000 0.960000 43.717987 17.861858 2230.308350
7.200000 3.160000 1.000000 22.053591 33.875980 1633.942871
7.200000 3.160000 1.040000 -3.614132 28.810394 843.100769
7.200000 3.160000 1.080000 -15.144094 7.102472 279.788696
7.200000 3.160000 1.120000 -4.853579 -13.606863 208.703949
7.200000 3.160000 1.160000 17.604944 -16.383522 578.353882
7.200000 3.160000 1.200000 32.904762 1.022185 1083.768311
7.200000 3.200000 0.800000 2.640184 -2.972327 15.805304
7.200000 3.200000 0.840000 14.162366 -13.817015 391.482483
7.200000 3.200000 0.880000 34.000454 -8.951519 1236.160522
7.200000 3.200000 0.920000 44.128883 13.721613 2135.641113
7.200000 3.200000 0.960000 31.956512 38.820786 2528.271973
7.200000 3.200000 1.000000 3.899363 46.065163 2137.204346
7.200000 3.200000 1.040000 -18.635860 29.364061 1209.543457
7.200000 3.200000 1.080000 -18.391401 3.582337 351.076782
7.200000 3.200000 1.120000 1.622249 -8.631130 77.128098
7.200000 3.200000 1.160000 21.045605 2.365838 448.514679
7.200000 3.200000 1.200000 21.327379 24.966747 1078.195557
