#kx 	ky 	kz 	real 	imag 	intensity
0.800000 6.800000 -5.200000 4.832891 -47.778351 2306.127686
0.800000 6.800000 -5.160000 23.083080 -39.263763 2074.471680
0.800000 6.800000 -5.120000 29.080418 -23.898024 1416.786255
0.800000 6.800000 -5.080000 24.889950 -13.340441 797.476929
0.800000 6.800000 -5.040000 19.613922 -11.072141 507.298218
0.800000 6.800000 -5.000000 19.118259 -12.135971 512.789673
0.800000 6.800000 -4.960000 22.001265 -10.891330 602.676697
0.800000 6.800000 -4.920000 24.084629 -6.699342 624.950500
0.800000 6.800000 -4.880000 24.129314 -2.166736 586.918579
0.800000 6.800000 -4.840000 23.789417 1.798039 569.169373
0.800000 6.800000 -4.800000 23.427715 6.904020 596.523315
0.800000 6.840000 -5.200000 23.909363 -35.337498 1820.396484
0.800000 6.840000 -5.160000 34.328766 -24.691904 1788.154297
0.800000 6.840000 -5.120000 35.069077 -13.601888 1414.851440
0.800000 6.840000 -5.080000 31.875942 -8.445271 1087.398315
0.800000 6.840000 -5.040000 31.471125 -7.272614 1043.322632
0.800000 6.840000 -5.000000 34.480915 -4.399071 1208.285278
0.800000 6.840000 -4.960000 36.595009 2.348121 1344.708374
0.800000 6.840000 -4.920000 34.749870 10.156745 1310.712891
0.800000 6.840000 -4.880000 30.192844 15.815418 1161.735352
0.800000 6.840000 -4.840000 25.494972 19.480526 1029.484497
0.800000 6.840000 -4.800000 20.593433 22.969757 951.699219
0.800000 6.880000 -5.200000 29.282637 -15.985627 1113.013062
0.800000 6.880000 -5.160000 34.352871 -8.354414 1249.916016
0.800000 6.880000 -5.120000 34.945225 -2.064990 1225.432861
0.800000 6.880000 -5.080000 35.357948 1.641708 1252.879639
0.800000 6.880000 -5.040000 37.567463 5.853242 1445.574829
0.800000 6.880000 -5.000000 39.274433 13.069302 1713.287720
0.800000 6.880000 -4.960000 37.326332 22.016361 1877.975342
0.800000 6.880000 -4.920000 31.446453 29.463791 1856.994385
0.800000 6.880000 -4.880000 23.813713 33.867878 1714.126221
0.800000 6.880000 -4.840000 15.912697 35.939503 1544.861816
0.800000 6.880000 -4.800000 7.465369 36.001427 1351.834473
0.800000 6.920000 -5.200000 22.177544 -1.546515 494.235138
0.800000 6.920000 -5.160000 26.438454 2.317320 704.361816
0.800000 6.920000 -5.120000 29.312962 7.161467 910.536316
0.800000 6.920000 -5.080000 31.280657 12.897855 1144.834106
0.800000 6.920000 -5.040000 31.855972 19.928211 1411.936523
0.800000 6.920000 -5.000000 29.971321 27.781769 1670.106689
0.800000 6.920000 -4.960000 25.205235 35.170502 1872.268066
0.800000 6.920000 -4.920000 17.914606 40.996056 2001.609741
0.800000 6.920000 -4.880000 8.479204 44.452305 2047.904297
0.800000 6.920000 -4.840000 -2.569284 44.215218 1961.586670
0.800000 6.920000 -4.800000 -13.163087 38.665367 1668.277466
0.800000 6.960000 -5.200000 11.701162 2.661303 143.999741
0.800000 6.960000 -5.160000 17.263418 5.624874 329.664795
0.800000 6.960000 -5.120000 20.498970 11.863043 560.939575
0.800000 6.960000 -5.080000 20.323694 18.849739 768.365234
0.800000 6.960000 -5.040000 17.949429 24.708132 932.673706
0.800000 6.960000 -5.000000 14.968865 29.787497 1111.361816
0.800000 6.960000 -4.960000 10.965328 35.576374 1385.916748
0.800000 6.960000 -4.920000 3.489839 41.766090 1756.585205
0.800000 6.960000 -4.880000 -8.870675 44.715691 2078.181885
0.800000 6.960000 -4.840000 -23.129646 39.855492 2123.440674
0.800000 6.960000 -4.800000 -32.372089 26.595066 1755.249756
0.800000 7.000000 -5.200000 5.798208 0.585660 33.962215
0.800000 7.000000 -5.160000 10.798735 5.013318 141.746017
0.800000 7.000000 -5.120000 11.158285 11.412576 254.754211
0.800000 7.000000 -5.080000 8.394426 15.450379 309.180603
0.800000 7.000000 -5.040000 6.699556 17.119802 337.971710
0.800000 7.000000 -5.000000 7.086258 20.605534 474.803070
0.800000 7.000000 -4.960000 5.002927 28.508795 837.780701
0.800000 7.000000 -4.920000 -5.037268 36.796715 1379.372192
0.800000 7.000000 -4.880000 -22.080904 36.907845 1849.755249
0.800000 7.000000 -4.840000 -36.918991 24.133791 1945.451904
0.800000 7.000000 -4.800000 -39.105843 3.958334 1544.935425
0.800000 7.040000 -5.200000 4.754879 -0.610724 22.981857
0.800000 7.040000 -5.160000 6.186578 3.871816 53.264702
0.800000 7.040000 -5.120000 3.786396 6.174251 52.458172
0.800000 7.040000 -5.080000 2.916357 4.614884 29.802296
0.800000 7.040000 -5.040000 7.107357 4.386016 69.751656
0.800000 7.040000 -5.000000 11.940923 11.687230 279.177002
0.800000 7.040000 -4.960000 8.120443 24.877476 684.830383
0.800000 7.040000 -4.920000 -8.174592 33.140667 1165.127808
0.800000 7.040000 -4.880000 -28.606192 25.970116 1492.761108
0.800000 7.040000 -4.840000 -38.168663 4.611148 1478.109497
0.800000 7.040000 -4.800000 -28.801294 -16.822464 1112.509766
0.800000 7.080000 -5.200000 3.282091 1.465253 12.919089
0.800000 7.080000 -5.160000 1.246142 1.828481 4.896213
0.800000 7.080000 -5.120000 0.877916 -2.401977 6.540229
0.800000 7.080000 -5.080000 7.526374 -6.508091 99.001556
0.800000 7.080000 -5.040000 18.566166 -1.837210 348.077850
0.800000 7.080000 -5.000000 22.976999 13.839756 719.481323
0.800000 7.080000 -4.960000 11.643452 30.554165 1069.126953
0.800000 7.080000 -4.920000 -11.427807 33.222977 1234.360962
0.800000 7.080000 -4.880000 -29.801764 16.248528 1152.159668
0.800000 7.080000 -4.840000 -28.589298 -9.163687 901.321106
0.800000 7.080000 -4.800000 -8.677555 -23.672398 635.682373
0.800000 7.120000 -5.200000 -2.004293 2.900677 12.431116
0.800000 7.120000 -5.160000 -3.116914 -3.444511 21.579811
0.800000 7.120000 -5.120000 4.167041 -11.085078 140.243195
0.800000 7.120000 -5.080000 19.197456 -10.259844 473.806732
0.800000 7.120000 -5.040000 31.285168 4.851250 1002.296326
0.800000 7.120000 -5.000000 27.595640 27.450274 1515.036865
0.800000 7.120000 -4.960000 6.234513 40.998188 1719.720581
0.800000 7.120000 -4.920000 -18.975836 33.339489 1471.603760
0.800000 7.120000 -4.880000 -28.957382 9.151243 922.275208
0.800000 7.120000 -4.840000 -16.423618 -12.587096 428.170227
0.800000 7.120000 -4.800000 7.050467 -15.054355 276.342682
0.800000 7.160000 -5.200000 -8.314460 -0.773442 69.728455
0.800000 7.160000 -5.160000 -3.182591 -11.528998 143.046692
0.800000 7.160000 -5.120000 12.731279 -15.414510 399.692596
0.800000 7.160000 -5.080000 30.082039 -3.816585 919.495422
0.800000 7.160000 -5.040000 34.369576 20.436951 1598.936646
0.800000 7.160000 -5.000000 18.432098 42.296078 2128.700439
0.800000 7.160000 -4.960000 -9.159155 45.693199 2171.758545
0.800000 7.160000 -4.920000 -29.327919 27.870850 1636.911133
0.800000 7.160000 -4.880000 -28.291805 3.029975 809.606995
0.800000 7.160000 -4.840000 -9.620102 -9.398550 180.879105
0.800000 7.160000 -4.800000 9.199154 -1.478393 86.810081
0.800000 7.200000 -5.200000 -10.057958 -8.601238 175.143814
0.800000 7.200000 -5.160000 2.881397 -17.835997 326.425232
0.800000 7.200000 -5.120000 22.096741 -12.462490 643.579590
0.800000 7.200000 -5.080000 32.920712 8.756079 1160.442139
0.800000 7.200000 -5.040000 24.471146 34.040512 1757.593506
0.800000 7.200000 -5.000000 -0.469053 46.501152 2162.577148
0.800000 7.200000 -4.960000 -26.237167 37.657509 2106.477051
0.800000 7.200000 -4.920000 -36.356319 14.879851 1543.191895
0.800000 7.200000 -4.880000 -26.872375 -4.481787 742.210999
0.800000 7.200000 -4.840000 -8.957171 -7.510247 136.634735
0.800000 7.200000 -4.800000 1.481411 4.336069 20.996071
0.840000 6.800000 -5.200000 50.044220 -33.243645 3609.563965
0.840000 6.800000 -5.160000 56.498402 -9.888580 3289.853271
0.840000 6.800000 -5.120000 46.636101 8.430296 2245.995605
0.840000 6.800000 -5.080000 32.285664 13.111485 1214.275024
0.840000 6.800000 -5.040000 24.928478 9.242798 706.858337
0.840000 6.800000 -5.000000 25.200697 7.169392 686.475342
0.840000 6.800000 -4.960000 25.627729 10.670508 770.640259
0.840000 6.800000 -4.920000 21.304132 14.901013 675.906250
0.840000 6.800000 -4.880000 15.251423 14.571889 444.945862
0.840000 6.800000 -4.840000 13.106625 11.202549 297.280701
0.840000 6.800000 -4.800000 15.012730 10.717194 340.240295
0.840000 6.840000 -5.200000 50.872955 -0.163383 2588.084229
0.840000 6.840000 -5.160000 48.491703 14.354212 2557.488770
0.840000 6.840000 -5.120000 40.957085 22.917221 2202.681885
0.840000 6.840000 -5.080000 34.679268 26.764736 1919.002686
0.840000 6.840000 -5.040000 30.149780 30.888998 1863.139404
0.840000 6.840000 -5.000000 23.036636 36.100784 1833.953125
0.840000 6.840000 -4.960000 11.795954 37.544434 1548.729004
0.840000 6.840000 -4.920000 1.582991 31.454964 991.920593
0.840000 6.840000 -4.880000 -0.974080 21.450073 461.054474
0.840000 6.840000 -4.840000 3.997980 15.871166 267.877777
0.840000 6.840000 -4.800000 8.728140 18.689125 425.463806
0.840000 6.880000 -5.200000 29.685772 20.826550 1314.990234
0.840000 6.880000 -5.160000 29.424477 25.712673 1526.941406
0.840000 6.880000 -5.120000 29.193811 32.839561 1930.715332
0.840000 6.880000 -5.080000 25.056250 43.286175 2501.508545
0.840000 6.880000 -5.040000 12.876639 52.594299 2931.968262
0.840000 6.880000 -5.000000 -5.240902 52.941025 2830.219238
0.840000 6.880000 -4.960000 -19.973316 41.137810 2091.252686
0.840000 6.880000 -4.920000 -22.366690 23.866802 1069.893066
0.840000 6.880000 -4.880000 -12.991732 13.047314 339.017487
0.840000 6.880000 -4.840000 -2.372094 14.796895 224.574936
0.840000 6.880000 -4.800000 -1.045722 23.412354 549.231812
0.840000 6.920000 -5.200000 4.936543 19.024757 386.310852
0.840000 6.920000 -5.160000 12.486023 22.585011 665.983459
0.840000 6.920000 -5.120000 14.677807 35.974316 1509.589355
0.840000 6.920000 -5.080000 3.265716 50.787518 2590.036621
0.840000 6.920000 -5.040000 -19.029146 53.873642 3264.477783
0.840000 6.920000 -5.000000 -38.504608 39.449703 3038.883789
0.840000 6.920000 -4.960000 -41.717957 16.045620 1997.849854
0.840000 6.920000 -4.920000 -28.051931 0.113999 786.923828
0.840000 6.920000 -4.880000 -10.838638 1.332044 119.250420
0.840000 6.920000 -4.840000 -5.022364 13.877569 217.811066
0.840000 6.920000 -4.800000 -13.244967 22.685856 690.077209
0.840000 6.960000 -5.200000 -5.366350 3.157757 38.769146
0.840000 6.960000 -5.160000 5.487267 13.809297 220.806763
0.840000 6.960000 -5.120000 0.945807 32.303551 1044.413940
0.840000 6.960000 -5.080000 -20.229055 41.225277 2108.738037
0.840000 6.960000 -5.040000 -43.049042 29.350542 2714.674316
0.840000 6.960000 -5.000000 -48.993404 3.436411 2412.162598
0.840000 6.960000 -4.960000 -33.440434 -16.745754 1398.682861
0.840000 6.960000 -4.920000 -10.531836 -16.469124 382.151581
0.840000 6.960000 -4.880000 0.044971 0.311544 0.099082
0.840000 6.960000 -4.840000 -8.408848 15.415645 308.350830
0.840000 6.960000 -4.800000 -24.225636 14.568445 799.120972
0.840000 7.000000 -5.200000 0.791996 -8.624091 75.002205
0.840000 7.000000 -5.160000 5.367723 8.876581 107.606140
0.840000 7.000000 -5.120000 -9.313128 23.122250 621.372803
0.840000 7.000000 -5.080000 -31.817755 17.896631 1332.658936
0.840000 7.000000 -5.040000 -41.253986 -5.402087 1731.073853
0.840000 7.000000 -5.000000 -27.463572 -27.465979 1508.627686
0.840000 7.000000 -4.960000 -1.822638 -29.008238 844.799866
0.840000 7.000000 -4.920000 13.070704 -9.588332 262.779419
0.840000 7.000000 -4.880000 5.149481 11.886802 167.813202
0.840000 7.000000 -4.840000 -15.800077 15.794582 499.111267
0.840000 7.000000 -4.800000 -28.661196 0.730734 821.998169
0.840000 7.040000 -5.200000 10.181808 -6.616203 147.443359
0.840000 7.040000 -5.160000 3.907413 8.800407 92.715050
0.840000 7.040000 -5.120000 -14.032700 10.320893 303.437500
0.840000 7.040000 -5.080000 -25.164749 -6.472762 675.161255
0.840000 7.040000 -5.040000 -15.535100 -26.871353 963.408936
0.840000 7.040000 -5.000000 8.900848 -30.253670 994.509644
0.840000 7.040000 -4.960000 26.403769 -10.900335 815.976318
0.840000 7.040000 -4.920000 20.307489 15.035082 638.447815
0.840000 7.040000 -4.880000 -4.168478 24.573421 621.229248
0.840000 7.040000 -4.840000 -24.738165 10.286077 717.780212
0.840000 7.040000 -4.800000 -23.915684 -12.841139 736.854736
0.840000 7.080000 -5.200000 9.529797 2.662448 97.905655
0.840000 7.080000 -5.160000 -2.061857 6.985493 53.048370
0.840000 7.080000 -5.120000 -11.587791 -3.182529 144.405411
0.840000 7.080000 -5.080000 -5.565581 -19.106890 396.048920
0.840000 7.080000 -5.040000 14.996611 -22.953682 751.769836
0.840000 7.080000 -5.000000 32.615223 -5.696753 1096.205811
0.840000 7.080000 -4.960000 29.077595 21.570057 1310.773926
0.840000 7.080000 -4.920000 4.095416 36.195862 1326.912842
0.840000 7.080000 -4.880000 -22.640928 25.334032 1154.424805
0.840000 7.080000 -4.840000 -29.456558 -1.177942 869.076416
0.840000 7.080000 -4.800000 -13.164655 -20.026661 574.375244
0.840000 7.120000 -5.200000 -1.083167 5.602457 32.560776
0.840000 7.120000 -5.160000 -7.104782 -1.571678 52.948101
0.840000 7.120000 -5.120000 -2.015562 -13.037331 174.034470
0.840000 7.120000 -5.080000 14.781269 -15.764698 467.011627
0.840000 7.120000 -5.040000 30.735550 -0.922081 945.524231
0.840000 7.120000 -5.000000 29.484997 25.011234 1494.926880
0.840000 7.120000 -4.960000 6.849374 42.881840 1885.766113
0.840000 7.120000 -4.920000 -22.641474 37.274494 1902.024292
0.840000 7.120000 -4.880000 -37.065205 11.598328 1508.350586
0.840000 7.120000 -4.840000 -26.723202 -13.814754 904.976929
0.840000 7.120000 -4.800000 -2.926788 -19.829294 401.766998
0.840000 7.160000 -5.200000 -10.004213 -3.238801 110.574112
0.840000 7.160000 -5.160000 -3.902045 -13.290287 191.857681
0.840000 7.160000 -5.120000 11.277303 -15.003721 352.289215
0.840000 7.160000 -5.080000 25.677372 -1.976125 663.232544
0.840000 7.160000 -5.040000 26.208694 21.459496 1147.405640
0.840000 7.160000 -5.000000 7.539066 40.486557 1695.998779
0.840000 7.160000 -4.960000 -20.996979 40.359825 2069.788574
0.840000 7.160000 -4.920000 -40.736954 19.382515 2035.181274
0.840000 7.160000 -4.880000 -38.565830 -8.068537 1552.424561
0.840000 7.160000 -4.840000 -18.206575 -22.766331 849.785156
0.840000 7.160000 -4.800000 3.043532 -16.615767 285.346802
0.840000 7.200000 -5.200000 -7.630407 -16.063513 316.259552
0.840000 7.200000 -5.160000 7.588930 -19.151007 424.352905
0.840000 7.200000 -5.120000 21.999393 -8.214425 551.450073
0.840000 7.200000 -5.080000 24.591105 12.527792 761.667969
0.840000 7.200000 -5.040000 10.544106 31.278854 1089.544922
0.840000 7.200000 -5.000000 -14.269267 35.614128 1471.978027
0.840000 7.200000 -4.960000 -35.838276 21.362690 1740.746582
0.840000 7.200000 -4.920000 -41.273018 -3.322139 1714.498657
0.840000 7.200000 -4.880000 -28.392443 -23.096500 1339.579102
0.840000 7.200000 -4.840000 -7.488290 -26.594360 763.334473
0.840000 7.200000 -4.800000 6.729788 -14.619077 259.007446
0.880000 6.800000 -5.200000 71.745522 17.901972 5467.900391
0.880000 6.800000 -5.160000 56.190376 43.059601 5011.487793
0.880000 6.800000 -5.120000 30.623482 49.952892 3433.089111
0.880000 6.800000 -5.080000 12.813264 40.332722 1790.908081
0.880000 6.800000 -5.040000 9.388481 28.666838 909.931152
0.880000 6.800000 -5.000000 11.971851 25.698032 803.714111
0.880000 6.800000 -4.960000 9.441799 28.487371 900.677917
0.880000 6.800000 -4.920000 1.131891 26.956287 727.922607
0.880000 6.800000 -4.880000 -3.902941 17.715611 329.075806
0.880000 6.800000 -4.840000 0.632954 8.469902 72.139870
0.880000 6.800000 -4.800000 9.704756 8.373487 164.297577
0.880000 6.840000 -5.200000 38.140205 49.543121 3909.196045
0.880000 6.840000 -5.160000 23.665361 55.766445 3669.945801
0.880000 6.840000 -5.120000 12.142201 55.720268 3252.181396
0.880000 6.840000 -5.080000 3.826109 55.883179 3137.568848
0.880000 6.840000 -5.040000 -7.282619 57.384342 3345.999268
0.880000 6.840000 -5.000000 -23.745123 53.247456 3399.122314
0.880000 6.840000 -4.960000 -38.072094 37.015739 2819.649414
0.880000 6.840000 -4.920000 -38.593079 13.161787 1662.658325
0.880000 6.840000 -4.880000 -22.571758 -3.883039 524.562256
0.880000 6.840000 -4.840000 -1.688608 -2.976526 11.711106
0.880000 6.840000 -4.800000 7.705755 11.965757 202.558014
0.880000 6.880000 -5.200000 -4.951473 45.290337 2075.731689
0.880000 6.880000 -5.160000 -4.419191 44.204407 1973.558838
0.880000 6.880000 -5.120000 -5.887443 53.224804 2867.541504
0.880000 6.880000 -5.080000 -21.427988 65.209190 4711.396973
0.880000 6.880000 -5.040000 -50.589920 63.178329 6550.841309
0.880000 6.880000 -5.000000 -75.975281 36.941948 7136.950684
0.880000 6.880000 -4.960000 -76.790604 -3.504932 5909.081543
0.880000 6.880000 -4.920000 -48.912647 -33.191757 3494.139648
0.880000 6.880000 -4.880000 -11.210686 -33.392921 1240.766602
0.880000 6.880000 -4.840000 9.934517 -8.778181 175.751099
0.880000 6.880000 -4.800000 3.787970 16.942528 301.397980
0.880000 6.920000 -5.200000 -26.066935 13.288831 856.078125
0.880000 6.920000 -5.160000 -13.355990 22.285910 675.044250
0.880000 6.920000 -5.120000 -20.639719 44.401249 2397.468994
0.880000 6.920000 -5.080000 -53.499912 53.582352 5733.309082
0.880000 6.920000 -5.040000 -90.362541 29.059822 9009.862305
0.880000 6.920000 -5.000000 -98.958473 -21.804279 10268.206055
0.880000 6.920000 -4.960000 -66.247177 -65.874359 8728.119141
0.880000 6.920000 -4.920000 -12.744041 -72.222626 5378.518555
0.880000 6.920000 -4.880000 24.176720 -39.833920 2171.254883
0.880000 6.920000 -4.840000 22.963594 1.960857 531.171631
0.880000 6.920000 -4.800000 -4.816676 20.862419 458.440918
0.880000 6.960000 -5.200000 -14.734268 -16.941824 504.124054
0.880000 6.960000 -5.160000 -6.169726 8.285358 106.712692
0.880000 6.960000 -5.120000 -30.800615 31.091387 1915.352295
0.880000 6.960000 -5.080000 -72.746025 19.990891 5691.620117
0.880000 6.960000 -5.040000 -93.546814 -28.663984 9572.630859
0.880000 6.960000 -5.000000 -67.240952 -82.368896 11305.980469
0.880000 6.960000 -4.960000 -6.896823 -99.372650 9922.490234
0.880000 6.960000 -4.920000 44.717796 -66.530579 6425.999023
0.880000 6.960000 -4.880000 52.835590 -11.400505 2921.571045
0.880000 6.960000 -4.840000 20.601650 23.492485 976.324829
0.880000 6.960000 -4.800000 -17.234589 18.793489 650.226318
0.880000 7.000000 -5.200000 11.107993 -22.052340 609.693237
0.880000 7.000000 -5.160000 1.850767 8.338898 72.962555
0.880000 7.000000 -5.120000 -35.135704 14.679888 1450.016846
0.880000 7.000000 -5.080000 -65.474670 -19.630463 4672.287598
0.880000 7.000000 -5.040000 -54.022537 -72.601944 8189.477051
0.880000 7.000000 -5.000000 -0.036253 -99.987289 9997.458984
0.880000 7.000000 -4.960000 58.439316 -75.557953 9124.158203
0.880000 7.000000 -4.920000 77.647057 -16.466900 6300.224121
0.880000 7.000000 -4.880000 47.435097 31.948421 3270.790039
0.880000 7.000000 -4.840000 -1.391520 37.458828 1405.100098
0.880000 7.000000 -4.800000 -27.983444 7.871571 845.034729
0.880000 7.040000 -5.200000 24.414091 -4.857857 619.646606
0.880000 7.040000 -5.160000 -0.446560 13.019132 169.697205
0.880000 7.040000 -5.120000 -31.959826 -2.617198 1028.280151
0.880000 7.040000 -5.080000 -35.546593 -44.356224 3231.034912
0.880000 7.040000 -5.040000 2.017241 -76.020416 5783.172852
0.880000 7.040000 -5.000000 55.854073 -64.707397 7306.724609
0.880000 7.040000 -4.960000 82.845825 -13.212165 7037.992188
0.880000 7.040000 -4.920000 60.899822 40.237930 5327.879395
0.880000 7.040000 -4.880000 9.408946 56.273083 3255.188232
0.880000 7.040000 -4.840000 -29.582005 29.568148 1749.370361
0.880000 7.040000 -4.800000 -30.523331 -9.365636 1019.388855
0.880000 7.080000 -5.200000 14.968189 11.932343 366.427490
0.880000 7.080000 -5.160000 -9.537905 9.452017 180.312256
0.880000 7.080000 -5.120000 -20.595430 -16.679747 702.385742
0.880000 7.080000 -5.080000 -0.772491 -44.248276 1958.506714
0.880000 7.080000 -5.040000 39.504143 -43.721909 3472.182617
0.880000 7.080000 -5.000000 67.102119 -7.113173 4553.291504
0.880000 7.080000 -4.960000 55.498970 40.892040 4752.294922
0.880000 7.080000 -4.920000 10.623190 63.221729 4109.839355
0.880000 7.080000 -4.880000 -33.204132 43.979622 3036.721680
0.880000 7.080000 -4.840000 -44.405926 2.481607 1978.044556
0.880000 7.080000 -4.800000 -22.000383 -26.107048 1165.594849
0.880000 7.120000 -5.200000 -3.553877 10.075710 114.149979
0.880000 7.120000 -5.160000 -12.695354 -4.293779 179.608536
0.880000 7.120000 -5.120000 -3.607236 -22.657558 526.377075
0.880000 7.120000 -5.080000 21.569733 -25.884939 1135.283447
0.880000 7.120000 -5.040000 43.094475 -3.679718 1870.674072
0.880000 7.120000 -5.000000 38.890739 32.112671 2543.713379
0.880000 7.120000 -4.960000 5.900840 54.252251 2978.126465
0.880000 7.120000 -4.920000 -34.000462 43.534695 3051.301025
0.880000 7.120000 -4.880000 -51.707325 7.096195 2724.003418
0.880000 7.120000 -4.840000 -36.530018 -27.155655 2071.871826
0.880000 7.120000 -4.800000 -4.947822 -35.541794 1287.700073
0.880000 7.160000 -5.200000 -10.420755 -7.206620 160.527512
0.880000 7.160000 -5.160000 -2.667836 -17.461870 312.034241
0.880000 7.160000 -5.120000 12.938225 -18.202734 498.737183
0.880000 7.160000 -5.080000 26.282257 -4.138010 707.880127
0.880000 7.160000 -5.040000 24.428047 19.420811 973.897339
0.880000 7.160000 -5.000000 2.717207 36.624599 1348.744507
0.880000 7.160000 -4.960000 -27.902809 32.162182 1812.972656
0.880000 7.160000 -4.920000 -46.751709 5.281651 2213.618164
0.880000 7.160000 -4.880000 -39.901615 -27.078827 2325.401855
0.880000 7.160000 -4.840000 -12.619828 -43.114529 2018.122559
0.880000 7.160000 -4.800000 14.724300 -34.232571 1388.673950
0.880000 7.200000 -5.200000 0.601400 -21.588907 466.442596
0.880000 7.200000 -5.160000 14.265275 -18.458683 544.221069
0.880000 7.200000 -5.120000 22.402422 -6.025228 538.171875
0.880000 7.200000 -5.080000 19.743279 10.236692 494.586914
0.880000 7.200000 -5.040000 5.156618 21.919594 507.059296
0.880000 7.200000 -5.000000 -15.977184 20.592257 679.311401
0.880000 7.200000 -4.960000 -32.180618 3.523252 1048.005493
0.880000 7.200000 -4.920000 -32.117657 -21.853283 1509.109863
0.880000 7.200000 -4.880000 -13.598693 -40.665539 1838.610474
0.880000 7.200000 -4.840000 12.830660 -40.814011 1830.409302
0.880000 7.200000 -4.800000 30.693607 -22.690033 1456.935059
0.920000 6.800000 -5.200000 46.662102 74.012947 7655.268555
0.920000 6.800000 -5.160000 12.072603 83.403473 7101.886719
0.920000 6.800000 -5.120000 -17.430811 68.152107 4948.542969
0.920000 6.800000 -5.080000 -26.432703 43.061825 2553.008545
0.920000 6.800000 -5.040000 -19.198826 27.183714 1107.549194
0.920000 6.800000 -5.000000 -12.150803 25.193600 782.359497
0.920000 6.800000 -4.960000 -14.730444 25.906158 888.114990
0.920000 6.800000 -4.920000 -20.394272 18.104336 743.693298
0.920000 6.800000 -4.880000 -16.908157 4.581865 306.879272
0.920000 6.800000 -4.840000 -2.761734 -1.651772 10.355524
0.920000 6.800000 -4.800000 9.874133 6.304781 137.248764
0.920000 6.840000 -5.200000 -12.732971 74.772331 5753.029785
0.920000 6.840000 -5.160000 -29.369799 65.376221 5136.635254
0.920000 6.840000 -5.120000 -37.469154 55.456150 4479.322266
0.920000 6.840000 -5.080000 -44.615200 49.954361 4485.954102
0.920000 6.840000 -5.040000 -57.525936 42.433475 5109.833008
0.920000 6.840000 -5.000000 -70.897179 22.774521 5545.088867
0.920000 6.840000 -4.960000 -70.029282 -8.171890 4970.879883
0.920000 6.840000 -4.920000 -46.697639 -34.209354 3350.949219
0.920000 6.840000 -4.880000 -11.430973 -37.071926 1504.994873
0.920000 6.840000 -4.840000 12.776634 -15.062733 390.128296
0.920000 6.840000 -4.800000 11.030168 13.061656 292.271454
0.920000 6.880000 -5.200000 -50.396835 31.567917 3536.374512
0.920000 6.880000 -5.160000 -43.518791 28.258636 2692.435547
0.920000 6.880000 -5.120000 -48.484550 38.546257 3836.565674
0.920000 6.880000 -5.080000 -74.934349 41.050484 7300.298828
0.920000 6.880000 -5.040000 -106.402206 14.111607 11520.567383
0.920000 6.880000 -5.000000 -111.587639 -38.964344 13970.020508
0.920000 6.880000 -4.960000 -74.175339 -86.666435 13013.051758
0.920000 6.880000 -4.920000 -12.176987 -94.869362 9148.475586
0.920000 6.880000 -4.880000 34.429596 -58.206314 4573.372070
0.920000 6.880000 -4.840000 37.924973 -6.259628 1477.486572
0.920000 6.880000 -4.800000 6.393084 22.531542 548.541870
0.920000 6.920000 -5.200000 -41.205696 -20.290741 2109.623535
0.920000 6.920000 -5.160000 -29.088810 0.007280 846.158936
0.920000 6.920000 -5.120000 -53.051373 21.719057 3286.165771
0.920000 6.920000 -5.080000 -98.800179 6.595428 9804.975586
0.920000 6.920000 -5.040000 -121.455948 -53.729580 17638.414062
0.920000 6.920000 -5.000000 -86.513069 -122.560394 22505.560547
0.920000 6.920000 -4.960000 -5.945541 -146.980484 21638.611328
0.920000 6.920000 -4.920000 67.757614 -105.640388 15750.986328
0.920000 6.920000 -4.880000 86.422363 -29.385565 8332.335938
0.920000 6.920000 -4.840000 47.629967 26.085426 2949.063232
0.920000 6.920000 -4.800000 -6.657265 29.146114 893.815125
0.920000 6.960000 -5.200000 0.238623 -41.207214 1698.091431
0.920000 6.960000 -5.160000 -6.859610 -3.914038 62.373936
0.920000 6.960000 -5.120000 -53.427963 4.873535 2878.298828
0.920000 6.960000 -5.080000 -94.771324 -42.178497 10760.628906
0.920000 6.960000 -5.040000 -79.351952 -119.183540 20501.449219
0.920000 6.960000 -5.000000 -0.173976 -164.057098 26914.761719
0.920000 6.960000 -4.960000 92.520203 -133.876404 26482.878906
0.920000 6.960000 -4.920000 133.089111 -45.941147 19823.300781
0.920000 6.960000 -4.880000 98.230583 36.357445 10971.111328
0.920000 6.960000 -4.840000 25.288990 59.830738 4219.250488
0.920000 6.960000 -4.800000 -25.233080 25.541727 1289.088135
0.920000 7.000000 -5.200000 34.948772 -21.945450 1703.019531
0.920000 7.000000 -5.160000 1.345156 8.006144 65.907776
0.920000 7.000000 -5.120000 -48.380280 -12.712038 2502.247314
0.920000 7.000000 -5.080000 -58.656178 -79.251968 9721.421875
0.920000 7.000000 -5.040000 -1.400996 -137.359406 18869.568359
0.920000 7.000000 -5.000000 91.221764 -129.743958 25154.904297
0.920000 7.000000 -4.960000 150.455536 -50.646461 25201.933594
0.920000 7.000000 -4.920000 131.614578 45.510067 19393.562500
0.920000 7.000000 -4.880000 53.737804 91.698029 11296.280273
0.920000 7.000000 -4.840000 -19.936754 66.600601 4833.114258
0.920000 7.000000 -4.800000 -40.370728 7.943443 1692.893921
0.920000 7.040000 -5.200000 36.149643 11.580934 1440.914673
0.920000 7.040000 -5.160000 -7.613022 14.973038 282.149963
0.920000 7.040000 -5.120000 -35.416183 -28.317337 2056.177734
0.920000 7.040000 -5.080000 -8.850294 -84.781677 7266.260254
0.920000 7.040000 -5.040000 63.968098 -99.040497 13900.937500
0.920000 7.040000 -5.000000 128.536865 -45.436005 18586.156250
0.920000 7.040000 -4.960000 130.397461 43.811493 18922.945312
0.920000 7.040000 -4.920000 65.066788 104.230392 15097.662109
0.920000 7.040000 -4.880000 -17.469255 95.822754 9487.174805
0.920000 7.040000 -4.840000 -58.456924 36.457993 4746.396973
0.920000 7.040000 -4.800000 -41.411739 -19.296156 2087.273682
0.920000 7.080000 -5.200000 11.273862 26.040752 805.220764
0.920000 7.080000 -5.160000 -18.328049 5.618920 367.489624
0.920000 7.080000 -5.120000 -15.409966 -36.282459 1553.883911
0.920000 7.080000 -5.080000 28.549934 -60.731651 4503.432129
0.920000 7.080000 -5.040000 82.557594 -35.989334 8110.988281
0.920000 7.080000 -5.000000 99.155853 29.237549 10686.716797
0.920000 7.080000 -4.960000 57.490376 88.245071 11092.335938
0.920000 7.080000 -4.920000 -15.162266 95.920692 9430.673828
0.920000 7.080000 -4.880000 -66.222977 48.856926 6772.481445
0.920000 7.080000 -4.840000 -64.074570 -12.966218 4273.672852
0.920000 7.080000 -4.800000 -23.162422 -44.103210 2481.590820
0.920000 7.120000 -5.200000 -10.141522 11.978643 246.338379
0.920000 7.120000 -5.160000 -14.787743 -12.020796 363.176880
0.920000 7.120000 -5.120000 5.698143 -32.631580 1097.288940
0.920000 7.120000 -5.080000 40.191418 -26.771378 2332.056641
0.920000 7.120000 -5.040000 59.448166 10.092865 3635.950439
0.920000 7.120000 -5.000000 40.577351 53.980713 4560.438965
0.920000 7.120000 -4.960000 -9.450119 69.519485 4922.263672
0.920000 7.120000 -4.920000 -55.976257 41.071957 4820.247070
0.920000 7.120000 -4.880000 -65.442245 -11.822315 4422.454590
0.920000 7.120000 -4.840000 -34.388260 -50.985043 3782.026855
0.920000 7.120000 -4.800000 9.230381 -52.890739 2882.630371
0.920000 7.160000 -5.200000 -7.570236 -11.510342 189.796432
0.920000 7.160000 -5.160000 3.220063 -20.795948 442.840271
0.920000 7.160000 -5.120000 20.217571 -19.055046 771.844971
0.920000 7.160000 -5.080000 32.300495 -2.069534 1047.604980
0.920000 7.160000 -5.040000 26.237686 22.462187 1192.966064
0.920000 7.160000 -5.000000 -0.405563 36.092396 1302.825439
0.920000 7.160000 -4.960000 -32.292660 23.612469 1600.364624
0.920000 7.160000 -4.920000 -45.598572 -11.526026 2212.079102
0.920000 7.160000 -4.880000 -27.918633 -46.708931 2961.174072
0.920000 7.160000 -4.840000 9.756730 -57.705643 3425.135010
0.920000 7.160000 -4.800000 41.656853 -38.921207 3250.153809
0.920000 7.200000 -5.200000 12.673589 -19.933161 557.950745
0.920000 7.200000 -5.160000 21.281303 -12.618593 612.122742
0.920000 7.200000 -5.120000 23.948944 -2.292183 578.806030
0.920000 7.200000 -5.080000 19.822199 8.434221 464.055634
0.920000 7.200000 -5.040000 7.902229 15.164127 292.395996
0.920000 7.200000 -5.000000 -8.539322 11.100419 196.139313
0.920000 7.200000 -4.960000 -19.207378 -6.823717 415.486481
0.920000 7.200000 -4.920000 -12.652970 -30.940041 1117.383789
0.920000 7.200000 -4.880000 12.496038 -44.875389 2169.951416
0.920000 7.200000 -4.840000 42.733433 -35.996590 3121.900879
0.920000 7.200000 -4.800000 58.512566 -7.326599 3477.399170
0.960000 6.800000 -5.200000 -13.472095 96.177322 9431.574219
0.960000 6.800000 -5.160000 -51.578747 79.348923 8956.619141
0.960000 6.800000 -5.120000 -67.860207 43.094555 6462.148438
0.960000 6.800000 -5.080000 -57.457474 11.416772 3431.704102
0.960000 6.800000 -5.040000 -36.744720 0.082672 1350.181274
0.960000 6.800000 -5.000000 -24.988708 3.568726 637.171326
0.960000 6.800000 -4.960000 -25.183128 5.027435 659.465027
0.960000 6.800000 -4.920000 -24.615280 -3.156372 615.874695
0.960000 6.800000 -4.880000 -12.934189 -11.703054 304.254730
0.960000 6.800000 -4.840000 4.078926 -7.461315 72.308861
0.960000 6.800000 -4.800000 10.944616 9.054753 201.773193
0.960000 6.840000 -5.200000 -68.229103 53.445442 7511.625977
0.960000 6.840000 -5.160000 -75.087296 30.979542 6597.833984
0.960000 6.840000 -5.120000 -73.375000 15.401295 5621.090332
0.960000 6.840000 -5.080000 -74.242477 5.327003 5540.322266
0.960000 6.840000 -5.040000 -79.244095 -10.415298 6388.104980
0.960000 6.840000 -5.000000 -76.097549 -37.382797 7188.310547
0.960000 6.840000 -4.960000 -51.931255 -64.196732 6818.075195
0.960000 6.840000 -4.920000 -10.922112 -70.069878 5029.080078
0.960000 6.840000 -4.880000 24.029903 -45.810684 2676.055176
0.960000 6.840000 -4.840000 30.354311 -6.457817 963.087646
0.960000 6.840000 -4.800000 7.583929 19.638876 443.201447
0.960000 6.880000 -5.200000 -70.737717 -14.623674 5217.676758
0.960000 6.880000 -5.160000 -57.988678 -13.662567 3549.352539
0.960000 6.880000 -5.120000 -67.274658 -5.579855 4557.014160
0.960000 6.880000 -5.080000 -93.817047 -19.749746 9191.691406
0.960000 6.880000 -5.040000 -105.395294 -67.031418 15601.378906
0.960000 6.880000 -5.000000 -72.529396 -121.938736 20129.568359
0.960000 6.880000 -4.960000 -1.281479 -141.130890 19919.570312
0.960000 6.880000 -4.920000 65.781647 -103.405998 15020.025391
0.960000 6.880000 -4.880000 84.861221 -32.341682 8247.411133
0.960000 6.880000 -4.840000 49.765278 22.373817 2977.170410
0.960000 6.880000 -4.800000 -3.426064 28.140266 803.612488
0.960000 6.920000 -5.200000 -22.709387 -56.593277 3718.515381
0.960000 6.920000 -5.160000 -21.283733 -26.948902 1179.240723
0.960000 6.920000 -5.120000 -58.773640 -19.298105 3826.757812
0.960000 6.920000 -5.080000 -94.479874 -64.201828 13048.320312
0.960000 6.920000 -5.040000 -76.006271 -139.950302 25363.041016
0.960000 6.920000 -5.000000 7.276802 -184.923233 34249.554688
0.960000 6.920000 -4.960000 106.476624 -152.734436 34665.078125
0.960000 6.920000 -4.920000 152.610336 -57.844597 26635.912109
0.960000 6.920000 -4.880000 117.518753 34.276939 14985.565430
0.960000 6.920000 -4.840000 37.730042 64.391312 5569.797363
0.960000 6.920000 -4.800000 -21.116043 29.193748 1298.162231
0.960000 6.960000 -5.200000 33.539371 -45.415001 3187.411621
0.960000 6.960000 -5.160000 2.904587 -10.694319 122.805077
0.960000 6.960000 -5.120000 -50.424301 -31.342789 3524.980469
0.960000 6.960000 -5.080000 -61.654419 -106.671715 15180.122070
0.960000 6.960000 -5.040000 6.075054 -175.493744 30834.960938
0.960000 6.960000 -5.000000 118.808701 -168.148834 42389.539062
0.960000 6.960000 -4.960000 195.244690 -73.174347 43474.972656
0.960000 6.960000 -4.920000 178.058929 47.374043 33949.281250
0.960000 6.960000 -4.880000 85.149300 111.275642 19632.671875
0.960000 6.960000 -4.840000 -8.665339 87.445770 7721.850586
0.960000 6.960000 -4.800000 -40.231361 17.215628 1914.940308
0.960000 7.000000 -5.200000 54.192749 -0.088762 2936.861816
0.960000 7.000000 -5.160000 0.328886 9.673265 93.680237
0.960000 7.000000 -5.120000 -37.874393 -43.827492 3355.318848
0.960000 7.000000 -5.080000 -5.153093 -119.935715 14411.129883
0.960000 7.000000 -5.040000 93.264221 -143.489777 29287.531250
0.960000 7.000000 -5.000000 186.644165 -74.605759 40402.062500
0.960000 7.000000 -4.960000 198.476059 48.814560 41775.609375
0.960000 7.000000 -4.920000 115.968689 140.503204 33189.886719
0.960000 7.000000 -4.880000 1.802086 141.178741 19934.685547
0.960000 7.000000 -4.840000 -63.250114 67.759781 8591.964844
0.960000 7.000000 -4.800000 -50.253098 -9.121689 2608.579102
0.960000 7.040000 -5.200000 31.788675 35.630943 2280.083984
0.960000 7.040000 -5.160000 -15.958780 11.549599 388.075897
0.960000 7.040000 -5.120000 -17.852985 -51.631699 2984.561279
0.960000 7.040000 -5.080000 46.001282 -94.946686 11130.991211
0.960000 7.040000 -5.040000 133.056320 -64.696106 21889.570312
0.960000 7.040000 -5.000000 169.705933 33.228249 29904.220703
0.960000 7.040000 -4.960000 117.256439 131.584061 31063.437500
0.960000 7.040000 -4.920000 9.327150 158.706970 25274.898438
0.960000 7.040000 -4.880000 -77.010818 101.065002 16144.800781
0.960000 7.040000 -4.840000 -89.045128 11.694407 8065.793945
0.960000 7.040000 -4.800000 -39.890106 -41.649368 3325.890625
0.960000 7.080000 -5.200000 -3.505047 34.762688 1220.729858
0.960000 7.080000 -5.160000 -22.505520 -4.704865 528.634155
0.960000 7.080000 -5.120000 5.485053 -47.988014 2332.935303
0.960000 7.080000 -5.080000 67.275963 -48.948612 6922.021484
0.960000 7.080000 -5.040000 111.913116 8.678463 12599.861328
0.960000 7.080000 -5.000000 93.545250 89.104149 16690.263672
0.960000 7.080000 -4.960000 15.492027 130.852554 17362.392578
0.960000 7.080000 -4.920000 -68.697754 100.220963 14763.623047
0.960000 7.080000 -4.880000 -100.800026 21.229628 10611.342773
0.960000 7.080000 -4.840000 -67.379013 -47.063316 6754.887695
0.960000 7.080000 -4.800000 -6.383404 -63.238129 4039.808838
0.960000 7.120000 -5.200000 -16.901503 8.074663 350.860992
0.960000 7.120000 -5.160000 -9.515340 -20.090292 494.161530
0.960000 7.120000 -5.120000 22.944599 -32.406116 1576.611084
0.960000 7.120000 -5.080000 57.625572 -9.660059 3414.023193
0.960000 7.120000 -5.040000 61.257019 39.076309 5279.380371
0.960000 7.120000 -5.000000 20.718376 77.507477 6436.660156
0.960000 7.120000 -4.960000 -40.197849 71.158821 6679.444824
0.960000 7.120000 -4.920000 -77.453529 19.087433 6363.379395
0.960000 7.120000 -4.880000 -63.923103 -43.018806 5936.780762
0.960000 7.120000 -4.840000 -12.322641 -73.006607 5481.812500
0.960000 7.120000 -4.800000 37.969257 -57.417702 4738.457031
0.960000 7.160000 -5.200000 -1.317343 -12.734303 163.897858
0.960000 7.160000 -5.160000 11.799623 -18.349224 475.925140
0.960000 7.160000 -5.120000 28.238506 -12.061669 942.897156
0.960000 7.160000 -5.080000 35.859688 8.080730 1351.215454
0.960000 7.160000 -5.040000 23.010204 30.720409 1473.213013
0.960000 7.160000 -5.000000 -7.511444 35.973763 1350.533325
0.960000 7.160000 -4.960000 -34.980049 12.712601 1385.214111
0.960000 7.160000 -4.920000 -35.522945 -27.782784 2033.762695
0.960000 7.160000 -4.880000 -3.510698 -57.598442 3329.905518
0.960000 7.160000 -4.840000 41.417347 -54.684986 4705.844238
0.960000 7.160000 -4.800000 70.006836 -21.473270 5362.058594
0.960000 7.200000 -5.200000 21.575623 -8.637957 540.121765
0.960000 7.200000 -5.160000 23.233250 -1.345271 541.593628
0.960000 7.200000 -5.120000 22.798637 4.229347 537.665283
0.960000 7.200000 -5.080000 20.228296 10.237424 513.988831
0.960000 7.200000 -5.040000 12.133976 14.500923 357.510132
0.960000 7.200000 -5.000000 0.249779 9.725782 94.653236
0.960000 7.200000 -4.960000 -4.714004 -7.208675 74.186829
0.960000 7.200000 -4.920000 8.370546 -26.695860 782.734985
0.960000 7.200000 -4.880000 37.600468 -30.911285 2369.302734
0.960000 7.200000 -4.840000 65.103058 -9.644958 4331.433594
0.960000 7.200000 -4.800000 70.372993 28.132874 5743.816895
1.000000 6.800000 -5.200000 -70.634727 70.014435 9891.285156
1.000000 6.800000 -5.160000 -93.570976 30.824696 9705.689453
1.000000 6.800000 -5.120000 -84.844299 -12.770550 7361.642090
1.000000 6.800000 -5.080000 -53.744484 -36.017517 4185.730957
1.000000 6.800000 -5.040000 -24.378698 -33.211018 1697.292603
1.000000 6.800000 -5.000000 -12.326973 -19.766830 542.681885
1.000000 6.800000 -4.960000 -12.407982 -13.418655 334.018311
1.000000 6.800000 -4.920000 -9.416389 -15.941814 342.809845
1.000000 6.800000 -4.880000 2.017681 -15.039623 230.261292
1.000000 6.800000 -4.840000 11.522408 -2.395962 138.506500
1.000000 6.800000 -4.800000 6.964163 14.235694 251.154541
1.000000 6.840000 -5.200000 -90.877083 -0.494492 8258.888672
1.000000 6.840000 -5.160000 -81.875702 -25.973379 7378.246582
1.000000 6.840000 -5.120000 -68.357880 -39.637562 6243.936035
1.000000 6.840000 -5.080000 -59.541649 -48.510063 5898.434570
1.000000 6.840000 -5.040000 -51.219696 -62.606323 6543.008789
1.000000 6.840000 -5.000000 -30.990761 -79.806396 7329.488281
1.000000 6.840000 -4.960000 4.534019 -84.191719 7108.802734
1.000000 6.840000 -4.920000 39.869041 -62.250992 5464.726562
1.000000 6.840000 -4.880000 51.571304 -20.719982 3088.916992
1.000000 6.840000 -4.840000 31.056381 14.539179 1175.886597
1.000000 6.840000 -4.800000 -4.292627 20.430820 435.845062
1.000000 6.880000 -5.200000 -50.286133 -60.540878 6193.893066
1.000000 6.880000 -5.160000 -37.151260 -52.480408 4134.409180
1.000000 6.880000 -5.120000 -47.635391 -49.869282 4756.076172
1.000000 6.880000 -5.080000 -60.755257 -75.938980 9457.929688
1.000000 6.880000 -5.040000 -42.208107 -121.497559 16543.181641
1.000000 6.880000 -5.000000 18.407349 -147.224976 22014.023438
1.000000 6.880000 -4.960000 89.931816 -119.581261 22387.410156
1.000000 6.880000 -4.920000 123.047241 -46.281548 17282.605469
1.000000 6.880000 -4.880000 94.747246 25.538570 9629.259766
1.000000 6.880000 -4.840000 30.646729 49.391556 3378.747803
1.000000 6.880000 -4.800000 -17.674297 19.894312 708.164429
1.000000 6.920000 -5.200000 17.836235 -66.676971 4763.949707
1.000000 6.920000 -5.160000 3.530426 -38.426743 1489.078369
1.000000 6.920000 -5.120000 -33.420864 -51.788216 3798.973389
1.000000 6.920000 -5.080000 -38.948547 -110.861473 13807.255859
1.000000 6.920000 -5.040000 21.177193 -165.953247 27988.953125
1.000000 6.920000 -5.000000 120.432083 -156.050766 38855.726562
1.000000 6.920000 -4.960000 188.103027 -68.819427 40118.863281
1.000000 6.920000 -4.920000 171.692230 41.921280 31235.617188
1.000000 6.920000 -4.880000 85.523621 101.345993 17585.300781
1.000000 6.920000 -4.840000 -2.255747 79.081726 6259.007812
1.000000 6.920000 -4.800000 -31.412365 12.208874 1135.793335
1.000000 6.960000 -5.200000 60.267227 -21.633387 4100.142090
1.000000 6.960000 -5.160000 13.249828 -7.004042 224.614548
1.000000 6.960000 -5.120000 -23.018776 -55.283264 3586.103271
1.000000 6.960000 -5.080000 9.767433 -128.964142 16727.152344
1.000000 6.960000 -5.040000 109.944778 -151.635895 35081.300781
1.000000 6.960000 -5.000000 206.833221 -79.894447 49163.101562
1.000000 6.960000 -4.960000 220.482285 49.693893 51081.921875
1.000000 6.960000 -4.920000 135.167053 148.028839 40182.671875
1.000000 6.960000 -4.880000 14.765720 151.458923 23157.832031
1.000000 6.960000 -4.840000 -55.230392 75.619576 8768.716797
1.000000 6.960000 -4.800000 -42.133999 -5.313602 1803.508179
1.000000 7.000000 -5.200000 50.896622 31.367321 3574.375000
1.000000 7.000000 -5.160000 -3.396469 10.100281 113.551674
1.000000 7.000000 -5.120000 -7.976175 -59.905136 3652.244629
1.000000 7.000000 -5.080000 64.716125 -110.636307 16428.570312
1.000000 7.000000 -5.040000 167.720673 -76.540894 33988.734375
1.000000 7.000000 -5.000000 214.190460 39.006233 47399.039062
1.000000 7.000000 -4.960000 155.685318 158.538010 49372.218750
1.000000 7.000000 -4.920000 28.895359 196.326019 39378.847656
1.000000 7.000000 -4.880000 -75.975403 133.457123 23583.064453
1.000000 7.000000 -4.840000 -94.899940 30.371864 9928.449219
1.000000 7.000000 -4.800000 -40.853794 -32.666382 2736.125000
1.000000 7.040000 -5.200000 9.861807 50.223518 2619.656982
1.000000 7.040000 -5.160000 -20.183075 1.942472 411.129700
1.000000 7.040000 -5.120000 13.046076 -56.878429 3405.355957
1.000000 7.040000 -5.080000 95.586464 -61.499756 12918.992188
1.000000 7.040000 -5.040000 159.268097 14.055294 25563.876953
1.000000 7.040000 -5.000000 139.872223 124.455521 35053.414062
1.000000 7.040000 -4.960000 38.233704 187.206039 36507.917969
1.000000 7.040000 -4.920000 -76.421646 154.646851 29755.916016
1.000000 7.040000 -4.880000 -126.293442 55.356514 19014.376953
1.000000 7.040000 -4.840000 -91.047745 -34.385147 9472.029297
1.000000 7.040000 -4.800000 -17.877480 -59.515137 3861.655762
1.000000 7.080000 -5.200000 -20.899370 29.985634 1335.921875
1.000000 7.080000 -5.160000 -17.316538 -15.992174 555.612122
1.000000 7.080000 -5.120000 31.180481 -40.991600 2652.533691
1.000000 7.080000 -5.080000 88.676956 -9.620783 7956.162109
1.000000 7.080000 -5.040000 100.134659 66.757973 14483.577148
1.000000 7.080000 -5.000000 41.837631 131.864258 19138.568359
1.000000 7.080000 -4.960000 -51.977524 130.957031 19851.406250
1.000000 7.080000 -4.920000 -115.225204 59.939705 16869.615234
1.000000 7.080000 -4.880000 -106.282707 -30.358196 12217.633789
1.000000 7.080000 -4.840000 -41.432243 -79.184738 7986.853516
1.000000 7.080000 -4.800000 24.947306 -66.526825 5048.186523
1.000000 7.120000 -5.200000 -18.373108 0.363699 337.703369
1.000000 7.120000 -5.160000 1.361595 -21.655680 470.822418
1.000000 7.120000 -5.120000 36.622398 -17.910156 1661.973755
1.000000 7.120000 -5.080000 57.845291 18.746813 3697.520508
1.000000 7.120000 -5.040000 38.822735 64.871552 5715.522949
1.000000 7.120000 -5.000000 -15.888977 81.347656 6869.900879
1.000000 7.120000 -4.960000 -68.942383 47.412003 7000.950195
1.000000 7.120000 -4.920000 -79.544456 -18.113327 6655.413574
1.000000 7.120000 -4.880000 -38.432381 -70.514618 6449.359375
1.000000 7.120000 -4.840000 24.628359 -76.391617 6442.235352
1.000000 7.120000 -4.800000 67.727676 -39.583988 6153.930176
1.000000 7.160000 -5.200000 4.724536 -8.072779 87.490997
1.000000 7.160000 -5.160000 16.706121 -8.885609 358.048523
1.000000 7.160000 -5.120000 28.764940 0.980546 828.383301
1.000000 7.160000 -5.080000 29.348915 20.405678 1277.750488
1.000000 7.160000 -5.040000 11.148106 35.631443 1393.880005
1.000000 7.160000 -5.000000 -16.863482 29.443714 1151.309326
1.000000 7.160000 -4.960000 -31.938240 -1.252003 1021.618652
1.000000 7.160000 -4.920000 -16.117161 -37.663006 1678.264893
1.000000 7.160000 -4.880000 25.824661 -51.912148 3361.784180
1.000000 7.160000 -4.840000 67.659683 -30.408411 5502.503906
1.000000 7.160000 -4.800000 82.622375 14.312778 7031.312500
1.000000 7.200000 -5.200000 19.483471 7.531097 436.323090
1.000000 7.200000 -5.160000 15.738359 9.660846 341.027893
1.000000 7.200000 -5.120000 15.923052 9.396233 341.832764
1.000000 7.200000 -5.080000 17.119686 12.541677 450.377319
1.000000 7.200000 -5.040000 13.073853 16.474842 442.346008
1.000000 7.200000 -5.000000 5.529338 12.705696 192.008286
1.000000 7.200000 -4.960000 5.858990 -0.640461 34.737949
1.000000 7.200000 -4.920000 22.893438 -11.709490 661.221680
1.000000 7.200000 -4.880000 49.888767 -3.787631 2503.235352
1.000000 7.200000 -4.840000 66.398399 27.432451 5161.287109
1.000000 7.200000 -4.800000 55.481369 66.421028 7489.935547
1.040000 6.800000 -5.200000 -91.364357 15.987256 8603.038086
1.040000 6.800000 -5.160000 -88.775032 -29.760426 8766.689453
1.040000 6.800000 -5.120000 -56.453087 -62.403416 7081.137207
1.040000 6.800000 -5.080000 -14.887444 -65.091270 4458.509277
1.040000 6.800000 -5.040000 11.708349 -44.374851 2106.212891
1.040000 6.800000 -5.000000 16.096306 -21.314079 713.381042
1.040000 6.800000 -4.960000 10.102890 -10.225093 206.620911
1.040000 6.800000 -4.920000 8.009789 -7.814827 125.228241
1.040000 6.800000 -4.880000 10.957695 -2.640385 127.042717
1.040000 6.800000 -4.840000 9.189062 8.194464 151.588104
1.040000 6.800000 -4.800000 -2.457043 15.138308 235.205414
1.040000 6.840000 -5.200000 -70.024185 -50.082695 7411.663086
1.040000 6.840000 -5.160000 -47.838238 -67.912979 6900.669922
1.040000 6.840000 -5.120000 -26.130074 -72.502129 5939.339355
1.040000 6.840000 -5.080000 -10.166584 -72.563850 5368.871582
1.040000 6.840000 -5.040000 5.871754 -73.963440 5505.067871
1.040000 6.840000 -5.000000 28.733910 -70.957336 5860.581055
1.040000 6.840000 -4.960000 53.281170 -52.519657 5597.197266
1.040000 6.840000 -4.920000 63.139347 -18.043945 4312.161133
1.040000 6.840000 -4.880000 46.774216 15.704956 2434.472900
1.040000 6.840000 -4.840000 12.655252 26.811596 879.017090
1.040000 6.840000 -4.800000 -14.355090 9.219751 291.072449
1.040000 6.880000 -5.200000 -6.368067 -75.659447 5764.904297
1.040000 6.880000 -5.160000 2.323784 -63.284073 4010.273682
1.040000 6.880000 -5.120000 -4.274997 -65.260361 4277.189941
1.040000 6.880000 -5.080000 0.496941 -89.009613 7922.958496
1.040000 6.880000 -5.040000 37.435066 -111.023788 13727.665039
1.040000 6.880000 -5.000000 94.397873 -97.262604 18370.972656
1.040000 6.880000 -4.960000 131.256042 -39.203243 18765.042969
1.040000 6.880000 -4.920000 115.824951 31.503639 14407.898438
1.040000 6.880000 -4.880000 56.432915 67.740265 7773.417480
1.040000 6.880000 -4.840000 -2.531618 49.018814 2409.253418
1.040000 6.880000 -4.800000 -19.534447 -0.002689 381.594604
1.040000 6.920000 -5.200000 50.288692 -44.501411 4509.328125
1.040000 6.920000 -5.160000 26.213749 -28.917629 1523.389893
1.040000 6.920000 -5.120000 4.806206 -56.496689 3214.975342
1.040000 6.920000 -5.080000 30.013283 -103.711563 11656.884766
1.040000 6.920000 -5.040000 103.466011 -115.079353 23948.472656
1.040000 6.920000 -5.000000 173.925217 -56.993092 33498.191406
1.040000 6.920000 -4.960000 180.718582 43.945248 34590.390625
1.040000 6.920000 -4.920000 111.291000 119.291794 26616.218750
1.040000 6.920000 -4.880000 15.723782 119.059715 14422.453125
1.040000 6.920000 -4.840000 -37.541466 55.965286 4541.475098
1.040000 6.920000 -4.800000 -21.994057 -9.109425 566.720154
1.040000 6.960000 -5.200000 60.062042 12.920425 3774.386475
1.040000 6.960000 -5.160000 15.979748 1.436918 257.417084
1.040000 6.960000 -5.120000 11.410715 -54.277657 3076.268311
1.040000 6.960000 -5.080000 73.756622 -95.763245 14610.638672
1.040000 6.960000 -5.040000 163.690262 -63.654331 30846.375000
1.040000 6.960000 -5.000000 203.936096 40.867374 43260.070312
1.040000 6.960000 -4.960000 150.064178 148.978912 44713.976562
1.040000 6.960000 -4.920000 34.683987 182.893097 34652.867188
1.040000 6.960000 -4.880000 -59.905411 125.213791 19267.152344
1.040000 6.960000 -4.840000 -74.855911 31.862774 6618.643555
1.040000 6.960000 -4.800000 -22.876564 -22.307035 1020.940979
1.040000 7.000000 -5.200000 25.786850 49.535736 3118.750732
1.040000 7.000000 -5.160000 -6.573919 5.880209 77.793274
1.040000 7.000000 -5.120000 24.495808 -52.033512 3307.531006
1.040000 7.000000 -5.080000 107.549637 -56.620033 14772.752930
1.040000 7.000000 -5.040000 173.068695 21.175934 30401.193359
1.040000 7.000000 -5.000000 153.718643 136.016708 42129.968750
1.040000 7.000000 -4.960000 49.086678 202.648712 43476.000000
1.040000 7.000000 -4.920000 -69.649857 171.156250 34145.562500
1.040000 7.000000 -4.880000 -121.866333 70.893311 19877.265625
1.040000 7.000000 -4.840000 -86.736267 -18.953781 7882.425781
1.040000 7.000000 -4.800000 -14.010262 -41.532429 1921.230103
1.040000 7.040000 -5.200000 -15.044394 43.980240 2160.595215
1.040000 7.040000 -5.160000 -15.268883 -8.803146 310.634155
1.040000 7.040000 -5.120000 39.899803 -39.499241 3152.184326
1.040000 7.040000 -5.080000 108.310379 -3.225662 11741.543945
1.040000 7.040000 -5.040000 123.170670 88.048782 22923.601562
1.040000 7.040000 -5.000000 54.982643 167.485565 31074.505859
1.040000 7.040000 -4.960000 -56.293713 169.754639 31985.619141
1.040000 7.040000 -4.920000 -132.951218 89.744049 25730.019531
1.040000 7.040000 -4.880000 -126.606949 -13.157785 16202.446289
1.040000 7.040000 -4.840000 -56.818871 -68.899414 7975.513672
1.040000 7.040000 -4.800000 13.494341 -55.779572 3293.457764
1.040000 7.080000 -5.200000 -28.497677 14.589307 1024.965454
1.040000 7.080000 -5.160000 -4.443304 -19.809776 412.170197
1.040000 7.080000 -5.120000 45.487579 -17.058821 2360.123291
1.040000 7.080000 -5.080000 76.635361 34.500523 7063.264648
1.040000 7.080000 -5.040000 50.529137 100.669930 12687.627930
1.040000 7.080000 -5.000000 -25.973534 125.944298 16536.589844
1.040000 7.080000 -4.960000 -100.829666 82.349236 16948.017578
1.040000 7.080000 -4.920000 -119.619759 -3.646641 14322.184570
1.040000 7.080000 -4.880000 -71.790527 -73.083679 10495.103516
1.040000 7.080000 -4.840000 3.145867 -84.694618 7183.074707
1.040000 7.080000 -4.800000 53.372326 -45.787712 4945.120117
1.040000 7.120000 -5.200000 -13.359011 -4.784603 201.355591
1.040000 7.120000 -5.160000 10.369125 -13.723780 295.860901
1.040000 7.120000 -5.120000 35.807156 3.388561 1293.634644
1.040000 7.120000 -5.080000 36.954830 40.237194 2984.691162
1.040000 7.120000 -5.040000 2.915756 67.757149 4599.532715
1.040000 7.120000 -5.000000 -46.624794 57.175201 5442.875000
1.040000 7.120000 -4.960000 -73.723663 7.538174 5492.002930
1.040000 7.120000 -4.920000 -53.803009 -49.566242 5351.576172
1.040000 7.120000 -4.880000 2.472332 -74.805000 5601.900391
1.040000 7.120000 -4.840000 58.094769 -53.125130 6197.281250
1.040000 7.120000 -4.800000 80.720039 -3.544471 6528.288086
1.040000 7.160000 -5.200000 5.029787 0.917442 26.140457
1.040000 7.160000 -5.160000 12.480551 2.264348 160.891418
1.040000 7.160000 -5.120000 18.621735 11.137871 470.821167
1.040000 7.160000 -5.080000 14.371899 24.450914 804.398682
1.040000 7.160000 -5.040000 -2.527348 29.543644 879.214417
1.040000 7.160000 -5.000000 -20.042091 15.573853 644.230286
1.040000 7.160000 -4.960000 -19.309719 -12.684921 533.772461
1.040000 7.160000 -4.920000 7.699997 -34.322235 1237.305786
1.040000 7.160000 -4.880000 47.659286 -28.479176 3082.470947
1.040000 7.160000 -4.840000 74.426598 7.067577 5589.269043
1.040000 7.160000 -4.800000 69.842491 52.916107 7678.087891
1.040000 7.200000 -5.200000 4.975663 17.916481 345.757538
1.040000 7.200000 -5.160000 1.252612 11.944461 144.239182
1.040000 7.200000 -5.120000 6.271743 7.505040 95.660385
1.040000 7.200000 -5.080000 12.418202 10.774275 270.296753
1.040000 7.200000 -5.040000 11.960958 16.639690 419.943848
1.040000 7.200000 -5.000000 7.880115 15.996246 317.976105
1.040000 7.200000 -4.960000 11.162018 8.983976 205.302475
1.040000 7.200000 -4.920000 26.775208 7.991228 780.771484
1.040000 7.200000 -4.880000 44.257317 25.376434 2602.673584
1.040000 7.200000 -4.840000 44.839417 58.402222 5421.392578
1.040000 7.200000 -4.800000 19.077625 88.131317 8131.084473
1.080000 6.800000 -5.200000 -71.549255 -29.721231 6002.647461
1.080000 6.800000 -5.160000 -47.120480 -64.230118 6345.847656
1.080000 6.800000 -5.120000 -4.951302 -74.232285 5534.947754
1.080000 6.800000 -5.080000 31.012642 -55.096725 3997.433105
1.080000 6.800000 -5.040000 43.417084 -22.383430 2386.061279
1.080000 6.800000 -5.000000 34.200390 3.093867 1179.238647
1.080000 6.800000 -4.960000 18.512436 12.631214 502.257874
1.080000 6.800000 -4.920000 8.234968 12.520401 224.575134
1.080000 6.800000 -4.880000 3.036963 12.141571 156.640884
1.080000 6.800000 -4.840000 -3.296457 12.531310 167.900360
1.080000 6.800000 -4.800000 -11.253013 7.994608 190.544052
1.080000 6.840000 -5.200000 -27.369213 -67.009537 5239.351562
1.080000 6.840000 -5.160000 -0.494259 -71.877441 5166.610840
1.080000 6.840000 -5.120000 21.773890 -64.443893 4627.117676
1.080000 6.840000 -5.080000 36.478500 -52.382286 4074.584961
1.080000 6.840000 -5.040000 47.321274 -39.332397 3786.340332
1.080000 6.840000 -5.000000 56.039253 -22.264275 3636.095947
1.080000 6.840000 -4.960000 56.965107 1.053307 3246.132812
1.080000 6.840000 -4.920000 42.779411 23.668095 2390.256836
1.080000 6.840000 -4.880000 15.974705 31.881504 1271.621460
1.080000 6.840000 -4.840000 -7.950172 18.437677 403.153168
1.080000 6.840000 -4.800000 -11.944616 -7.156664 193.891693
1.080000 6.880000 -5.200000 28.346825 -57.072109 4060.768066
1.080000 6.880000 -5.160000 32.357258 -45.081676 3079.349609
1.080000 6.880000 -5.120000 31.822433 -46.650974 3188.980713
1.080000 6.880000 -5.080000 45.840912 -56.206917 5260.606445
1.080000 6.880000 -5.040000 77.454529 -51.238167 8624.553711
1.080000 6.880000 -5.000000 104.902725 -16.420788 11274.224609
1.080000 6.880000 -4.960000 100.066811 35.656364 11284.742188
1.080000 6.880000 -4.920000 57.685448 70.875053 8350.884766
1.080000 6.880000 -4.880000 5.067284 63.945198 4114.665527
1.080000 6.880000 -4.840000 -20.048882 23.423485 950.617310
1.080000 6.880000 -4.800000 -3.404606 -14.447458 220.320389
1.080000 6.920000 -5.200000 54.100655 -11.135847 3050.887939
1.080000 6.920000 -5.160000 32.965813 -10.242401 1191.651489
1.080000 6.920000 -5.120000 31.211716 -36.258297 2288.835205
1.080000 6.920000 -5.080000 67.859085 -55.453995 7680.000977
1.080000 6.920000 -5.040000 120.497124 -30.807877 15468.681641
1.080000 6.920000 -5.000000 141.134003 37.661045 21337.160156
1.080000 6.920000 -4.960000 101.647034 106.065750 21582.062500
1.080000 6.920000 -4.920000 24.143003 124.000648 15959.045898
1.080000 6.920000 -4.880000 -35.997757 81.254318 7898.102539
1.080000 6.920000 -4.840000 -39.599205 17.649855 1879.614380
1.080000 6.920000 -4.800000 2.271140 -14.091541 203.729614
1.080000 6.960000 -5.200000 36.622002 32.028309 2366.983643
1.080000 6.960000 -5.160000 12.534561 5.778294 190.503891
1.080000 6.960000 -5.120000 33.627529 -33.439461 2249.008301
1.080000 6.960000 -5.080000 93.746017 -34.670799 9990.379883
1.080000 6.960000 -5.040000 141.199097 25.476612 20586.244141
1.080000 6.960000 -5.000000 124.347748 113.298706 28298.958984
1.080000 6.960000 -4.960000 42.706520 163.384949 28518.488281
1.080000 6.960000 -4.920000 -48.230865 137.433594 21214.208984
1.080000 6.960000 -4.880000 -85.586456 59.578316 10874.617188
1.080000 6.960000 -4.840000 -54.492653 -6.694748 3014.268799
1.080000 6.960000 -4.800000 2.999916 -16.758932 289.861328
1.080000 7.000000 -5.200000 -0.938419 42.419453 1800.290527
1.080000 7.000000 -5.160000 -3.695707 -0.673536 14.111904
1.080000 7.000000 -5.120000 42.594994 -26.695812 2527.000000
1.080000 7.000000 -5.080000 101.894737 5.615422 10414.070312
1.080000 7.000000 -5.040000 114.581635 86.976028 20693.781250
1.080000 7.000000 -5.000000 53.660114 158.210541 27909.984375
1.080000 7.000000 -4.960000 -45.418484 160.960083 27970.986328
1.080000 7.000000 -4.920000 -113.222214 91.065292 21112.156250
1.080000 7.000000 -4.880000 -107.271805 2.374154 11512.876953
1.080000 7.000000 -4.840000 -46.865974 -42.588493 4010.199463
1.080000 7.000000 -4.800000 10.133219 -26.456089 802.606750
1.080000 7.040000 -5.200000 -24.680908 23.162539 1145.650391
1.080000 7.040000 -5.160000 -2.585729 -12.106791 153.260391
1.080000 7.040000 -5.120000 47.927719 -9.610744 2389.432617
1.080000 7.040000 -5.080000 79.848770 44.010765 8312.773438
1.080000 7.040000 -5.040000 52.497677 113.290726 15590.793945
1.080000 7.040000 -5.000000 -27.000860 140.502716 20470.060547
1.080000 7.040000 -4.960000 -104.717972 97.249359 20423.291016
1.080000 7.040000 -4.920000 -125.467117 11.542303 15875.221680
1.080000 7.040000 -4.880000 -80.169159 -56.540817 9623.958008
1.080000 7.040000 -4.840000 -10.267147 -67.075409 4604.524414
1.080000 7.040000 -4.800000 32.784283 -30.383610 1997.972900
1.080000 7.080000 -5.200000 -21.751478 1.167978 474.490967
1.080000 7.080000 -5.160000 7.350479 -11.890353 195.410034
1.080000 7.080000 -5.120000 39.293915 9.749330 1639.061157
1.080000 7.080000 -5.080000 39.572079 56.700943 4780.946289
1.080000 7.080000 -5.040000 -4.435772 90.980164 8297.066406
1.080000 7.080000 -5.000000 -66.481522 77.763672 10466.980469
1.080000 7.080000 -4.960000 -100.438293 18.305981 10422.959961
1.080000 7.080000 -4.920000 -79.516121 -48.420979 8667.404297
1.080000 7.080000 -4.880000 -18.983097 -78.186142 6473.430664
1.080000 7.080000 -4.840000 38.693001 -57.557617 4810.027832
1.080000 7.080000 -4.800000 60.681026 -10.472612 3791.862549
1.080000 7.120000 -5.200000 -7.199363 -2.707444 59.161079
1.080000 7.120000 -5.160000 9.904967 -1.055867 99.223228
1.080000 7.120000 -5.120000 19.914415 17.550257 704.595459
1.080000 7.120000 -5.080000 7.956339 40.559113 1708.344971
1.080000 7.120000 -5.040000 -23.269260 45.353455 2598.394287
1.080000 7.120000 -5.000000 -50.899155 19.857651 2985.050293
1.080000 7.120000 -4.960000 -49.462132 -23.279121 2988.419922
1.080000 7.120000 -4.920000 -13.543755 -54.271141 3128.790039
1.080000 7.120000 -4.880000 35.987411 -50.079613 3803.061279
1.080000 7.120000 -4.840000 68.526932 -12.836224 4860.708984
1.080000 7.120000 -4.800000 67.611290 33.666134 5704.695312
1.080000 7.160000 -5.200000 -2.879107 7.793374 69.025940
1.080000 7.160000 -5.160000 0.438220 6.508511 42.552746
1.080000 7.160000 -5.120000 4.036503 10.107119 118.447205
1.080000 7.160000 -5.080000 1.436642 15.864025 253.731232
1.080000 7.160000 -5.040000 -7.128616 14.960007 274.618958
1.080000 7.160000 -5.000000 -11.570631 2.728638 141.324966
1.080000 7.160000 -4.960000 -0.652275 -13.029633 170.196793
1.080000 7.160000 -4.920000 25.259293 -16.059490 895.939087
1.080000 7.160000 -4.880000 50.886749 4.153887 2606.716064
1.080000 7.160000 -4.840000 56.979317 41.425682 4962.729492
1.080000 7.160000 -4.800000 35.922115 76.190544 7095.397461
1.080000 7.200000 -5.200000 -13.535343 13.741339 372.029907
1.080000 7.200000 -5.160000 -10.664514 1.921028 117.422195
1.080000 7.200000 -5.120000 1.471412 -1.912959 5.824465
1.080000 7.200000 -5.080000 11.571938 5.210108 161.054962
1.080000 7.200000 -5.040000 12.746523 15.155876 392.174438
1.080000 7.200000 -5.000000 9.595842 19.326220 465.582977
1.080000 7.200000 -4.960000 11.510418 19.464157 511.343140
1.080000 7.200000 -4.920000 19.858503 26.044909 1072.697510
1.080000 7.200000 -4.880000 23.821388 45.545849 2641.882812
1.080000 7.200000 -4.840000 10.313217 70.542900 5082.663086
1.080000 7.200000 -4.800000 -21.976202 83.916367 7524.910156
1.120000 6.800000 -5.200000 -34.416069 -44.442162 3159.571533
1.120000 6.800000 -5.160000 -2.398540 -58.371925 3413.034668
1.120000 6.800000 -5.120000 32.483250 -47.312897 3293.671875
1.120000 6.800000 -5.080000 51.030640 -16.795507 2886.215332
1.120000 6.800000 -5.040000 45.572239 15.300992 2310.949219
1.120000 6.800000 -5.000000 24.323805 33.094887 1686.918945
1.120000 6.800000 -4.960000 2.331673 33.400101 1121.003418
1.120000 6.800000 -4.920000 -10.938860 23.922924 691.964905
1.120000 6.800000 -4.880000 -15.651430 13.280447 421.337524
1.120000 6.800000 -4.840000 -15.863144 4.292701 270.066620
1.120000 6.800000 -4.800000 -12.801186 -3.867946 178.831360
1.120000 6.840000 -5.200000 5.339643 -52.053112 2738.038086
1.120000 6.840000 -5.160000 28.062201 -45.627411 2869.347656
1.120000 6.840000 -5.120000 43.235863 -29.305382 2728.145264
1.120000 6.840000 -5.080000 48.307022 -9.900512 2431.588379
1.120000 6.840000 -5.040000 45.161263 7.860697 2101.330322
1.120000 6.840000 -5.000000 35.732040 22.238598 1771.333984
1.120000 6.840000 -4.960000 20.542938 31.108528 1389.752808
1.120000 6.840000 -4.920000 2.100513 30.258507 919.989380
1.120000 6.840000 -4.880000 -12.050964 17.379505 447.272949
1.120000 6.840000 -4.840000 -12.798062 -2.150386 168.414566
1.120000 6.840000 -4.800000 1.993014 -15.702623 250.544495
1.120000 6.880000 -5.200000 35.236031 -27.720123 2009.983154
1.120000 6.880000 -5.160000 37.533707 -18.164204 1738.717529
1.120000 6.880000 -5.120000 40.001816 -14.850931 1820.695435
1.120000 6.880000 -5.080000 49.535423 -10.412441 2562.177002
1.120000 6.880000 -5.040000 60.612251 5.648010 3705.744873
1.120000 6.880000 -5.000000 58.568909 32.541363 4489.257324
1.120000 6.880000 -4.960000 35.448795 54.234901 4198.041504
1.120000 6.880000 -4.920000 2.130783 52.860146 2798.735352
1.120000 6.880000 -4.880000 -18.007523 27.443329 1077.407227
1.120000 6.880000 -4.840000 -9.932706 -1.793850 101.876541
1.120000 6.880000 -4.800000 17.753290 -10.030792 415.796112
1.120000 6.920000 -5.200000 35.650024 6.826449 1317.524658
1.120000 6.920000 -5.160000 26.151344 1.667334 686.672852
1.120000 6.920000 -5.120000 34.796440 -10.662038 1324.471313
1.120000 6.920000 -5.080000 60.424339 -6.703444 3696.036865
1.120000 6.920000 -5.040000 79.093590 25.139566 6887.793945
1.120000 6.920000 -5.000000 65.909317 68.355461 9016.507812
1.120000 6.920000 -4.960000 21.670261 90.126846 8592.449219
1.120000 6.920000 -4.920000 -23.786949 72.022362 5753.039551
1.120000 6.920000 -4.880000 -37.443161 29.289581 2259.869873
1.120000 6.920000 -4.840000 -13.784024 -1.786706 193.191650
1.120000 6.920000 -4.800000 20.163303 2.858358 414.729034
1.120000 6.960000 -5.200000 13.430132 25.396032 825.326904
1.120000 6.960000 -5.160000 10.868790 4.032267 134.389771
1.120000 6.960000 -5.120000 36.617432 -8.903818 1420.114258
1.120000 6.960000 -5.080000 70.461143 12.023989 5109.349121
1.120000 6.960000 -5.040000 76.447807 62.198700 9712.945312
1.120000 6.960000 -5.000000 37.742458 105.737267 12604.862305
1.120000 6.960000 -4.960000 -23.601965 106.632370 11927.514648
1.120000 6.960000 -4.920000 -63.965466 63.047455 8066.562500
1.120000 6.960000 -4.880000 -57.355083 10.272381 3395.127441
1.120000 6.960000 -4.840000 -18.430149 -11.509380 472.136230
1.120000 6.960000 -4.800000 13.098809 6.761471 217.296280
1.120000 7.000000 -5.200000 -8.393542 20.716764 499.635864
1.120000 7.000000 -5.160000 5.785838 -2.261141 38.588680
1.120000 7.000000 -5.120000 40.627010 0.508022 1650.812012
1.120000 7.000000 -5.080000 62.897938 39.795216 5539.809570
1.120000 7.000000 -5.040000 42.728844 90.816147 10073.326172
1.120000 7.000000 -5.000000 -15.334357 111.773613 12728.483398
1.120000 7.000000 -4.960000 -72.253006 81.858322 11921.281250
1.120000 7.000000 -4.920000 -87.935547 21.757139 8206.034180
1.120000 7.000000 -4.880000 -56.668423 -24.371452 3805.277832
1.120000 7.000000 -4.840000 -10.269517 -28.239971 902.958923
1.120000 7.000000 -4.800000 13.080711 -0.018137 171.105347
1.120000 7.040000 -5.200000 -14.386321 6.776732 252.890335
1.120000 7.040000 -5.160000 8.955851 -3.443485 92.064850
1.120000 7.040000 -5.120000 35.205696 15.629580 1483.724854
1.120000 7.040000 -5.080000 34.643112 56.465729 4388.523438
1.120000 7.040000 -5.040000 -3.773863 86.685936 7528.693848
1.120000 7.040000 -5.000000 -57.719421 76.648895 9206.584961
1.120000 7.040000 -4.960000 -88.188568 27.709543 8545.041992
1.120000 7.040000 -4.920000 -73.262756 -27.018219 6097.416016
1.120000 7.040000 -4.880000 -26.828321 -51.074577 3328.371338
1.120000 7.040000 -4.840000 15.374847 -35.148079 1471.773438
1.120000 7.040000 -4.800000 27.758724 -1.130428 771.824646
1.120000 7.080000 -5.200000 -9.073227 0.538014 82.612907
1.120000 7.080000 -5.160000 8.588913 2.852407 81.905647
1.120000 7.080000 -5.120000 17.757473 23.543392 869.619141
1.120000 7.080000 -5.080000 2.999266 47.912121 2304.566895
1.120000 7.080000 -5.040000 -31.302788 52.132465 3697.658447
1.120000 7.080000 -5.000000 -60.737671 25.285824 4328.437500
1.120000 7.080000 -4.960000 -60.626968 -18.208538 4007.180176
1.120000 7.080000 -4.920000 -27.821625 -48.986038 3173.674561
1.120000 7.080000 -4.880000 16.224339 -46.953651 2467.874512
1.120000 7.080000 -4.840000 43.810284 -16.774727 2200.732422
1.120000 7.080000 -4.800000 42.983116 18.868690 2203.575684
1.120000 7.120000 -5.200000 -7.147389 4.112320 67.996353
1.120000 7.120000 -5.160000 -0.680833 6.640013 44.553299
1.120000 7.120000 -5.120000 0.016785 15.529640 241.169998
1.120000 7.120000 -5.080000 -10.013832 21.929169 581.165283
1.120000 7.120000 -5.040000 -24.594004 15.300533 838.971313
1.120000 7.120000 -5.000000 -29.392006 -4.996288 888.852905
1.120000 7.120000 -4.960000 -14.472042 -26.039978 887.520447
1.120000 7.120000 -4.920000 15.340034 -30.593460 1171.276367
1.120000 7.120000 -4.880000 42.600613 -11.419197 1945.210327
1.120000 7.120000 -4.840000 50.465153 22.513323 3053.581299
1.120000 7.120000 -4.800000 34.970375 53.260353 4059.592285
1.120000 7.160000 -5.200000 -14.702072 5.767953 249.420212
1.120000 7.160000 -5.160000 -10.874907 -0.564549 118.582314
1.120000 7.160000 -5.120000 -3.925347 -1.622842 18.041967
1.120000 7.160000 -5.080000 0.287715 1.471203 2.247218
1.120000 7.160000 -5.040000 0.980456 3.149914 10.883251
1.120000 7.160000 -5.000000 3.596361 0.988590 13.911125
1.120000 7.160000 -4.960000 13.132154 0.173833 172.483688
1.120000 7.160000 -4.920000 26.655519 9.268372 796.419434
1.120000 7.160000 -4.880000 33.445602 30.995256 2079.314209
1.120000 7.160000 -4.840000 23.504545 57.346050 3841.033203
1.120000 7.160000 -4.800000 -3.433423 74.342697 5538.625000
1.120000 7.200000 -5.200000 -22.780413 -3.712461 532.729553
1.120000 7.200000 -5.160000 -10.421497 -14.307266 313.305481
1.120000 7.200000 -5.120000 6.697702 -11.844927 185.161514
1.120000 7.200000 -5.080000 16.877821 1.571140 287.329315
1.120000 7.200000 -5.040000 16.158127 16.024401 517.866455
1.120000 7.200000 -5.000000 10.333971 24.485449 706.328186
1.120000 7.200000 -4.960000 6.684559 29.216228 898.271362
1.120000 7.200000 -4.920000 4.908680 37.279091 1413.825684
1.120000 7.200000 -4.880000 -2.758812 50.551872 2563.102783
1.120000 7.200000 -4.840000 -22.457954 61.370937 4270.751465
1.120000 7.200000 -4.800000 -50.476173 58.647797 5987.408203
1.160000 6.800000 -5.200000 -7.367133 -32.109509 1085.295166
1.160000 6.800000 -5.160000 16.982235 -28.796402 1117.629150
1.160000 6.800000 -5.120000 34.674305 -9.161457 1286.239624
1.160000 6.800000 -5.080000 35.365810 17.846054 1569.222290
1.160000 6.800000 -5.040000 18.703041 38.320549 1818.268188
1.160000 6.800000 -5.000000 -5.634068 42.839081 1866.929565
1.160000 6.800000 -4.960000 -25.144331 31.950270 1653.057129
1.160000 6.800000 -4.920000 -32.538689 13.913414 1252.349365
1.160000 6.800000 -4.880000 -28.396523 -2.118865 810.852051
1.160000 6.800000 -4.840000 -17.919464 -11.259514 447.883850
1.160000 6.800000 -4.800000 -6.232638 -13.158387 211.988937
1.160000 6.840000 -5.200000 12.976745 -27.664789 933.736450
1.160000 6.840000 -5.160000 26.650522 -16.358276 977.843506
1.160000 6.840000 -5.120000 31.590288 1.187198 999.355713
1.160000 6.840000 -5.080000 25.732855 18.168892 992.288452
1.160000 6.840000 -5.040000 11.794412 28.325586 941.447021
1.160000 6.840000 -5.000000 -4.617407 28.530828 835.328613
1.160000 6.840000 -4.960000 -17.411106 19.315077 676.218811
1.160000 6.840000 -4.920000 -21.670742 4.424172 489.194366
1.160000 6.840000 -4.880000 -15.221949 -9.844229 328.616547
1.160000 6.840000 -4.840000 -0.357985 -16.398739 269.046783
1.160000 6.840000 -4.800000 15.801498 -10.872723 367.903442
1.160000 6.880000 -5.200000 22.273954 -11.979622 639.640381
1.160000 6.880000 -5.160000 24.976522 -3.758718 637.954590
1.160000 6.880000 -5.120000 25.316883 3.982570 656.805420
1.160000 6.880000 -5.080000 23.866251 12.068811 715.254150
1.160000 6.880000 -5.040000 18.648161 20.496006 767.840210
1.160000 6.880000 -5.000000 8.078571 25.588062 720.012207
1.160000 6.880000 -4.960000 -4.461030 22.169605 511.392181
1.160000 6.880000 -4.920000 -10.643045 9.877447 210.838379
1.160000 6.880000 -4.880000 -3.992399 -3.229177 26.366833
1.160000 6.880000 -4.840000 12.407349 -5.410114 183.211639
1.160000 6.880000 -4.800000 25.879940 8.406981 740.448608
1.160000 6.920000 -5.200000 18.546116 1.924860 347.663483
1.160000 6.920000 -5.160000 18.732319 1.610602 353.493805
1.160000 6.920000 -5.120000 24.326893 2.753428 599.379089
1.160000 6.920000 -5.080000 30.922617 11.795047 1095.331421
1.160000 6.920000 -5.040000 29.139235 27.433098 1601.669800
1.160000 6.920000 -5.000000 14.837710 39.203068 1757.038086
1.160000 6.920000 -4.960000 -4.146399 36.792194 1370.858154
1.160000 6.920000 -4.920000 -13.431234 21.511772 643.154419
1.160000 6.920000 -4.880000 -5.892494 7.338484 88.574829
1.160000 6.920000 -4.840000 9.928896 8.641938 173.266083
1.160000 6.920000 -4.800000 16.462645 25.925724 943.161865
1.160000 6.960000 -5.200000 10.274579 7.150654 156.698822
1.160000 6.960000 -5.160000 15.593345 2.579517 249.806320
1.160000 6.960000 -5.120000 27.645882 6.475723 806.229797
1.160000 6.960000 -5.080000 35.024101 23.504463 1779.147461
1.160000 6.960000 -5.040000 26.156704 45.057507 2714.352051
1.160000 6.960000 -5.000000 2.213871 54.902931 3019.232910
1.160000 6.960000 -4.960000 -21.362282 44.420876 2429.561279
1.160000 6.960000 -4.920000 -28.077915 22.216015 1281.920654
1.160000 6.960000 -4.880000 -16.183483 7.226048 314.120880
1.160000 6.960000 -4.840000 -0.832392 11.051446 122.827339
1.160000 6.960000 -4.800000 0.284076 26.834801 720.187195
1.160000 7.000000 -5.200000 5.175886 7.288873 79.917465
1.160000 7.000000 -5.160000 14.843590 5.988430 256.193451
1.160000 7.000000 -5.120000 25.700932 16.931652 947.218750
1.160000 7.000000 -5.080000 24.572586 37.961067 2044.854614
1.160000 7.000000 -5.040000 5.306441 54.772934 3028.232422
1.160000 7.000000 -5.000000 -22.673668 52.732349 3294.795898
1.160000 7.000000 -4.960000 -40.712685 31.253563 2634.307861
1.160000 7.000000 -4.920000 -37.360573 5.837448 1429.888184
1.160000 7.000000 -4.880000 -18.990725 -5.376378 389.553040
1.160000 7.000000 -4.840000 -3.695877 2.125865 18.178810
1.160000 7.000000 -4.800000 -4.280842 16.080971 276.923218
1.160000 7.040000 -5.200000 2.304412 8.738708 81.675346
1.160000 7.040000 -5.160000 9.618414 12.162870 240.449295
1.160000 7.040000 -5.120000 12.727308 24.556271 764.994812
1.160000 7.040000 -5.080000 3.086430 39.130470 1540.719727
1.160000 7.040000 -5.040000 -17.978188 43.019505 2173.893066
1.160000 7.040000 -5.000000 -37.598862 29.224997 2267.774902
1.160000 7.040000 -4.960000 -41.519585 4.714399 1746.101440
1.160000 7.040000 -4.920000 -26.921883 -14.267042 928.336304
1.160000 7.040000 -4.880000 -5.288250 -15.919252 281.388184
1.160000 7.040000 -4.840000 7.742797 -2.625067 66.841881
1.160000 7.040000 -4.800000 5.720519 12.471111 188.252945
1.160000 7.080000 -5.200000 -4.138566 11.159517 141.662552
1.160000 7.080000 -5.160000 -2.422701 13.238262 181.121063
1.160000 7.080000 -5.120000 -4.026648 18.658834 364.365997
1.160000 7.080000 -5.080000 -12.224038 22.193619 641.983826
1.160000 7.080000 -5.040000 -23.276533 17.115532 834.738403
1.160000 7.080000 -5.000000 -28.029837 2.852196 793.806763
1.160000 7.080000 -4.960000 -19.940952 -12.441795 552.439819
1.160000 7.080000 -4.920000 -1.879667 -17.746498 318.471344
1.160000 7.080000 -4.880000 15.265307 -8.385611 303.348083
1.160000 7.080000 -4.840000 21.116766 10.092151 547.769348
1.160000 7.080000 -4.800000 13.556263 26.778410 900.855530
1.160000 7.120000 -5.200000 -14.755234 7.608648 275.608459
1.160000 7.120000 -5.160000 -13.387403 2.829379 187.227936
1.160000 7.120000 -5.120000 -10.080444 0.848119 102.334663
1.160000 7.120000 -5.080000 -7.979610 0.629223 64.070107
1.160000 7.120000 -5.040000 -6.794562 -0.868111 46.919693
1.160000 7.120000 -5.000000 -3.006767 -4.085651 25.733196
1.160000 7.120000 -4.960000 5.682281 -5.020118 57.489906
1.160000 7.120000 -4.920000 16.449371 1.519415 272.890442
1.160000 7.120000 -4.880000 22.248985 16.551350 768.964478
1.160000 7.120000 -4.840000 17.094143 34.752491 1499.945312
1.160000 7.120000 -4.800000 0.861225 47.618729 2268.284912
1.160000 7.160000 -5.200000 -21.393999 -5.804744 491.398254
1.160000 7.160000 -5.160000 -12.164673 -14.279167 351.873901
1.160000 7.160000 -5.120000 0.835703 -14.284492 204.745117
1.160000 7.160000 -5.080000 10.513424 -6.622348 154.387573
1.160000 7.160000 -5.040000 13.957503 3.381079 206.243591
1.160000 7.160000 -5.000000 13.541052 11.648376 319.044769
1.160000 7.160000 -4.960000 12.700089 18.771187 513.649719
1.160000 7.160000 -4.920000 11.200205 27.900414 903.877625
1.160000 7.160000 -4.880000 4.953204 39.691158 1599.922241
1.160000 7.160000 -4.840000 -9.571288 49.753670 2567.037354
1.160000 7.160000 -4.800000 -30.785469 51.275238 3576.895264
1.160000 7.200000 -5.200000 -15.103262 -22.418747 730.708740
1.160000 7.200000 -5.160000 2.947674 -24.499811 608.929504
1.160000 7.200000 -5.120000 18.765011 -13.259440 527.938416
1.160000 7.200000 -5.080000 23.937721 5.194203 599.994263
1.160000 7.200000 -5.040000 18.123461 21.577595 794.052429
1.160000 7.200000 -5.000000 7.257833 31.082443 1018.794434
1.160000 7.200000 -4.960000 -3.254545 35.457355 1267.816040
1.160000 7.200000 -4.920000 -13.166607 38.554405 1659.801636
1.160000 7.200000 -4.880000 -25.666031 40.728336 2317.542480
1.160000 7.200000 -4.840000 -41.977955 37.963966 3203.411377
1.160000 7.200000 -4.800000 -58.270050 26.125843 4077.958496
1.200000 6.800000 -5.200000 -1.249070 -12.391096 155.099442
1.200000 6.800000 -5.160000 8.073982 -3.880939 80.250870
1.200000 6.800000 -5.120000 10.814696 10.073745 218.437988
1.200000 6.800000 -5.080000 3.541868 24.138550 595.214417
1.200000 6.800000 -5.040000 -12.398045 30.880772 1107.333618
1.200000 6.800000 -5.000000 -29.998869 25.361313 1543.128296
1.200000 6.800000 -4.960000 -40.134769 9.247140 1696.309326
1.200000 6.800000 -4.920000 -37.525452 -9.462118 1497.691162
1.200000 6.800000 -4.880000 -24.334543 -21.580671 1057.895386
1.200000 6.800000 -4.840000 -8.256662 -22.732904 584.957458
1.200000 6.800000 -4.800000 3.267482 -15.339469 245.975739
1.200000 6.840000 -5.200000 3.744571 -14.245677 216.961136
1.200000 6.840000 -5.160000 8.933342 -5.431600 109.306870
1.200000 6.840000 -5.120000 7.169492 5.906586 86.289368
1.200000 6.840000 -5.080000 -2.455966 13.803636 196.572128
1.200000 6.840000 -5.040000 -15.694643 12.844640 411.306580
1.200000 6.840000 -5.000000 -25.021008 2.336679 631.510925
1.200000 6.840000 -4.960000 -24.396729 -12.459894 750.449341
1.200000 6.840000 -4.920000 -13.382620 -23.331409 723.449219
1.200000 6.840000 -4.880000 2.500894 -24.213223 592.534607
1.200000 6.840000 -4.840000 15.317302 -14.690915 450.442719
1.200000 6.840000 -4.800000 19.447264 0.325757 378.302185
1.200000 6.880000 -5.200000 10.411270 -14.610420 321.858948
1.200000 6.880000 -5.160000 13.207018 -6.594254 217.909500
1.200000 6.880000 -5.120000 9.776714 1.051811 96.690453
1.200000 6.880000 -5.080000 2.384349 3.574844 18.464634
1.200000 6.880000 -5.040000 -3.752433 -0.395041 14.236813
1.200000 6.880000 -5.000000 -4.102849 -7.855492 78.542122
1.200000 6.880000 -4.960000 2.296741 -13.475727 186.870239
1.200000 6.880000 -4.920000 12.449821 -12.779118 318.303894
1.200000 6.880000 -4.880000 21.141943 -4.391889 466.270447
1.200000 6.880000 -4.840000 23.361565 9.370865 633.575806
1.200000 6.880000 -4.800000 16.548841 23.342419 818.732666
1.200000 6.920000 -5.200000 18.823589 -10.767696 470.270813
1.200000 6.920000 -5.160000 19.878281 -2.687937 402.371033
1.200000 6.920000 -5.120000 16.387083 2.526648 274.920441
1.200000 6.920000 -5.080000 12.709208 3.242553 172.038101
1.200000 6.920000 -5.040000 12.211976 1.880748 152.669571
1.200000 6.920000 -5.000000 14.846933 2.070897 224.720047
1.200000 6.920000 -4.960000 18.134712 5.725503 361.649200
1.200000 6.920000 -4.920000 19.493341 12.543505 537.329834
1.200000 6.920000 -4.880000 17.179314 21.179789 743.712280
1.200000 6.920000 -4.840000 9.906923 29.674652 978.732117
1.200000 6.920000 -4.800000 -2.767567 34.808189 1219.269531
1.200000 6.960000 -5.200000 24.821321 -0.053982 616.100952
1.200000 6.960000 -5.160000 22.559538 8.212254 576.373840
1.200000 6.960000 -5.120000 18.379780 11.699913 474.704285
1.200000 6.960000 -5.080000 16.635624 12.578074 434.951904
1.200000 6.960000 -5.040000 17.240269 15.025305 522.986633
1.200000 6.960000 -5.000000 16.742367 20.484241 699.911011
1.200000 6.960000 -4.960000 12.579288 26.703157 871.297058
1.200000 6.960000 -4.920000 5.357512 30.797749 977.204285
1.200000 6.960000 -4.880000 -2.923503 32.062096 1036.524902
1.200000 6.960000 -4.840000 -11.637278 31.138367 1105.024170
1.200000 6.960000 -4.800000 -21.244354 27.336168 1198.588745
1.200000 7.000000 -5.200000 21.679871 14.848635 690.498718
1.200000 7.000000 -5.160000 14.720970 20.402794 632.980957
1.200000 7.000000 -5.120000 9.618603 20.465675 511.361389
1.200000 7.000000 -5.080000 8.667591 20.345451 489.064514
1.200000 7.000000 -5.040000 8.401794 23.832651 638.585388
1.200000 7.000000 -5.000000 4.252126 29.307907 877.033997
1.200000 7.000000 -4.960000 -4.236506 32.058365 1045.686768
1.200000 7.000000 -4.920000 -13.296276 29.572317 1051.312866
1.200000 7.000000 -4.880000 -19.325666 23.677662 934.113037
1.200000 7.000000 -4.840000 -22.318783 17.556969 806.375244
1.200000 7.000000 -4.800000 -24.378387 11.819366 734.003174
1.200000 7.040000 -5.200000 6.904066 24.791765 662.297791
1.200000 7.040000 -5.160000 -2.266692 23.325775 549.229675
1.200000 7.040000 -5.120000 -5.270237 18.129856 356.467072
1.200000 7.040000 -5.080000 -3.292998 16.044100 268.256989
1.200000 7.040000 -5.040000 -2.301653 18.999685 366.285645
1.200000 7.040000 -5.000000 -6.347984 22.843985 562.144531
1.200000 7.040000 -4.960000 -13.613269 22.383801 686.355591
1.200000 7.040000 -4.920000 -18.900339 16.869026 641.786865
1.200000 7.040000 -4.880000 -19.297928 10.233051 477.125366
1.200000 7.040000 -4.840000 -16.678047 6.439295 319.621765
1.200000 7.040000 -4.800000 -14.772545 5.533932 248.852493
1.200000 7.080000 -5.200000 -12.552240 20.580641 581.121521
1.200000 7.080000 -5.160000 -17.330784 11.210265 426.026123
1.200000 7.080000 -5.120000 -13.279701 3.023152 185.489914
1.200000 7.080000 -5.080000 -5.590319 2.019130 35.328548
1.200000 7.080000 -5.040000 -1.465151 7.196911 53.942192
1.200000 7.080000 -5.000000 -3.533761 12.561648 170.282471
1.200000 7.080000 -4.960000 -8.329957 13.421182 249.516296
1.200000 7.080000 -4.920000 -10.723960 10.546677 226.235718
1.200000 7.080000 -4.880000 -9.303086 8.417801 157.406799
1.200000 7.080000 -4.840000 -7.284536 10.016897 153.402695
1.200000 7.080000 -4.800000 -8.601007 13.827431 265.175171
1.200000 7.120000 -5.200000 -23.391104 2.050292 551.347412
1.200000 7.120000 -5.160000 -17.915407 -9.537107 411.918213
1.200000 7.120000 -5.120000 -5.325606 -13.633255 214.227722
1.200000 7.120000 -5.080000 6.312015 -7.795818 100.616318
1.200000 7.120000 -5.040000 10.579956 3.439528 123.765823
1.200000 7.120000 -5.000000 7.224782 13.079712 223.276337
1.200000 7.120000 -4.960000 0.952479 17.495298 306.992706
1.200000 7.120000 -4.920000 -3.729683 18.367702 351.283020
1.200000 7.120000 -4.880000 -6.459255 19.533726 423.288422
1.200000 7.120000 -4.840000 -10.327055 22.429361 609.724304
1.200000 7.120000 -4.800000 -17.860039 24.558130 922.082764
1.200000 7.160000 -5.200000 -16.481955 -19.313810 644.678101
1.200000 7.160000 -5.160000 -1.705107 -23.753960 567.158020
1.200000 7.160000 -5.120000 13.639914 -17.114616 478.957336
1.200000 7.160000 -5.080000 21.808901 -2.175303 480.360077
1.200000 7.160000 -5.040000 19.838120 14.004441 589.675354
1.200000 7.160000 -5.000000 10.511178 25.278570 749.490967
1.200000 7.160000 -4.960000 -0.892967 29.931349 896.682983
1.200000 7.160000 -4.920000 -10.824089 30.162506 1026.937744
1.200000 7.160000 -4.880000 -19.180769 28.773170 1195.797241
1.200000 7.160000 -4.840000 -27.702227 26.331875 1460.781006
1.200000 7.160000 -4.800000 -37.051117 21.051655 1815.957520
1.200000 7.200000 -5.200000 4.422904 -28.343548 822.918762
1.200000 7.200000 -5.160000 19.739777 -20.088015 793.187134
1.200000 7.200000 -5.120000 27.785896 -3.418326 783.740967
1.200000 7.200000 -5.080000 25.242380 14.989088 861.850464
1.200000 7.200000 -5.040000 14.081891 28.827948 1029.350220
1.200000 7.200000 -5.000000 -0.997190 35.281876 1245.805176
1.200000 7.200000 -4.960000 -15.828989 34.939926 1471.355347
1.200000 7.200000 -4.920000 -28.266308 29.835501 1689.141235
1.200000 7.200000 -4.880000 -37.787117 21.751532 1900.995361
1.200000 7.200000 -4.840000 -44.462807 11.668375 2113.092041
1.200000 7.200000 -4.800000 -48.210106 -0.045457 2324.216309
