#kx 	ky 	kz 	real 	imag 	intensity
3.800000 1.800000 -4.200000 -20.265261 -8.119982 476.614899
3.800000 1.800000 -4.160000 -5.047488 -21.183876 474.233734
3.800000 1.800000 -4.120000 12.726709 -14.191376 363.364258
3.800000 1.800000 -4.080000 14.334269 4.276092 223.756210
3.800000 1.800000 -4.040000 -1.474925 14.057041 199.775803
3.800000 1.800000 -4.000000 -17.924515 4.799955 344.327820
3.800000 1.800000 -3.960000 -18.545315 -13.899471 537.124023
3.800000 1.800000 -3.920000 -4.077533 -23.826351 584.321289
3.800000 1.800000 -3.880000 9.895172 -17.676525 410.373962
3.800000 1.800000 -3.840000 10.758003 -5.429669 145.215942
3.800000 1.800000 -3.800000 1.896252 -1.666468 6.372885
3.800000 1.840000 -4.200000 -9.393191 -22.312809 586.093506
3.800000 1.840000 -4.160000 9.731735 -26.608923 802.741455
3.800000 1.840000 -4.120000 23.077694 -14.620502 746.339050
3.800000 1.840000 -4.080000 20.811203 0.747363 433.664734
3.800000 1.840000 -4.040000 8.740691 5.578537 107.519760
3.800000 1.840000 -4.000000 0.542651 -1.715641 3.237895
3.800000 1.840000 -3.960000 3.266053 -10.986582 131.372086
3.800000 1.840000 -3.920000 11.728519 -12.620397 296.832581
3.800000 1.840000 -3.880000 16.387356 -7.166849 319.909180
3.800000 1.840000 -3.840000 14.489527 -2.495364 216.173218
3.800000 1.840000 -3.800000 11.806339 -3.273067 150.102615
3.800000 1.880000 -4.200000 6.408759 -22.870590 564.136108
3.800000 1.880000 -4.160000 23.577179 -19.474792 935.150879
3.800000 1.880000 -4.120000 32.186115 -5.963048 1071.504028
3.800000 1.880000 -4.080000 29.177723 7.228731 903.594116
3.800000 1.880000 -4.040000 20.347710 12.793395 577.700256
3.800000 1.880000 -4.000000 13.237926 11.172285 300.062622
3.800000 1.880000 -3.960000 10.822577 7.225917 169.342041
3.800000 1.880000 -3.920000 11.517751 4.441917 152.389221
3.800000 1.880000 -3.880000 13.310819 3.140742 187.042145
3.800000 1.880000 -3.840000 16.004368 3.030383 265.323029
3.800000 1.880000 -3.800000 19.396477 5.321766 404.544495
3.800000 1.920000 -4.200000 15.033743 -12.909466 392.667725
3.800000 1.920000 -4.160000 27.852884 -5.434309 805.314880
3.800000 1.920000 -4.120000 32.866138 8.299107 1149.058228
3.800000 1.920000 -4.080000 28.567802 21.507278 1278.682373
3.800000 1.920000 -4.040000 18.002892 28.762138 1151.364746
3.800000 1.920000 -4.000000 6.475592 27.985790 825.137756
3.800000 1.920000 -3.960000 -0.762390 20.764380 431.740692
3.800000 1.920000 -3.920000 -0.620109 11.741764 138.253555
3.800000 1.920000 -3.880000 6.009326 6.743025 81.580391
3.800000 1.920000 -3.840000 13.988779 9.437604 284.754303
3.800000 1.920000 -3.800000 16.784143 18.334658 617.867126
3.800000 1.960000 -4.200000 13.078604 -2.702157 178.351532
3.800000 1.960000 -4.160000 21.780354 6.457979 516.089294
3.800000 1.960000 -4.120000 22.832676 20.228333 930.516541
3.800000 1.960000 -4.080000 14.429277 32.226868 1246.775146
3.800000 1.960000 -4.040000 -0.058650 35.971802 1293.973999
3.800000 1.960000 -4.000000 -12.974710 29.090067 1014.575073
3.800000 1.960000 -3.960000 -16.827412 15.924123 536.739441
3.800000 1.960000 -3.920000 -9.897769 5.502939 128.248169
3.800000 1.960000 -3.880000 1.676839 5.151742 29.352240
3.800000 1.960000 -3.840000 8.151367 14.552279 278.213593
3.800000 1.960000 -3.800000 3.889023 25.709627 676.109436
3.800000 2.000000 -4.200000 6.250078 0.951164 39.968189
3.800000 2.000000 -4.160000 10.660751 10.904467 232.559021
3.800000 2.000000 -4.120000 6.311506 22.460714 544.318787
3.800000 2.000000 -4.080000 -5.879569 28.116365 825.099365
3.800000 2.000000 -4.040000 -18.949993 23.286465 901.361694
3.800000 2.000000 -4.000000 -24.332443 10.626641 704.993286
3.800000 2.000000 -3.960000 -18.578449 -1.061916 346.286438
3.800000 2.000000 -3.920000 -6.681782 -3.403881 56.232609
3.800000 2.000000 -3.880000 1.542232 4.693975 24.411880
3.800000 2.000000 -3.840000 -0.596356 16.035404 257.489838
3.800000 2.000000 -3.800000 -11.270653 21.215034 577.105286
3.800000 2.040000 -4.200000 1.226954 -0.663220 1.945277
3.800000 2.040000 -4.160000 0.120742 8.048794 64.797661
3.800000 2.040000 -4.120000 -8.351991 12.616380 228.928772
3.800000 2.040000 -4.080000 -17.821156 8.283868 386.216064
3.800000 2.040000 -4.040000 -20.363585 -2.331273 420.110413
3.800000 2.040000 -4.000000 -13.470902 -10.986170 302.161133
3.800000 2.040000 -3.960000 -2.516798 -10.724183 121.342377
3.800000 2.040000 -3.920000 3.685630 -1.866312 17.066986
3.800000 2.040000 -3.880000 0.305430 8.364326 70.055229
3.800000 2.040000 -3.840000 -9.766880 12.110149 242.047668
3.800000 2.040000 -3.800000 -18.987965 7.224435 412.735229
3.800000 2.080000 -4.200000 -0.980575 -2.855682 9.116446
3.800000 2.080000 -4.160000 -7.011101 0.275494 49.231430
3.800000 2.080000 -4.120000 -13.281803 -5.307245 204.573151
3.800000 2.080000 -4.080000 -11.214005 -15.726676 373.082275
3.800000 2.080000 -4.040000 0.253465 -21.012577 441.592621
3.800000 2.080000 -4.000000 12.739070 -14.693799 378.191650
3.800000 2.080000 -3.960000 15.910999 -0.407528 253.325974
3.800000 2.080000 -3.920000 7.012077 11.147732 173.441147
3.800000 2.080000 -3.880000 -6.864830 11.849141 187.528030
3.800000 2.080000 -3.840000 -15.656446 2.876564 253.398941
3.800000 2.080000 -3.800000 -15.163806 -7.651173 288.481445
3.800000 2.120000 -4.200000 -3.475644 -4.437406 31.770672
3.800000 2.120000 -4.160000 -9.438369 -10.569284 200.792572
3.800000 2.120000 -4.120000 -5.285855 -22.915310 553.051697
3.800000 2.120000 -4.080000 11.255352 -28.357803 930.848022
3.800000 2.120000 -4.040000 28.921852 -17.419807 1139.923218
3.800000 2.120000 -4.000000 32.571209 4.998156 1085.865234
3.800000 2.120000 -3.960000 17.795975 22.804470 836.740601
3.800000 2.120000 -3.920000 -4.393569 23.212181 558.108826
3.800000 2.120000 -3.880000 -17.674374 8.111898 378.186371
3.800000 2.120000 -3.840000 -15.024299 -8.784545 302.897766
3.800000 2.120000 -3.800000 -3.422282 -15.461199 250.760696
3.800000 2.160000 -4.200000 -7.160070 -8.492241 123.384758
3.800000 2.160000 -4.160000 -5.527227 -22.386152 531.690063
3.800000 2.160000 -4.120000 12.336088 -31.764103 1161.137329
3.800000 2.160000 -4.080000 35.937531 -21.852802 1769.051025
3.800000 2.160000 -4.040000 45.238907 6.021679 2082.819336
3.800000 2.160000 -4.000000 29.676804 32.997917 1969.575195
3.800000 2.160000 -3.960000 -0.609311 39.011284 1522.251465
3.800000 2.160000 -3.920000 -23.275074 21.108147 987.282959
3.800000 2.160000 -3.880000 -23.802526 -4.463806 586.485779
3.800000 2.160000 -3.840000 -7.292308 -18.067299 379.605042
3.800000 2.160000 -3.800000 8.920063 -14.049450 276.954559
3.800000 2.200000 -4.200000 -8.168690 -16.892597 352.087341
3.800000 2.200000 -4.160000 5.473886 -31.055363 994.398987
3.800000 2.200000 -4.120000 31.442442 -27.858320 1764.713135
3.800000 2.200000 -4.080000 48.724487 -1.526620 2376.406250
3.800000 2.200000 -4.040000 39.567001 32.080814 2594.726318
3.800000 2.200000 -4.000000 7.411104 47.999031 2358.831543
3.800000 2.200000 -3.960000 -24.677189 34.618423 1807.398926
3.800000 2.200000 -3.920000 -34.249138 4.156807 1190.282471
3.800000 2.200000 -3.880000 -18.765734 -19.120590 717.749756
3.800000 2.200000 -3.840000 4.534945 -20.772892 452.078766
3.800000 2.200000 -3.800000 16.535225 -6.687008 318.129730
3.840000 1.800000 -4.200000 6.432207 -11.323843 169.602692
3.840000 1.800000 -4.160000 18.178806 -5.622625 362.082916
3.840000 1.800000 -4.120000 18.100719 9.050087 409.540131
3.840000 1.800000 -4.080000 4.029255 16.845833 300.016968
3.840000 1.800000 -4.040000 -10.611828 8.561146 185.904114
3.840000 1.800000 -4.000000 -11.391338 -8.024023 194.147537
3.840000 1.800000 -3.960000 1.398209 -16.629274 278.487762
3.840000 1.800000 -3.920000 13.409615 -10.262526 285.137207
3.840000 1.800000 -3.880000 12.323783 1.589487 154.402100
3.840000 1.800000 -3.840000 1.275921 4.074621 18.230511
3.840000 1.800000 -3.800000 -5.205972 -6.254653 66.222824
3.840000 1.840000 -4.200000 13.228496 -8.224533 242.636047
3.840000 1.840000 -4.160000 25.049154 -2.351383 632.989136
3.840000 1.840000 -4.120000 28.283121 11.017529 921.320862
3.840000 1.840000 -4.080000 21.145679 22.137184 937.194702
3.840000 1.840000 -4.040000 9.904800 25.056320 725.924194
3.840000 1.840000 -4.000000 1.344475 21.381943 458.995087
3.840000 1.840000 -3.960000 -2.955917 15.830093 259.329315
3.840000 1.840000 -3.920000 -5.025997 10.355385 132.494629
3.840000 1.840000 -3.880000 -5.378129 3.900455 44.137825
3.840000 1.840000 -3.840000 -1.721745 -3.144578 12.852776
3.840000 1.840000 -3.800000 6.833112 -6.683759 91.364052
3.840000 1.880000 -4.200000 13.926016 -0.994801 194.923538
3.840000 1.880000 -4.160000 28.846054 7.043242 881.702087
3.840000 1.880000 -4.120000 34.899914 27.018513 1948.004028
3.840000 1.880000 -4.080000 24.464518 48.927773 2992.439697
3.840000 1.880000 -4.040000 -0.073559 59.584801 3550.353760
3.840000 1.880000 -4.000000 -26.913044 51.341171 3360.227783
3.840000 1.880000 -3.960000 -41.934017 27.554478 2517.710938
3.840000 1.880000 -3.920000 -37.735027 0.949657 1424.834106
3.840000 1.880000 -3.880000 -18.475769 -14.477463 550.950928
3.840000 1.880000 -3.840000 3.092319 -12.484589 165.427399
3.840000 1.880000 -3.800000 14.490534 1.832191 213.332489
3.840000 1.920000 -4.200000 8.437804 2.823845 79.170639
3.840000 1.920000 -4.160000 25.241947 18.394850 975.526367
3.840000 1.920000 -4.120000 24.747694 48.743343 2988.361816
3.840000 1.920000 -4.080000 -2.425282 74.537277 5561.687500
3.840000 1.920000 -4.040000 -45.615177 73.952576 7549.727539
3.840000 1.920000 -4.000000 -78.871338 41.176575 7916.198242
3.840000 1.920000 -3.960000 -80.132004 -6.278427 6460.556641
3.840000 1.920000 -3.920000 -49.145645 -39.542389 3978.895020
3.840000 1.920000 -3.880000 -8.087986 -40.547253 1709.495239
3.840000 1.920000 -3.840000 16.268913 -15.298087 498.709015
3.840000 1.920000 -3.800000 13.254004 13.059151 346.210022
3.840000 1.960000 -4.200000 3.244776 0.080065 10.534984
3.840000 1.960000 -4.160000 14.577168 25.781881 877.199219
3.840000 1.960000 -4.120000 -2.771693 58.997223 3488.354736
3.840000 1.960000 -4.080000 -48.071709 70.607521 7296.311035
3.840000 1.960000 -4.040000 -94.307159 41.881493 10647.899414
3.840000 1.960000 -4.000000 -107.387192 -15.875040 11784.025391
3.840000 1.960000 -3.960000 -74.960175 -66.806351 10082.116211
3.840000 1.960000 -3.920000 -18.390902 -78.647827 6523.706055
3.840000 1.960000 -3.880000 24.255405 -48.853973 2975.035400
3.840000 1.960000 -3.840000 29.253765 -4.999566 880.778442
3.840000 1.960000 -3.800000 4.255513 20.254929 428.371552
3.840000 2.000000 -4.200000 3.594413 -4.837701 36.323151
3.840000 2.000000 -4.160000 1.074875 25.491978 650.996277
3.840000 2.000000 -4.120000 -33.145832 46.277218 3240.227051
3.840000 2.000000 -4.080000 -80.420631 30.290819 7385.011719
3.840000 2.000000 -4.040000 -103.851364 -22.984608 11313.397461
3.840000 2.000000 -4.000000 -79.430466 -81.543900 12958.606445
3.840000 2.000000 -3.960000 -19.126072 -105.135162 11419.208984
3.840000 2.000000 -3.920000 37.090363 -79.005554 7617.572266
3.840000 2.000000 -3.880000 54.171356 -25.923893 3606.583984
3.840000 2.000000 -3.840000 29.806988 14.557714 1100.383545
3.840000 2.000000 -3.800000 -7.789638 19.621447 445.679626
3.840000 2.040000 -4.200000 7.538735 -5.683653 89.136444
3.840000 2.040000 -4.160000 -10.100668 17.487341 407.830597
3.840000 2.040000 -4.120000 -47.665356 15.070005 2499.091064
3.840000 2.040000 -4.080000 -74.298904 -23.407776 6068.250977
3.840000 2.040000 -4.040000 -61.117886 -76.442070 9578.786133
3.840000 2.040000 -4.000000 -8.927234 -105.327415 11173.559570
3.840000 2.040000 -3.960000 49.175346 -86.983498 9984.343750
3.840000 2.040000 -3.920000 74.625648 -34.467136 6756.970703
3.840000 2.040000 -3.880000 55.339233 14.401360 3269.829834
3.840000 2.040000 -3.840000 13.358820 29.428932 1044.520142
3.840000 2.040000 -3.800000 -17.340729 10.980388 421.269775
3.840000 2.080000 -4.200000 8.643126 -2.024596 78.802612
3.840000 2.080000 -4.160000 -15.118094 4.487915 248.698166
3.840000 2.080000 -4.120000 -37.931843 -17.325264 1738.989502
3.840000 2.080000 -4.080000 -33.220089 -56.455078 4290.750000
3.840000 2.080000 -4.040000 5.250298 -82.080101 6764.708496
3.840000 2.080000 -4.000000 54.328857 -69.947510 7844.279297
3.840000 2.080000 -3.960000 79.642685 -24.896133 6962.774414
3.840000 2.080000 -3.920000 64.786011 22.350559 4696.774414
3.840000 2.080000 -3.880000 24.369833 41.369560 2305.329346
3.840000 2.080000 -3.840000 -10.602148 26.442934 811.634277
3.840000 2.080000 -3.800000 -19.756393 -2.748115 397.867218
3.840000 2.120000 -4.200000 4.089704 0.119760 16.740019
3.840000 2.120000 -4.160000 -12.188721 -9.376570 236.484970
3.840000 2.120000 -4.120000 -11.400743 -34.074162 1291.025391
3.840000 2.120000 -4.080000 14.591156 -51.764038 2892.417480
3.840000 2.120000 -4.040000 50.411064 -41.864784 4293.935547
3.840000 2.120000 -4.000000 68.812363 -5.543844 4765.875488
3.840000 2.120000 -3.960000 54.559158 33.526104 4100.701172
3.840000 2.120000 -3.920000 17.907223 49.180996 2739.438965
3.840000 2.120000 -3.880000 -14.981882 34.531666 1416.892700
3.840000 2.120000 -3.840000 -24.707806 5.393058 639.560730
3.840000 2.120000 -3.800000 -12.675251 -16.128443 420.788666
3.840000 2.160000 -4.200000 -1.355836 -4.556686 22.601679
3.840000 2.160000 -4.160000 -1.896357 -19.460510 382.307617
3.840000 2.160000 -4.120000 15.814228 -30.263500 1165.969238
3.840000 2.160000 -4.080000 40.787807 -20.567261 2086.657471
3.840000 2.160000 -4.040000 51.482708 9.165188 2734.469971
3.840000 2.160000 -4.000000 35.487705 39.630547 2829.957520
3.840000 2.160000 -3.960000 1.749065 48.879509 2392.265625
3.840000 2.160000 -3.920000 -26.770832 31.361423 1700.216309
3.840000 2.160000 -3.880000 -32.830463 1.717372 1080.788696
3.840000 2.160000 -3.840000 -17.992809 -19.384609 699.504272
3.840000 2.160000 -3.800000 2.254850 -22.615623 516.550781
3.840000 2.200000 -4.200000 -0.262238 -13.887321 192.926468
3.840000 2.200000 -4.160000 12.367126 -21.851021 630.412903
3.840000 2.200000 -4.120000 31.226463 -13.611331 1160.360352
3.840000 2.200000 -4.080000 38.257404 11.183842 1588.707397
3.840000 2.200000 -4.040000 22.304256 36.152523 1804.484741
3.840000 2.200000 -4.000000 -8.964548 41.597260 1810.695190
3.840000 2.200000 -3.960000 -34.410667 22.161970 1675.246948
3.840000 2.200000 -3.920000 -37.380730 -8.303139 1466.261108
3.840000 2.200000 -3.880000 -19.104946 -29.207241 1218.061890
3.840000 2.200000 -3.840000 4.617620 -30.385721 944.614441
3.840000 2.200000 -3.800000 18.692474 -17.833031 667.425598
3.880000 1.800000 -4.200000 26.471022 12.740562 863.036865
3.880000 1.800000 -4.160000 19.711227 27.816629 1162.297363
3.880000 1.800000 -4.120000 0.419821 32.856865 1079.749878
3.880000 1.800000 -4.080000 -16.742050 20.055492 682.519043
3.880000 1.800000 -4.040000 -16.863228 -0.864834 285.116364
3.880000 1.800000 -4.000000 -1.194748 -11.452042 132.576691
3.880000 1.800000 -3.960000 13.281067 -3.788898 190.742493
3.880000 1.800000 -3.920000 11.563148 10.920406 252.961670
3.880000 1.800000 -3.880000 -3.371021 14.267159 214.915604
3.880000 1.800000 -3.840000 -13.808803 0.466777 190.900909
3.880000 1.800000 -3.800000 -6.423247 -17.410904 344.397705
3.880000 1.840000 -4.200000 14.341907 22.367535 705.996887
3.880000 1.840000 -4.160000 13.845282 29.354500 1053.378418
3.880000 1.840000 -4.120000 8.369396 36.950325 1435.373291
3.880000 1.840000 -4.080000 -1.542149 41.653297 1737.375366
3.880000 1.840000 -4.040000 -13.861038 41.509506 1915.167480
3.880000 1.840000 -4.000000 -26.405689 35.388260 1949.589355
3.880000 1.840000 -3.960000 -35.928974 22.510246 1797.602417
3.880000 1.840000 -3.920000 -37.623421 4.502064 1435.790283
3.880000 1.840000 -3.880000 -28.036934 -12.538907 943.293823
3.880000 1.840000 -3.840000 -9.684429 -20.234299 503.215027
3.880000 1.840000 -3.800000 8.286185 -14.378807 275.410950
3.880000 1.880000 -4.200000 -1.664545 19.690191 390.474365
3.880000 1.880000 -4.160000 9.341115 31.591412 1085.273682
3.880000 1.880000 -4.120000 5.510864 56.915916 3269.791260
3.880000 1.880000 -4.080000 -22.919418 77.752922 6570.816895
3.880000 1.880000 -4.040000 -66.257744 72.772537 9685.930664
3.880000 1.880000 -4.000000 -99.164078 35.711525 11108.828125
3.880000 1.880000 -3.960000 -99.169518 -16.529289 10107.810547
3.880000 1.880000 -3.920000 -64.944221 -54.798279 7220.603516
3.880000 1.880000 -3.880000 -18.116302 -59.486099 3866.796387
3.880000 1.880000 -3.840000 13.498493 -34.794872 1392.892456
3.880000 1.880000 -3.800000 16.874081 -3.386114 296.200348
3.880000 1.920000 -4.200000 -9.772408 5.814175 129.304565
3.880000 1.920000 -4.160000 2.590410 34.867535 1222.455200
3.880000 1.920000 -4.120000 -21.404636 74.096191 5948.404297
3.880000 1.920000 -4.080000 -81.452469 84.660950 13801.981445
3.880000 1.920000 -4.040000 -141.337646 41.479034 21696.839844
3.880000 1.920000 -4.000000 -155.280579 -39.758091 25692.763672
3.880000 1.920000 -3.960000 -107.212837 -110.327957 23666.851562
3.880000 1.920000 -3.920000 -26.603737 -126.883186 16807.101562
3.880000 1.920000 -3.880000 35.053123 -86.441208 8700.803711
3.880000 1.920000 -3.840000 46.049904 -26.226252 2808.410156
3.880000 1.920000 -3.800000 16.662697 10.251876 382.746429
3.880000 1.960000 -4.200000 -3.995159 -8.320118 85.185661
3.880000 1.960000 -4.160000 -8.246225 35.458206 1325.284668
3.880000 1.960000 -4.120000 -62.030388 65.265656 8107.375000
3.880000 1.960000 -4.080000 -136.606964 36.750500 20012.062500
3.880000 1.960000 -4.040000 -172.516281 -51.809624 32446.103516
3.880000 1.960000 -4.000000 -130.329514 -148.900192 39157.046875
3.880000 1.960000 -3.960000 -28.962988 -188.869843 36510.671875
3.880000 1.960000 -3.920000 66.715584 -147.118561 26094.839844
3.880000 1.960000 -3.880000 99.398163 -60.052528 13486.300781
3.880000 1.960000 -3.840000 64.668282 8.447227 4253.342285
3.880000 1.960000 -3.800000 7.490274 21.341732 511.573730
3.880000 2.000000 -4.200000 9.740515 -11.447561 225.924286
3.880000 2.000000 -4.160000 -20.391468 29.162149 1266.242920
3.880000 2.000000 -4.120000 -89.108154 25.912159 8611.703125
3.880000 2.000000 -4.080000 -141.523438 -44.942760 22048.734375
3.880000 2.000000 -4.040000 -121.013275 -147.691345 36456.945312
3.880000 2.000000 -4.000000 -23.500942 -209.809509 44572.324219
3.880000 2.000000 -3.960000 92.147949 -182.959244 41965.328125
3.880000 2.000000 -3.920000 151.182983 -85.911133 30237.017578
3.880000 2.000000 -3.880000 124.952286 11.822023 15752.833008
3.880000 2.000000 -3.840000 50.407597 49.960815 5037.008789
3.880000 2.000000 -3.800000 -8.476068 24.297379 662.206360
3.880000 2.040000 -4.200000 18.842529 -2.481494 361.198730
3.880000 2.040000 -4.160000 -27.988102 15.603489 1026.802734
3.880000 2.040000 -4.120000 -82.263878 -23.443867 7316.960449
3.880000 2.040000 -4.080000 -86.252373 -108.211937 19149.294922
3.880000 2.040000 -4.040000 -14.320433 -178.371292 32021.392578
3.880000 2.040000 -4.000000 96.292328 -173.677185 39435.976562
3.880000 2.040000 -3.960000 171.749481 -88.628532 37352.902344
3.880000 2.040000 -3.920000 163.401917 20.011913 27100.662109
3.880000 2.040000 -3.880000 87.676208 81.329781 14301.650391
3.880000 2.040000 -3.840000 7.460953 68.657494 4769.517578
3.880000 2.040000 -3.800000 -24.723179 14.489918 821.193298
3.880000 2.080000 -4.200000 15.953179 8.710188 330.371307
3.880000 2.080000 -4.160000 -26.503126 -0.647003 702.834351
3.880000 2.080000 -4.120000 -45.774754 -54.195454 5032.475586
3.880000 2.080000 -4.080000 -7.102953 -114.674133 13200.609375
3.880000 2.080000 -4.040000 76.865356 -127.054039 22051.011719
3.880000 2.080000 -4.000000 149.797974 -68.413727 27119.871094
3.880000 2.080000 -3.960000 157.897583 27.587738 25692.730469
3.880000 2.080000 -3.920000 96.471123 97.122017 18739.363281
3.880000 2.080000 -3.880000 12.825901 99.702774 10105.147461
3.880000 2.080000 -3.840000 -36.227119 48.779411 3691.834961
3.880000 2.080000 -3.800000 -30.817509 -6.894563 997.253845
3.880000 2.120000 -4.200000 5.613879 11.175561 156.408798
3.880000 2.120000 -4.160000 -16.111519 -12.939464 427.010773
3.880000 2.120000 -4.120000 -3.773638 -53.051895 2828.743896
3.880000 2.120000 -4.080000 46.056877 -70.737358 7125.009766
3.880000 2.120000 -4.040000 100.242462 -39.265690 11590.345703
3.880000 2.120000 -4.000000 114.835602 28.552711 14002.472656
3.880000 2.120000 -3.960000 73.960167 87.683998 13158.589844
3.880000 2.120000 -3.920000 4.815258 98.331650 9692.299805
3.880000 2.120000 -3.880000 -45.668312 58.762627 5538.641113
3.880000 2.120000 -3.840000 -50.046673 3.425981 2516.406738
3.880000 2.120000 -3.800000 -18.871397 -29.443974 1223.077148
3.880000 2.160000 -4.200000 -0.896568 3.452477 12.723432
3.880000 2.160000 -4.160000 -1.542531 -16.707857 281.531891
3.880000 2.160000 -4.120000 20.953526 -30.031221 1340.924561
3.880000 2.160000 -4.080000 51.406681 -16.554951 2916.713379
3.880000 2.160000 -4.040000 62.222046 21.838799 4348.516113
3.880000 2.160000 -4.000000 38.191833 59.513271 5000.445312
3.880000 2.160000 -3.960000 -8.104980 67.863113 4671.093262
3.880000 2.160000 -3.920000 -45.722363 39.972115 3688.304199
3.880000 2.160000 -3.880000 -51.059761 -3.993601 2623.047852
3.880000 2.160000 -3.840000 -25.839994 -34.878174 1884.192383
3.880000 2.160000 -3.800000 8.078524 -38.077526 1515.160522
3.880000 2.200000 -4.200000 2.917801 -5.732415 41.374146
3.880000 2.200000 -4.160000 10.984742 -11.859587 261.314362
3.880000 2.200000 -4.120000 23.551960 -5.782318 588.130005
3.880000 2.200000 -4.080000 26.631413 12.448689 864.201965
3.880000 2.200000 -4.040000 11.768847 29.684669 1019.685364
3.880000 2.200000 -4.000000 -14.443062 30.134476 1116.688599
3.880000 2.200000 -3.960000 -34.300953 9.600000 1268.715454
3.880000 2.200000 -3.920000 -33.367455 -20.045916 1515.225708
3.880000 2.200000 -3.880000 -12.061226 -40.334286 1772.327759
3.880000 2.200000 -3.840000 15.776681 -40.629784 1899.682983
3.880000 2.200000 -3.800000 34.881321 -24.475271 1815.745361
3.920000 1.800000 -4.200000 18.032637 47.507973 2582.183594
3.920000 1.800000 -4.160000 -9.148376 53.477089 2943.491943
3.920000 1.800000 -4.120000 -34.550793 36.009499 2490.441406
3.920000 1.800000 -4.080000 -38.222050 5.353222 1489.582031
3.920000 1.800000 -4.040000 -18.328568 -14.727268 552.828857
3.920000 1.800000 -4.000000 5.260643 -10.002243 127.719231
3.920000 1.800000 -3.960000 10.219250 9.557800 195.784607
3.920000 1.800000 -3.920000 -5.667215 19.897247 428.017792
3.920000 1.800000 -3.880000 -22.596878 7.761169 570.854675
3.920000 1.800000 -3.840000 -19.749409 -15.801525 639.727356
3.920000 1.800000 -3.800000 3.082603 -27.451323 763.077576
3.920000 1.840000 -4.200000 -12.471264 44.137978 2103.693359
3.920000 1.840000 -4.160000 -21.766912 42.663223 2293.949219
3.920000 1.840000 -4.120000 -30.033859 39.831364 2488.570312
3.920000 1.840000 -4.080000 -38.881042 36.247921 2825.647217
3.920000 1.840000 -4.040000 -49.870556 29.434776 3353.478271
3.920000 1.840000 -4.000000 -60.525963 15.022697 3889.073486
3.920000 1.840000 -3.960000 -63.353935 -7.800751 4074.572998
3.920000 1.840000 -3.920000 -51.224556 -31.848999 3638.313965
3.920000 1.840000 -3.880000 -25.387085 -44.780746 2649.819336
3.920000 1.840000 -3.840000 2.414356 -38.729137 1505.775146
3.920000 1.840000 -3.800000 17.737431 -18.161255 644.447632
3.920000 1.880000 -4.200000 -30.473972 19.513874 1309.454224
3.920000 1.880000 -4.160000 -25.574968 33.316605 1764.075073
3.920000 1.880000 -4.120000 -43.865753 54.769104 4923.859375
3.920000 1.880000 -4.080000 -86.844261 56.662056 10752.514648
3.920000 1.880000 -4.040000 -129.450104 19.822594 17150.265625
3.920000 1.880000 -4.000000 -137.606262 -45.757462 21029.230469
3.920000 1.880000 -3.960000 -97.383286 -104.143585 20329.390625
3.920000 1.880000 -3.920000 -29.227646 -120.720726 15427.749023
3.920000 1.880000 -3.880000 26.984449 -89.983917 8825.265625
3.920000 1.880000 -3.840000 43.418076 -38.802231 3390.742432
3.920000 1.880000 -3.800000 24.176340 -2.682139 591.689270
3.920000 1.920000 -4.200000 -24.003147 -8.760254 652.893127
3.920000 1.920000 -4.160000 -28.112309 28.873304 1623.969604
3.920000 1.920000 -4.120000 -80.311554 53.627834 9325.890625
3.920000 1.920000 -4.080000 -152.539642 20.600307 23692.714844
3.920000 1.920000 -4.040000 -184.846252 -72.300690 39395.527344
3.920000 1.920000 -4.000000 -137.102509 -172.781921 48650.687500
3.920000 1.920000 -3.960000 -28.597870 -213.666901 46471.382812
3.920000 1.920000 -3.920000 74.042709 -169.435150 34190.593750
3.920000 1.920000 -3.880000 111.431473 -77.229561 18381.378906
3.920000 1.920000 -3.840000 78.281830 -2.984615 6136.952637
3.920000 1.920000 -3.800000 20.474413 14.380640 626.004395
3.920000 1.960000 -4.200000 -0.113708 -20.607611 424.686554
3.920000 1.960000 -4.160000 -34.318439 24.407494 1773.480957
3.920000 1.960000 -4.120000 -114.835030 17.771511 13502.910156
3.920000 1.960000 -4.080000 -175.496338 -70.226868 35730.777344
3.920000 1.960000 -4.040000 -147.045456 -196.535278 60248.484375
3.920000 1.960000 -4.000000 -24.221573 -272.439148 74809.773438
3.920000 1.960000 -3.960000 120.832260 -238.459534 71463.382812
3.920000 1.960000 -3.920000 196.145035 -117.502594 52279.734375
3.920000 1.960000 -3.880000 166.286163 4.993238 27676.019531
3.920000 1.960000 -3.840000 76.575386 54.866531 8874.125977
3.920000 1.960000 -3.800000 5.541300 27.035843 761.642822
3.920000 2.000000 -4.200000 21.389032 -10.134136 560.191406
3.920000 2.000000 -4.160000 -41.102226 13.923111 1883.245972
3.920000 2.000000 -4.120000 -115.855179 -40.550911 15066.798828
3.920000 2.000000 -4.080000 -121.587898 -160.342743 40493.414062
3.920000 2.000000 -4.040000 -19.748270 -261.662720 68857.367188
3.920000 2.000000 -4.000000 139.397186 -257.962372 85976.164062
3.920000 2.000000 -3.960000 251.469681 -138.652832 82461.609375
3.920000 2.000000 -3.920000 245.375671 17.583185 60518.386719
3.920000 2.000000 -3.880000 141.896851 109.624672 32152.285156
3.920000 2.000000 -3.840000 29.288391 97.730438 10409.047852
3.920000 2.000000 -3.800000 -17.323378 26.685905 1012.237000
3.920000 2.040000 -4.200000 25.168808 10.582058 745.448853
3.920000 2.040000 -4.160000 -41.154282 -1.984070 1697.611450
3.920000 2.040000 -4.120000 -75.485001 -86.385262 13160.398438
3.920000 2.040000 -4.080000 -18.028847 -187.899063 35631.097656
3.920000 2.040000 -4.040000 117.783760 -216.981277 60953.890625
3.920000 2.040000 -4.000000 244.228424 -129.817383 76500.078125
3.920000 2.040000 -3.960000 270.381836 25.999382 73782.304688
3.920000 2.040000 -3.920000 180.776489 147.988602 54580.765625
3.920000 2.040000 -3.880000 46.977135 165.087753 29460.818359
3.920000 2.040000 -3.840000 -37.745037 92.664993 10011.488281
3.920000 2.040000 -3.800000 -36.433342 7.634007 1385.666504
3.920000 2.080000 -4.200000 12.467308 23.564243 710.707336
3.920000 2.080000 -4.160000 -31.097221 -16.012102 1223.424561
3.920000 2.080000 -4.120000 -17.941475 -92.841217 8941.387695
3.920000 2.080000 -4.080000 69.374619 -139.316742 24221.992188
3.920000 2.080000 -4.040000 179.078659 -97.266563 41529.949219
3.920000 2.080000 -4.000000 227.467819 23.476685 52292.765625
3.920000 2.080000 -3.960000 171.717041 145.773056 50736.523438
3.920000 2.080000 -3.920000 49.246315 188.639969 38010.238281
3.920000 2.080000 -3.880000 -54.707867 134.836945 21173.953125
3.920000 2.080000 -3.840000 -80.045395 39.613617 7976.503906
3.920000 2.080000 -3.800000 -36.120567 -23.879612 1874.931274
3.920000 2.120000 -4.200000 -2.501502 20.884933 442.437958
3.920000 2.120000 -4.160000 -15.268938 -20.988585 673.661133
3.920000 2.120000 -4.120000 22.276163 -63.689140 4552.534180
3.920000 2.120000 -4.080000 93.750229 -57.961220 12148.608398
3.920000 2.120000 -4.040000 143.316406 11.437721 20670.414062
3.920000 2.120000 -4.000000 122.895401 104.226295 25966.400391
3.920000 2.120000 -3.960000 37.504547 154.720383 25344.988281
3.920000 2.120000 -3.920000 -55.973221 127.728722 19447.626953
3.920000 2.120000 -3.880000 -96.720535 47.708061 11630.921875
3.920000 2.120000 -3.840000 -69.385513 -25.393837 5459.196777
3.920000 2.120000 -3.800000 -9.895269 -48.446098 2444.940674
3.920000 2.160000 -4.200000 -7.094181 9.582100 142.144043
3.920000 2.160000 -4.160000 -1.795143 -16.118357 263.023956
3.920000 2.160000 -4.120000 29.712276 -26.426533 1581.181030
3.920000 2.160000 -4.080000 62.845917 -1.233040 3951.129639
3.920000 2.160000 -4.040000 63.786827 48.730644 6443.435059
3.920000 2.160000 -4.000000 21.433372 86.405190 7925.246582
3.920000 2.160000 -3.960000 -38.926895 79.501801 7835.839355
3.920000 2.160000 -3.920000 -75.166443 29.528515 6521.927246
3.920000 2.160000 -3.880000 -63.562637 -28.990799 4880.675293
3.920000 2.160000 -3.840000 -16.958462 -58.061600 3658.738770
3.920000 2.160000 -3.800000 29.628429 -46.166214 3009.163086
3.920000 2.200000 -4.200000 -1.081792 2.387933 6.872497
3.920000 2.200000 -4.160000 4.223112 -6.766811 63.624413
3.920000 2.200000 -4.120000 16.304695 -5.402676 295.031982
3.920000 2.200000 -4.080000 21.620655 8.761189 544.211182
3.920000 2.200000 -4.040000 10.075943 23.938438 674.573486
3.920000 2.200000 -4.000000 -13.313576 23.556530 732.161377
3.920000 2.200000 -3.960000 -30.432323 1.957130 929.956665
3.920000 2.200000 -3.920000 -25.074875 -28.658146 1450.038574
3.920000 2.200000 -3.880000 2.749949 -47.271641 2242.170166
3.920000 2.200000 -3.840000 36.518440 -40.967442 3011.927734
3.920000 2.200000 -3.800000 56.669350 -14.276058 3415.221191
3.960000 1.800000 -4.200000 -17.030907 64.498878 4450.157227
3.960000 1.800000 -4.160000 -51.122498 48.090401 4926.196289
3.960000 1.800000 -4.120000 -63.901123 9.695917 4177.364258
3.960000 1.800000 -4.080000 -44.639767 -24.650660 2600.363770
3.960000 1.800000 -4.040000 -10.113251 -30.774067 1049.321045
3.960000 1.800000 -4.000000 10.044460 -10.019386 201.279282
3.960000 1.800000 -3.960000 1.931301 11.978760 147.220612
3.960000 1.800000 -3.920000 -19.574844 11.138199 507.234009
3.960000 1.800000 -3.880000 -27.088791 -11.159258 858.331665
3.960000 1.800000 -3.840000 -9.146128 -30.813883 1033.146973
3.960000 1.800000 -3.800000 18.874365 -26.803822 1074.686523
3.960000 1.840000 -4.200000 -49.063293 36.824963 3763.284668
3.960000 1.840000 -4.160000 -58.001255 23.363991 3910.021484
3.960000 1.840000 -4.120000 -61.312180 10.485962 3869.138672
3.960000 1.840000 -4.080000 -63.146034 -0.440567 3987.615723
3.960000 1.840000 -4.040000 -65.729637 -13.205994 4494.783691
3.960000 1.840000 -4.000000 -64.821106 -31.912888 5220.208008
3.960000 1.840000 -3.960000 -52.457298 -53.683281 5633.662598
3.960000 1.840000 -3.920000 -25.956673 -67.524773 5233.343750
3.960000 1.840000 -3.880000 5.871460 -62.737972 3970.527344
3.960000 1.840000 -3.840000 27.294147 -39.733788 2323.744385
3.960000 1.840000 -3.800000 28.368818 -11.964370 947.936035
3.960000 1.880000 -4.200000 -49.968639 -4.515654 2517.256104
3.960000 1.880000 -4.160000 -52.040951 7.024124 2757.598877
3.960000 1.880000 -4.120000 -79.197510 13.103851 6443.956543
3.960000 1.880000 -4.080000 -117.078949 -12.809998 13871.576172
3.960000 1.880000 -4.040000 -130.747009 -73.455872 22490.546875
3.960000 1.880000 -4.000000 -94.836266 -138.338669 28131.503906
3.960000 1.880000 -3.960000 -19.406570 -165.366287 27722.625000
3.960000 1.880000 -3.920000 54.254440 -135.938843 21422.914062
3.960000 1.880000 -3.880000 85.960915 -71.219254 12461.460938
3.960000 1.880000 -3.840000 68.174133 -14.216793 4849.829590
3.960000 1.880000 -3.800000 28.479841 5.685313 843.424194
3.960000 1.920000 -4.200000 -21.365185 -30.544907 1389.462402
3.960000 1.920000 -4.160000 -46.121506 0.729847 2127.726074
3.960000 1.920000 -4.120000 -108.361832 -9.383026 11830.327148
3.960000 1.920000 -4.080000 -153.131439 -86.144760 30870.158203
3.960000 1.920000 -4.040000 -122.257423 -193.344391 52328.933594
3.960000 1.920000 -4.000000 -11.609268 -255.744629 65540.093750
3.960000 1.920000 -3.960000 116.903732 -222.746033 63282.281250
3.960000 1.920000 -3.920000 184.101410 -114.190109 46932.710938
3.960000 1.920000 -3.880000 159.113464 -4.000683 25333.099609
3.960000 1.920000 -3.840000 80.916771 43.073563 8402.855469
3.960000 1.920000 -3.800000 17.973400 21.885679 802.026123
3.960000 1.960000 -4.200000 13.244053 -25.791130 840.587280
3.960000 1.960000 -4.160000 -45.710091 -4.287434 2107.794434
3.960000 1.960000 -4.120000 -116.830727 -61.171371 17391.355469
3.960000 1.960000 -4.080000 -117.371185 -183.136047 47314.808594
3.960000 1.960000 -4.040000 -8.351509 -284.413300 80960.671875
3.960000 1.960000 -4.000000 157.975861 -276.614075 101471.718750
3.960000 1.960000 -3.960000 274.043121 -149.805862 97541.429688
3.960000 1.960000 -3.920000 267.213531 14.114735 71602.296875
3.960000 1.960000 -3.880000 159.965515 110.795135 37864.531250
3.960000 1.960000 -3.840000 44.076645 100.071770 11957.110352
3.960000 1.960000 -3.800000 -3.230659 29.375998 873.386353
3.960000 2.000000 -4.200000 29.051477 0.527271 844.266357
3.960000 2.000000 -4.160000 -45.212116 -14.692429 2260.002930
3.960000 2.000000 -4.120000 -82.555130 -113.705994 19744.402344
3.960000 2.000000 -4.080000 -11.904396 -232.567719 54229.457031
3.960000 2.000000 -4.040000 151.256866 -265.250183 93236.296875
3.960000 2.000000 -4.000000 302.901794 -159.603088 117222.648438
3.960000 2.000000 -3.960000 334.925720 27.788364 112947.429688
3.960000 2.000000 -3.920000 229.087555 174.973145 83096.710938
3.960000 2.000000 -3.880000 70.819122 197.695923 44099.027344
3.960000 2.000000 -3.840000 -29.093979 115.043015 14081.355469
3.960000 2.000000 -3.800000 -27.919180 19.104858 1144.476196
3.960000 2.040000 -4.200000 19.683905 25.119963 1018.468628
3.960000 2.040000 -4.160000 -36.877686 -27.102638 2094.516602
3.960000 2.040000 -4.120000 -18.467072 -130.395142 17343.925781
3.960000 2.040000 -4.080000 100.688828 -194.164703 47838.171875
3.960000 2.040000 -4.040000 252.211670 -138.138626 82693.007812
3.960000 2.040000 -4.000000 322.224091 26.659010 104539.070312
3.960000 2.040000 -3.960000 250.527542 196.551651 101396.601562
3.960000 2.040000 -3.920000 86.003288 260.693970 75357.906250
3.960000 2.040000 -3.880000 -56.112736 194.056274 40806.476562
3.960000 2.040000 -3.840000 -93.825211 70.758728 13809.966797
3.960000 2.040000 -3.800000 -39.914959 -10.219734 1697.646973
3.960000 2.080000 -4.200000 -1.178795 31.551857 996.909241
3.960000 2.080000 -4.160000 -21.018862 -32.549385 1501.255127
3.960000 2.080000 -4.120000 37.010471 -101.011154 11573.028320
3.960000 2.080000 -4.080000 151.439636 -95.836594 32118.615234
3.960000 2.080000 -4.040000 236.187241 11.328148 55912.742188
3.960000 2.080000 -4.000000 212.628723 161.294693 71226.953125
3.960000 2.080000 -3.960000 83.270378 250.765320 69817.203125
3.960000 2.080000 -3.920000 -65.757072 220.283020 52848.601562
3.960000 2.080000 -3.880000 -138.011749 103.620865 29784.525391
3.960000 2.080000 -3.840000 -106.253395 -7.093363 11340.099609
3.960000 2.080000 -3.800000 -24.563976 -43.832481 2524.675293
3.960000 2.120000 -4.200000 -15.265734 21.763460 706.690796
3.960000 2.120000 -4.160000 -6.196696 -26.976757 766.144470
3.960000 2.120000 -4.120000 54.341995 -50.547089 5508.060547
3.960000 2.120000 -4.080000 124.048721 -6.742805 15433.550781
3.960000 2.120000 -4.040000 137.251999 90.783089 27079.679688
3.960000 2.120000 -4.000000 65.647842 174.639725 34808.671875
3.960000 2.120000 -3.960000 -50.072060 179.312347 34660.128906
3.960000 2.120000 -3.920000 -131.479385 99.228477 27133.119141
3.960000 2.120000 -3.880000 -128.660706 -6.542957 16596.388672
3.960000 2.120000 -3.840000 -59.051811 -66.838928 7954.558594
3.960000 2.120000 -3.800000 15.400279 -56.878242 3472.303223
3.960000 2.160000 -4.200000 -15.857836 9.548543 342.645630
3.960000 2.160000 -4.160000 -0.242214 -15.721684 247.229996
3.960000 2.160000 -4.120000 37.106625 -14.536652 1588.215820
3.960000 2.160000 -4.080000 61.898266 25.027885 4457.790039
3.960000 2.160000 -4.040000 42.097969 77.599052 7793.851562
3.960000 2.160000 -4.000000 -18.654594 98.474182 10045.158203
3.960000 2.160000 -3.960000 -78.931496 63.658665 10282.606445
3.960000 2.160000 -3.920000 -93.626129 -6.383652 8806.603516
3.960000 2.160000 -3.880000 -52.722794 -63.108147 6762.331055
3.960000 2.160000 -3.840000 11.785162 -70.953094 5173.231934
3.960000 2.160000 -3.800000 55.745605 -34.234024 4279.541016
3.960000 2.200000 -4.200000 -10.032946 5.216466 127.871513
3.960000 2.200000 -4.160000 -2.715097 -7.649445 65.885757
3.960000 2.200000 -4.120000 13.101160 -7.447168 227.100708
3.960000 2.200000 -4.080000 20.722847 8.014536 493.669189
3.960000 2.200000 -4.040000 8.939438 23.853680 648.911621
3.960000 2.200000 -4.000000 -14.456436 21.105125 654.414856
3.960000 2.200000 -3.960000 -27.440617 -4.013870 769.098572
3.960000 2.200000 -3.920000 -13.578283 -34.073441 1345.369141
3.960000 2.200000 -3.880000 22.034409 -44.516499 2467.233887
3.960000 2.200000 -3.840000 56.238846 -24.797462 3777.721924
3.960000 2.200000 -3.800000 67.145782 13.298695 4685.411621
4.000000 1.800000 -4.200000 -53.736923 49.066048 5295.133789
4.000000 1.800000 -4.160000 -76.187042 12.358315 5957.193359
4.000000 1.800000 -4.120000 -65.317024 -32.064285 5294.431641
4.000000 1.800000 -4.080000 -26.702724 -53.890472 3617.218750
4.000000 1.800000 -4.040000 10.347171 -40.520103 1748.942749
4.000000 1.800000 -4.000000 19.397865 -9.624390 468.906067
4.000000 1.800000 -3.960000 1.523773 8.015701 66.573349
4.000000 1.800000 -3.920000 -17.459152 -1.515431 307.118530
4.000000 1.800000 -3.880000 -14.146317 -23.189434 737.868164
4.000000 1.800000 -3.840000 9.291620 -30.563995 1020.492065
4.000000 1.800000 -3.800000 29.402124 -13.675104 1051.493408
4.000000 1.840000 -4.200000 -68.119850 3.972202 4656.092285
4.000000 1.840000 -4.160000 -68.537422 -17.259228 4995.259277
4.000000 1.840000 -4.120000 -61.201187 -34.653084 4946.421387
4.000000 1.840000 -4.080000 -51.117474 -46.886772 4811.365234
4.000000 1.840000 -4.040000 -40.566830 -57.094513 4905.451172
4.000000 1.840000 -4.000000 -26.553329 -67.345299 5240.468262
4.000000 1.840000 -3.960000 -5.256081 -73.608856 5445.890137
4.000000 1.840000 -3.920000 20.674873 -67.984558 5049.350098
4.000000 1.840000 -3.880000 40.688488 -47.341698 3896.789551
4.000000 1.840000 -3.840000 44.201042 -19.392242 2329.791260
4.000000 1.840000 -3.800000 30.788820 1.514080 950.243896
4.000000 1.880000 -4.200000 -44.823109 -35.512016 3270.214355
4.000000 1.880000 -4.160000 -51.011162 -30.805256 3551.102539
4.000000 1.880000 -4.120000 -72.747665 -43.287235 7166.007324
4.000000 1.880000 -4.080000 -84.552460 -85.407059 14443.484375
4.000000 1.880000 -4.040000 -58.217758 -139.700867 22905.638672
4.000000 1.880000 -4.000000 8.279381 -168.411911 28431.121094
4.000000 1.880000 -3.960000 83.019653 -145.058243 27934.156250
4.000000 1.880000 -3.920000 123.482330 -79.256844 21529.533203
4.000000 1.880000 -3.880000 111.055405 -10.700531 12447.803711
4.000000 1.880000 -3.840000 65.106911 23.092606 4772.178223
4.000000 1.880000 -3.800000 24.128309 15.736179 829.802612
4.000000 1.920000 -4.200000 -3.109373 -43.338303 1887.876709
4.000000 1.920000 -4.160000 -38.451103 -32.432911 2530.380859
4.000000 1.920000 -4.120000 -81.248497 -75.502121 12301.888672
4.000000 1.920000 -4.080000 -72.588516 -162.424362 31650.765625
4.000000 1.920000 -4.040000 14.397713 -230.926910 53534.531250
4.000000 1.920000 -4.000000 140.248016 -217.548828 66997.000000
4.000000 1.920000 -3.960000 225.737823 -116.681870 64572.226562
4.000000 1.920000 -3.920000 218.076385 9.983360 47656.976562
4.000000 1.920000 -3.880000 135.066513 84.692932 25415.855469
4.000000 1.920000 -3.840000 45.952789 77.785736 8162.279297
4.000000 1.920000 -3.800000 9.019855 25.315920 722.253601
4.000000 1.960000 -4.200000 26.304741 -19.592461 1075.803955
4.000000 1.960000 -4.160000 -33.010002 -33.855984 2235.887939
4.000000 1.960000 -4.120000 -59.333771 -119.857155 17886.234375
4.000000 1.960000 -4.080000 9.086643 -220.553040 48726.210938
4.000000 1.960000 -4.040000 156.822449 -242.594025 83445.140625
4.000000 1.960000 -4.000000 290.592407 -141.713654 104526.703125
4.000000 1.960000 -3.960000 315.204773 29.507904 100224.765625
4.000000 1.960000 -3.920000 216.807800 161.650665 73136.562500
4.000000 1.960000 -3.880000 73.731987 180.880783 38154.261719
4.000000 1.960000 -3.840000 -14.802227 106.712776 11606.721680
4.000000 1.960000 -3.800000 -12.400469 23.248827 694.279541
4.000000 2.000000 -4.200000 26.860546 12.960682 889.468262
4.000000 2.000000 -4.160000 -26.492020 -39.484337 2260.839844
4.000000 2.000000 -4.120000 -3.301857 -142.512878 20320.822266
4.000000 2.000000 -4.080000 121.835449 -203.088394 56088.773438
4.000000 2.000000 -4.040000 277.500549 -139.822983 96557.023438
4.000000 2.000000 -4.000000 346.656799 33.940701 121322.906250
4.000000 2.000000 -3.960000 269.181000 210.107407 116603.531250
4.000000 2.000000 -3.920000 97.840103 275.210022 85313.242188
4.000000 2.000000 -3.880000 -47.699440 206.052948 44733.054688
4.000000 2.000000 -3.840000 -84.688377 81.536850 13820.378906
4.000000 2.000000 -3.800000 -29.769665 3.766514 900.419556
4.000000 2.040000 -4.200000 6.349035 30.664860 980.643860
4.000000 2.040000 -4.160000 -13.516857 -42.868145 2020.383301
4.000000 2.040000 -4.120000 57.410614 -120.225250 17750.089844
4.000000 2.040000 -4.080000 193.168640 -109.963821 49406.167969
4.000000 2.040000 -4.040000 291.993713 20.238464 85669.921875
4.000000 2.040000 -4.000000 261.959198 199.406250 108385.476562
4.000000 2.040000 -3.960000 107.650131 305.658264 105015.531250
4.000000 2.040000 -3.920000 -68.267830 270.418396 77786.609375
4.000000 2.040000 -3.880000 -152.982132 135.638702 41801.390625
4.000000 2.040000 -3.840000 -117.237831 10.455662 13854.030273
4.000000 2.040000 -3.800000 -27.485926 -27.427713 1507.755615
4.000000 2.080000 -4.200000 -14.936117 27.415909 974.719666
4.000000 2.080000 -4.160000 0.744797 -36.669064 1345.174927
4.000000 2.080000 -4.120000 85.452866 -65.102188 11540.487305
4.000000 2.080000 -4.080000 180.928146 -1.041897 32736.080078
4.000000 2.080000 -4.040000 197.674271 135.868820 57535.453125
4.000000 2.080000 -4.000000 97.964600 253.122116 73667.867188
4.000000 2.080000 -3.960000 -61.792816 261.896881 72408.328125
4.000000 2.080000 -3.920000 -174.895233 155.845749 54876.238281
4.000000 2.080000 -3.880000 -175.125153 15.934921 30922.740234
4.000000 2.080000 -3.840000 -88.304443 -62.717529 11731.163086
4.000000 2.080000 -3.800000 1.325697 -50.211788 2522.981201
4.000000 2.120000 -4.200000 -23.705887 14.213300 763.986938
4.000000 2.120000 -4.160000 6.586769 -23.104660 577.210815
4.000000 2.120000 -4.120000 69.852295 -14.580521 5091.935059
4.000000 2.120000 -4.080000 108.904678 57.171059 15128.758789
4.000000 2.120000 -4.040000 72.186050 148.537018 27274.072266
4.000000 2.120000 -4.000000 -32.482880 185.917816 35620.570312
4.000000 2.120000 -3.960000 -136.492920 131.247818 35856.304688
4.000000 2.120000 -3.920000 -167.234222 18.901199 28324.541016
4.000000 2.120000 -3.880000 -110.214119 -73.160492 17499.609375
4.000000 2.120000 -3.840000 -17.514355 -90.465645 8490.785156
4.000000 2.120000 -3.800000 42.749104 -43.176304 3691.679199
4.000000 2.160000 -4.200000 -21.865036 4.284535 496.437042
4.000000 2.160000 -4.160000 1.458197 -12.482924 157.949722
4.000000 2.160000 -4.120000 34.168724 3.002197 1176.514893
4.000000 2.160000 -4.080000 39.982128 47.990601 3901.668213
4.000000 2.160000 -4.040000 0.079735 85.881516 7375.641113
4.000000 2.160000 -4.000000 -62.969513 77.274200 9936.461914
4.000000 2.160000 -3.960000 -100.593216 18.478279 10460.442383
4.000000 2.160000 -3.920000 -80.669479 -51.307831 9140.058594
4.000000 2.160000 -3.880000 -16.462109 -82.872314 7138.821289
4.000000 2.160000 -3.840000 45.817806 -58.660679 5540.346680
4.000000 2.160000 -3.800000 67.685112 -3.946171 4596.846680
4.000000 2.200000 -4.200000 -18.716248 0.853045 351.025604
4.000000 2.200000 -4.160000 -6.694741 -12.020011 189.300232
4.000000 2.200000 -4.120000 11.388390 -8.267719 198.050598
4.000000 2.200000 -4.080000 16.825417 9.757479 378.303040
4.000000 2.200000 -4.040000 2.167686 23.071114 536.975159
4.000000 2.200000 -4.000000 -18.699024 14.579521 562.215942
4.000000 2.200000 -3.960000 -22.332100 -12.253586 648.873047
4.000000 2.200000 -3.920000 1.413872 -34.315887 1179.579102
4.000000 2.200000 -3.880000 38.275612 -29.420187 2330.569824
4.000000 2.200000 -3.840000 61.465759 3.466579 3790.056641
4.000000 2.200000 -3.800000 54.694450 43.714310 4902.423828
4.040000 1.800000 -4.200000 -66.267456 13.365688 4570.017090
4.040000 1.800000 -4.160000 -67.409714 -28.814436 5374.340820
4.040000 1.800000 -4.120000 -36.451096 -62.108429 5186.139648
4.040000 1.800000 -4.080000 8.376375 -63.155853 4058.825439
4.040000 1.800000 -4.040000 36.444542 -33.776550 2469.060059
4.040000 1.800000 -4.000000 32.255127 -0.205627 1040.435425
4.040000 1.800000 -3.960000 8.872948 11.434551 209.478165
4.040000 1.800000 -3.920000 -6.476349 -1.119881 43.197227
4.040000 1.800000 -3.880000 0.413300 -16.998646 289.124756
4.040000 1.800000 -3.840000 18.603794 -15.542431 587.668335
4.040000 1.800000 -3.800000 26.186859 2.814140 693.670959
4.040000 1.840000 -4.200000 -57.220192 -30.368429 4196.392090
4.040000 1.840000 -4.160000 -46.975815 -51.298309 4838.244141
4.040000 1.840000 -4.120000 -28.474810 -65.189186 5060.444824
4.040000 1.840000 -4.080000 -7.435905 -69.516159 4887.789062
4.040000 1.840000 -4.040000 11.407509 -66.286034 4523.969727
4.040000 1.840000 -4.000000 27.052719 -58.560898 4161.228516
4.040000 1.840000 -3.960000 40.119232 -46.880650 3807.348145
4.040000 1.840000 -3.920000 48.883820 -30.172279 3299.994385
4.040000 1.840000 -3.880000 49.036846 -10.194916 2508.548584
4.040000 1.840000 -3.840000 38.498981 6.449631 1523.769409
4.040000 1.840000 -3.800000 21.952560 12.552170 639.471863
4.040000 1.880000 -4.200000 -19.986219 -51.851402 3088.016846
4.040000 1.880000 -4.160000 -24.201836 -55.151688 3627.437500
4.040000 1.880000 -4.120000 -28.310505 -76.346542 6630.279297
4.040000 1.880000 -4.080000 -10.355743 -109.742180 12150.586914
4.040000 1.880000 -4.040000 37.755272 -129.708771 18249.826172
4.040000 1.880000 -4.000000 97.204453 -111.688034 21922.921875
4.040000 1.880000 -3.960000 133.817505 -56.008240 21044.046875
4.040000 1.880000 -3.920000 125.711441 8.636169 15877.949219
4.040000 1.880000 -3.880000 82.026566 47.001068 8937.458008
4.040000 1.880000 -3.840000 35.060043 45.192581 3271.576172
4.040000 1.880000 -3.800000 13.112530 19.427956 549.383911
4.040000 1.920000 -4.200000 17.418747 -39.404747 1856.146851
4.040000 1.920000 -4.160000 -10.510687 -49.822285 2592.734619
4.040000 1.920000 -4.120000 -16.710690 -100.906067 10461.281250
4.040000 1.920000 -4.080000 34.681931 -156.213715 25605.560547
4.040000 1.920000 -4.040000 131.028931 -158.885254 42413.101562
4.040000 1.920000 -4.000000 212.680710 -84.607895 52391.582031
4.040000 1.920000 -3.960000 221.345047 30.275360 49910.226562
4.040000 1.920000 -3.920000 151.490967 115.532059 36297.171875
4.040000 1.920000 -3.880000 55.517883 125.652229 18870.718750
4.040000 1.920000 -3.840000 -2.504515 75.480492 5703.577148
4.040000 1.920000 -3.800000 -0.166528 20.797541 432.565430
4.040000 1.960000 -4.200000 30.965092 -7.598667 1016.576660
4.040000 1.960000 -4.160000 -3.331850 -45.969357 2124.282959
4.040000 1.960000 -4.120000 20.698591 -119.728096 14763.249023
4.040000 1.960000 -4.080000 120.005920 -157.682526 39265.199219
4.040000 1.960000 -4.040000 237.775421 -99.782661 66493.734375
4.040000 1.960000 -4.000000 284.548645 40.186676 82582.898438
4.040000 1.960000 -3.960000 217.166656 176.905029 78456.742188
4.040000 1.960000 -3.920000 80.014175 223.829803 56502.050781
4.040000 1.960000 -3.880000 -32.824181 166.410797 28769.980469
4.040000 1.960000 -3.840000 -58.803455 69.030960 8223.120117
4.040000 1.960000 -3.800000 -14.275331 11.769379 342.303375
4.040000 2.000000 -4.200000 18.535856 18.650648 691.424683
4.040000 2.000000 -4.160000 5.213100 -43.793179 1945.018921
4.040000 2.000000 -4.120000 71.595718 -107.046692 16584.941406
4.040000 2.000000 -4.080000 192.452469 -90.512146 45230.402344
4.040000 2.000000 -4.040000 276.177979 31.891722 77291.351562
4.040000 2.000000 -4.000000 242.506699 194.015961 96451.687500
4.040000 2.000000 -3.960000 99.149490 286.533813 91932.250000
4.040000 2.000000 -3.920000 -59.334435 250.846405 66444.492188
4.040000 2.000000 -3.880000 -132.502777 128.532837 34077.675781
4.040000 2.000000 -3.840000 -97.894150 19.446163 9961.417969
4.040000 2.000000 -3.800000 -19.265469 -8.605957 445.220795
4.040000 2.040000 -4.200000 -3.716961 25.506298 664.387024
4.040000 2.040000 -4.160000 15.635763 -36.367779 1567.092407
4.040000 2.040000 -4.120000 103.582664 -59.550976 14275.686523
4.040000 2.040000 -4.080000 198.865479 12.288897 39698.496094
4.040000 2.040000 -4.040000 210.317963 156.120605 68607.289062
4.040000 2.040000 -4.000000 102.232452 275.551727 86380.234375
4.040000 2.040000 -3.960000 -64.247124 281.052277 83118.078125
4.040000 2.040000 -3.920000 -178.975937 169.971222 60922.601562
4.040000 2.040000 -3.880000 -177.040924 28.382919 32149.078125
4.040000 2.040000 -3.840000 -89.574432 -46.985561 10231.222656
4.040000 2.040000 -3.800000 -5.292669 -30.238094 942.354675
4.040000 2.080000 -4.200000 -19.238205 17.234488 667.136108
4.040000 2.080000 -4.160000 19.903252 -21.872810 874.559265
4.040000 2.080000 -4.120000 94.464203 -4.485771 8943.607422
4.040000 2.080000 -4.080000 135.658554 86.575378 25898.541016
4.040000 2.080000 -4.040000 84.711411 196.424347 45758.546875
4.040000 2.080000 -4.000000 -44.914566 237.830429 58580.628906
4.040000 2.080000 -3.960000 -169.460388 169.268600 57368.679688
4.040000 2.080000 -3.920000 -204.705658 35.609608 43172.449219
4.040000 2.080000 -3.880000 -138.297699 -70.159363 24048.589844
4.040000 2.080000 -3.840000 -35.390678 -87.739380 8950.699219
4.040000 2.080000 -3.800000 25.134499 -35.159325 1867.921143
4.040000 2.120000 -4.200000 -23.893108 5.924689 605.982544
4.040000 2.120000 -4.160000 12.410011 -8.792842 231.322449
4.040000 2.120000 -4.120000 54.632851 23.742672 3548.462891
4.040000 2.120000 -4.080000 52.239227 93.248947 11424.302734
4.040000 2.120000 -4.040000 -15.539391 144.729340 21188.054688
4.040000 2.120000 -4.000000 -110.836243 125.396606 28008.980469
4.040000 2.120000 -3.960000 -164.281754 36.425476 28315.308594
4.040000 2.120000 -3.920000 -135.580582 -63.141891 22368.992188
4.040000 2.120000 -3.880000 -49.188057 -106.712967 13807.122070
4.040000 2.120000 -3.840000 29.509138 -76.527039 6727.176758
4.040000 2.120000 -3.800000 52.890045 -12.577021 2955.538330
4.040000 2.160000 -4.200000 -23.379301 -1.990013 550.551880
4.040000 2.160000 -4.160000 -0.991531 -7.356525 55.101601
4.040000 2.160000 -4.120000 17.583576 14.935667 532.256287
4.040000 2.160000 -4.080000 5.085518 49.623093 2488.313965
4.040000 2.160000 -4.040000 -39.108948 61.212036 5276.422852
4.040000 2.160000 -4.000000 -81.906715 28.221802 7505.180176
4.040000 2.160000 -3.960000 -84.247787 -32.203529 8134.756836
4.040000 2.160000 -3.920000 -37.880661 -76.137688 7231.891602
4.040000 2.160000 -3.880000 25.564812 -71.232239 5727.591309
4.040000 2.160000 -3.840000 62.540524 -24.383694 4505.881836
4.040000 2.160000 -3.800000 54.756866 27.472143 3753.033203
4.040000 2.200000 -4.200000 -22.318697 -8.445999 569.459106
4.040000 2.200000 -4.160000 -7.489438 -17.381456 358.206696
4.040000 2.200000 -4.120000 8.194256 -9.732306 161.863602
4.040000 2.200000 -4.080000 9.109558 6.671478 127.492668
4.040000 2.200000 -4.040000 -5.009537 13.428329 205.415497
4.040000 2.200000 -4.000000 -17.080578 1.151375 293.071808
4.040000 2.200000 -3.960000 -9.541687 -19.115658 456.452179
4.040000 2.200000 -3.920000 16.991508 -25.358654 931.772705
4.040000 2.200000 -3.880000 42.703972 -5.817612 1857.473877
4.040000 2.200000 -3.840000 46.398087 29.456280 3020.454834
4.040000 2.200000 -3.800000 24.111410 57.800964 3922.311523
4.080000 1.800000 -4.200000 -50.240776 -15.688795 2770.273682
4.080000 1.800000 -4.160000 -34.915253 -47.991119 3522.222168
4.080000 1.800000 -4.120000 2.465757 -62.198818 3874.772949
4.080000 1.800000 -4.080000 39.983452 -45.488930 3667.918945
4.080000 1.800000 -4.040000 53.283894 -8.804352 2916.689941
4.080000 1.800000 -4.000000 37.229218 21.541737 1850.061035
4.080000 1.800000 -3.960000 9.892056 27.135410 834.183289
4.080000 1.800000 -3.920000 -5.236753 12.676575 188.119125
4.080000 1.800000 -3.880000 -0.780157 -1.489887 2.828409
4.080000 1.800000 -3.840000 10.564888 -0.857155 112.351570
4.080000 1.800000 -3.800000 12.094971 10.186312 250.049255
4.080000 1.840000 -4.200000 -28.472719 -43.435875 2697.370850
4.080000 1.840000 -4.160000 -11.541073 -57.872597 3482.433838
4.080000 1.840000 -4.120000 13.055109 -62.092007 4025.853027
4.080000 1.840000 -4.080000 36.801960 -52.299534 4089.625488
4.080000 1.840000 -4.040000 50.877281 -32.447308 3641.325684
4.080000 1.840000 -4.000000 52.407074 -11.214836 2872.273926
4.080000 1.840000 -3.960000 45.172752 4.534401 2061.138184
4.080000 1.840000 -3.920000 34.926579 13.312988 1397.101562
4.080000 1.840000 -3.880000 24.875027 16.997417 907.679199
4.080000 1.840000 -3.840000 15.651691 16.933800 531.729004
4.080000 1.840000 -3.800000 8.254406 13.056154 238.598389
4.080000 1.880000 -4.200000 5.175417 -45.764633 2121.186523
4.080000 1.880000 -4.160000 8.102644 -52.919609 2866.137939
4.080000 1.880000 -4.120000 21.375805 -66.939453 4937.815430
4.080000 1.880000 -4.080000 51.487339 -73.665230 8077.511719
4.080000 1.880000 -4.040000 88.463623 -57.207336 11098.492188
4.080000 1.880000 -4.000000 110.586319 -15.964783 12484.208008
4.080000 1.880000 -3.960000 101.630875 32.230270 11367.625000
4.080000 1.880000 -3.920000 65.467598 62.211136 8156.231445
4.080000 1.880000 -3.880000 24.287098 61.005585 4311.544434
4.080000 1.880000 -3.840000 1.280972 37.529755 1410.123413
4.080000 1.880000 -3.800000 3.108223 13.926261 203.601807
4.080000 1.920000 -4.200000 27.513702 -24.830839 1373.574463
4.080000 1.920000 -4.160000 18.730270 -43.130928 2211.100098
4.080000 1.920000 -4.120000 40.204956 -74.160339 7116.194336
4.080000 1.920000 -4.080000 96.083160 -81.405350 15858.804688
4.080000 1.920000 -4.040000 153.785767 -37.987396 25093.105469
4.080000 1.920000 -4.000000 167.982452 43.448936 30105.914062
4.080000 1.920000 -3.960000 121.001480 115.572716 27998.410156
4.080000 1.920000 -3.920000 41.176216 134.616348 19817.041016
4.080000 1.920000 -3.880000 -19.895077 97.283119 9859.819336
4.080000 1.920000 -3.840000 -30.675592 41.540894 2666.637695
4.080000 1.920000 -3.800000 -3.175179 11.334845 138.560455
4.080000 1.960000 -4.200000 27.845541 1.547470 777.768799
4.080000 1.960000 -4.160000 24.868530 -34.474159 1806.911377
4.080000 1.960000 -4.120000 71.232506 -67.212341 9591.568359
4.080000 1.960000 -4.080000 147.758179 -46.644241 24008.164062
4.080000 1.960000 -4.040000 194.755768 40.110893 39538.691406
4.080000 1.960000 -4.000000 163.079590 146.938599 48185.906250
4.080000 1.960000 -3.960000 62.209755 202.762299 44982.605469
4.080000 1.960000 -3.920000 -43.235569 172.664566 31682.367188
4.080000 1.960000 -3.880000 -88.036148 88.116226 15514.832031
4.080000 1.960000 -3.840000 -60.835976 17.014696 3990.515625
4.080000 1.960000 -3.800000 -7.490135 3.057211 65.448669
4.080000 2.000000 -4.200000 12.901344 17.128876 459.843079
4.080000 2.000000 -4.160000 30.259464 -24.453899 1513.628418
4.080000 2.000000 -4.120000 96.484245 -34.949253 10530.660156
4.080000 2.000000 -4.080000 164.137589 25.831707 27608.425781
4.080000 2.000000 -4.040000 165.320343 137.597122 46263.785156
4.080000 2.000000 -4.000000 76.095047 226.003937 56868.238281
4.080000 2.000000 -3.960000 -53.818207 224.625305 53352.925781
4.080000 2.000000 -3.920000 -139.579224 135.140564 37745.332031
4.080000 2.000000 -3.880000 -133.962799 26.496872 18648.115234
4.080000 2.000000 -3.840000 -64.994476 -27.055229 4956.267090
4.080000 2.000000 -3.800000 -3.706623 -8.979304 94.366959
4.080000 2.040000 -4.200000 -3.866215 18.553789 359.190735
4.080000 2.040000 -4.160000 31.028755 -10.057856 1063.944092
4.080000 2.040000 -4.120000 93.414619 11.000933 8847.311523
4.080000 2.040000 -4.080000 123.442276 94.162109 24104.498047
4.080000 2.040000 -4.040000 72.012253 189.610886 41138.054688
4.080000 2.040000 -4.000000 -45.907135 221.504059 51171.511719
4.080000 2.040000 -3.960000 -155.075317 156.419983 48515.562500
4.080000 2.040000 -3.920000 -182.833313 37.296490 34819.046875
4.080000 2.040000 -3.880000 -122.231834 -52.882133 17737.140625
4.080000 2.040000 -3.840000 -34.322853 -63.661083 5230.791504
4.080000 2.040000 -3.800000 11.180054 -16.010220 381.320709
4.080000 2.080000 -4.200000 -14.883429 12.098946 367.900940
4.080000 2.080000 -4.160000 21.315315 3.605452 467.341919
4.080000 2.080000 -4.120000 59.083210 42.214275 5272.870605
4.080000 2.080000 -4.080000 48.722672 114.213593 15418.643555
4.080000 2.080000 -4.040000 -26.962486 162.769135 27220.767578
4.080000 2.080000 -4.000000 -126.085785 136.822830 34618.109375
4.080000 2.080000 -3.960000 -178.104309 42.056370 33489.882812
4.080000 2.080000 -3.920000 -145.849030 -58.721245 24720.125000
4.080000 2.080000 -3.880000 -58.956398 -99.437134 13363.599609
4.080000 2.080000 -3.840000 14.581364 -67.362961 4750.384766
4.080000 2.080000 -3.800000 30.206608 -8.026608 976.865601
4.080000 2.120000 -4.200000 -20.586445 3.476038 435.884521
4.080000 2.120000 -4.160000 3.865953 6.166195 52.967556
4.080000 2.120000 -4.120000 16.791874 39.189663 1817.796753
4.080000 2.120000 -4.080000 -10.319004 79.342484 6401.711426
4.080000 2.120000 -4.040000 -71.388695 84.428146 12224.457031
4.080000 2.120000 -4.000000 -122.890610 34.527714 16294.264648
4.080000 2.120000 -3.960000 -120.552307 -43.329208 16410.279297
4.080000 2.120000 -3.920000 -61.257454 -95.133835 12802.921875
4.080000 2.120000 -3.880000 12.390057 -87.265083 7768.708496
4.080000 2.120000 -3.840000 50.336105 -34.975273 3756.993164
4.080000 2.120000 -3.800000 38.314133 15.412705 1705.524292
4.080000 2.160000 -4.200000 -22.606293 -6.604883 554.668945
4.080000 2.160000 -4.160000 -8.704351 -5.945002 111.108780
4.080000 2.160000 -4.120000 -3.896587 10.479780 125.009186
4.080000 2.160000 -4.080000 -21.080681 25.243626 1081.635742
4.080000 2.160000 -4.040000 -49.489365 15.953583 2703.714111
4.080000 2.160000 -4.000000 -61.185669 -19.543274 4125.625488
4.080000 2.160000 -3.960000 -37.913483 -56.433151 4622.132812
4.080000 2.160000 -3.920000 8.893734 -63.989632 4173.771484
4.080000 2.160000 -3.880000 46.592575 -34.238091 3343.114990
4.080000 2.160000 -3.840000 50.496742 10.835313 2667.324951
4.080000 2.160000 -3.800000 24.489439 40.379517 2230.238037
4.080000 2.200000 -4.200000 -18.988594 -17.982258 683.928345
4.080000 2.200000 -4.160000 -5.459764 -22.738434 546.845398
4.080000 2.200000 -4.120000 5.754023 -15.319563 267.797791
4.080000 2.200000 -4.080000 5.750761 -4.619469 54.410744
4.080000 2.200000 -4.040000 -1.221895 -2.460819 7.548659
4.080000 2.200000 -4.000000 -2.383991 -9.930290 104.294083
4.080000 2.200000 -3.960000 9.081261 -15.358770 318.361145
4.080000 2.200000 -3.920000 25.445374 -6.499235 689.707092
4.080000 2.200000 -3.880000 31.336056 16.115555 1241.659424
4.080000 2.200000 -3.840000 18.639767 38.839661 1855.960205
4.080000 2.200000 -3.800000 -6.107746 47.510120 2294.515869
4.120000 1.800000 -4.200000 -24.050365 -20.736549 1008.424561
4.120000 1.800000 -4.160000 -5.294533 -38.088566 1478.770996
4.120000 1.800000 -4.120000 25.610260 -37.425907 2056.583984
4.120000 1.800000 -4.080000 49.376755 -12.802053 2601.956543
4.120000 1.800000 -4.040000 48.458355 22.398153 2849.889404
4.120000 1.800000 -4.000000 23.402657 45.197937 2590.537842
4.120000 1.800000 -3.960000 -6.958073 42.668121 1868.983398
4.120000 1.800000 -3.920000 -22.244635 22.360065 994.796265
4.120000 1.800000 -3.880000 -17.800661 3.567875 329.593262
4.120000 1.800000 -3.840000 -5.891220 -1.253436 36.277576
4.120000 1.800000 -3.800000 -0.988326 3.857490 15.857015
4.120000 1.840000 -4.200000 -5.542435 -32.612560 1094.297729
4.120000 1.840000 -4.160000 11.882219 -39.500443 1701.472046
4.120000 1.840000 -4.120000 34.869949 -33.258335 2322.030273
4.120000 1.840000 -4.080000 50.708191 -11.512858 2703.866455
4.120000 1.840000 -4.040000 48.898392 16.054100 2648.786865
4.120000 1.840000 -4.000000 30.684204 34.683853 2144.490234
4.120000 1.840000 -3.960000 8.126864 36.418991 1392.388794
4.120000 1.840000 -3.920000 -6.181057 25.478848 687.377136
4.120000 1.840000 -3.880000 -8.564432 12.696750 234.556946
4.120000 1.840000 -3.840000 -4.342041 5.527853 49.410484
4.120000 1.840000 -3.800000 -0.209097 3.634512 13.253402
4.120000 1.880000 -4.200000 14.896610 -27.783632 993.839233
4.120000 1.880000 -4.160000 24.904232 -32.130341 1652.579590
4.120000 1.880000 -4.120000 43.172913 -29.967390 2761.944824
4.120000 1.880000 -4.080000 61.798958 -13.402118 3998.727783
4.120000 1.880000 -4.040000 67.821892 15.571331 4842.275391
4.120000 1.880000 -4.000000 53.899284 44.220360 4860.573242
4.120000 1.880000 -3.960000 25.391907 57.760429 3981.016113
4.120000 1.880000 -3.920000 -2.644104 50.482811 2555.505371
4.120000 1.880000 -3.880000 -16.292665 29.915152 1160.367310
4.120000 1.880000 -3.840000 -12.403580 10.696974 268.274048
4.120000 1.880000 -3.800000 0.608516 3.652627 13.711976
4.120000 1.920000 -4.200000 25.481937 -11.805716 788.704102
4.120000 1.920000 -4.160000 32.337879 -21.541470 1509.773315
4.120000 1.920000 -4.120000 55.688576 -23.550144 3655.826904
4.120000 1.920000 -4.080000 82.946373 -1.892406 6883.681641
4.120000 1.920000 -4.040000 90.345070 41.695637 9900.757812
4.120000 1.920000 -4.000000 63.705666 84.253784 11157.112305
4.120000 1.920000 -3.960000 13.708645 98.420433 9874.508789
4.120000 1.920000 -3.920000 -30.127232 75.703568 6638.680176
4.120000 1.920000 -3.880000 -43.014549 34.557438 3044.468018
4.120000 1.920000 -3.840000 -24.949158 4.996098 647.421448
4.120000 1.920000 -3.800000 1.117822 3.508162 13.556724
4.120000 1.960000 -4.200000 23.633818 4.957659 583.135681
4.120000 1.960000 -4.160000 35.806885 -9.226499 1367.261353
4.120000 1.960000 -4.120000 67.916435 -5.542587 4643.362305
4.120000 1.960000 -4.080000 95.287178 32.295288 10122.631836
4.120000 1.960000 -4.040000 86.104378 90.660141 15633.224609
4.120000 1.960000 -4.000000 32.409103 131.306641 18291.783203
4.120000 1.960000 -3.960000 -37.206505 122.930618 16496.259766
4.120000 1.960000 -3.920000 -78.775581 70.344254 11153.906250
4.120000 1.960000 -3.880000 -70.278183 12.136816 5086.325195
4.120000 1.960000 -3.840000 -29.940928 -12.632515 1056.039551
4.120000 1.960000 -3.800000 2.141942 2.479824 10.737440
4.120000 2.000000 -4.200000 13.786465 15.904781 443.028687
4.120000 2.000000 -4.160000 33.682739 5.445684 1164.182495
4.120000 2.000000 -4.120000 66.213409 23.271877 4925.795898
4.120000 2.000000 -4.080000 77.403137 74.856506 11594.742188
4.120000 2.000000 -4.040000 40.209175 130.101410 18543.154297
4.120000 2.000000 -4.000000 -34.507942 144.534653 22081.064453
4.120000 2.000000 -3.960000 -100.467377 99.923813 20078.460938
4.120000 2.000000 -3.920000 -114.108932 24.532644 13622.699219
4.120000 2.000000 -3.880000 -73.310471 -29.522892 6246.026367
4.120000 2.000000 -3.840000 -18.512581 -31.843483 1356.723022
4.120000 2.000000 -3.800000 5.429329 1.541044 31.852428
4.120000 2.040000 -4.200000 0.892912 19.635363 386.344757
4.120000 2.040000 -4.160000 22.016323 18.666800 833.167847
4.120000 2.040000 -4.120000 42.346725 47.223732 4023.325928
4.120000 2.040000 -4.080000 29.688820 95.799301 10058.931641
4.120000 2.040000 -4.040000 -26.568943 126.024582 16588.103516
4.120000 2.040000 -4.000000 -96.749146 103.603294 20094.039062
4.120000 2.040000 -3.960000 -131.593475 33.904343 18466.345703
4.120000 2.040000 -3.920000 -106.059608 -37.549358 12658.594727
4.120000 2.040000 -3.880000 -43.363708 -63.816467 5952.952637
4.120000 2.040000 -3.840000 6.081347 -37.918533 1474.797974
4.120000 2.040000 -3.800000 10.897928 3.911171 134.062103
4.120000 2.080000 -4.200000 -12.019969 16.168751 405.908142
4.120000 2.080000 -4.160000 2.271978 21.549438 469.540192
4.120000 2.080000 -4.120000 6.453873 47.791008 2325.633057
4.120000 2.080000 -4.080000 -20.251812 76.703796 6293.607910
4.120000 2.080000 -4.040000 -71.650116 75.719170 10867.131836
4.120000 2.080000 -4.000000 -112.267998 30.640064 13542.916992
4.120000 2.080000 -3.960000 -107.243393 -34.757240 12709.210938
4.120000 2.080000 -3.920000 -56.467216 -75.812904 8936.143555
4.120000 2.080000 -3.880000 2.737925 -66.758698 4464.219727
4.120000 2.080000 -3.840000 29.122093 -23.823380 1415.649658
4.120000 2.080000 -3.800000 14.472500 11.982731 353.039093
4.120000 2.120000 -4.200000 -21.345150 5.270973 483.398590
4.120000 2.120000 -4.160000 -14.724321 8.754158 293.440918
4.120000 2.120000 -4.120000 -17.960423 22.569965 831.980103
4.120000 2.120000 -4.080000 -39.815002 30.226439 2498.872070
4.120000 2.120000 -4.040000 -67.393082 13.104939 4713.566895
4.120000 2.120000 -4.000000 -74.213120 -26.816677 6226.721191
4.120000 2.120000 -3.960000 -46.197361 -63.175285 6125.312500
4.120000 2.120000 -3.920000 1.327267 -67.658203 4579.394043
4.120000 2.120000 -3.880000 35.309971 -37.125999 2625.133789
4.120000 2.120000 -3.840000 35.077362 2.948993 1239.117920
4.120000 2.120000 -3.800000 10.347250 23.006084 636.345459
4.120000 2.160000 -4.200000 -21.736732 -10.478970 582.294312
4.120000 2.160000 -4.160000 -16.169046 -12.833465 426.135864
4.120000 2.160000 -4.120000 -14.646183 -9.336241 301.676086
4.120000 2.160000 -4.080000 -20.597649 -9.364906 511.964600
4.120000 2.160000 -4.040000 -25.173203 -20.334145 1047.167603
4.120000 2.160000 -4.000000 -16.052111 -36.302971 1575.575928
4.120000 2.160000 -3.960000 7.441475 -41.372513 1767.060303
4.120000 2.160000 -3.920000 30.420033 -25.755081 1588.702637
4.120000 2.160000 -3.880000 35.536278 2.754694 1270.415405
4.120000 2.160000 -3.840000 19.794378 25.093634 1021.507812
4.120000 2.160000 -3.800000 -2.964943 28.914022 844.811584
4.120000 2.200000 -4.200000 -10.378888 -23.223459 647.050354
4.120000 2.200000 -4.160000 -0.138769 -26.983341 728.119995
4.120000 2.200000 -4.120000 9.573326 -23.354076 637.061462
4.120000 2.200000 -4.080000 14.585890 -16.602642 488.395935
4.120000 2.200000 -4.040000 16.705902 -10.975128 399.540588
4.120000 2.200000 -4.000000 19.425186 -5.669953 409.486237
4.120000 2.200000 -3.960000 22.014900 2.969795 493.475494
4.120000 2.200000 -3.920000 19.603325 15.196510 615.224243
4.120000 2.200000 -3.880000 9.169444 25.651318 742.068848
4.120000 2.200000 -3.840000 -5.926719 28.249405 833.154846
4.120000 2.200000 -3.800000 -18.688141 22.420849 851.941040
4.160000 1.800000 -4.200000 -9.878221 -6.964422 146.082413
4.160000 1.800000 -4.160000 2.339410 -15.441469 243.911804
4.160000 1.800000 -4.120000 22.492199 -10.087653 607.659790
4.160000 1.800000 -4.080000 34.247044 13.129017 1345.231079
4.160000 1.800000 -4.040000 23.673370 41.094254 2249.166016
4.160000 1.800000 -4.000000 -5.989352 53.202076 2866.333252
4.160000 1.800000 -3.960000 -35.210999 39.862091 2828.800781
4.160000 1.800000 -3.920000 -44.924904 11.471590 2149.844238
4.160000 1.800000 -3.880000 -32.895893 -11.351158 1210.988525
4.160000 1.800000 -3.840000 -13.666690 -16.454575 457.531433
4.160000 1.800000 -3.800000 -3.019596 -9.077770 91.523872
4.160000 1.840000 -4.200000 -2.138858 -14.240915 207.378372
4.160000 1.840000 -4.160000 11.687300 -16.882944 421.626770
4.160000 1.840000 -4.120000 27.560041 -4.966266 784.219727
4.160000 1.840000 -4.080000 30.392227 19.233475 1293.614014
4.160000 1.840000 -4.040000 13.138830 40.246445 1792.405273
4.160000 1.840000 -4.000000 -14.906805 42.502823 2028.702881
4.160000 1.840000 -3.960000 -35.291492 24.466904 1844.118774
4.160000 1.840000 -3.920000 -36.279251 -0.147155 1316.205688
4.160000 1.840000 -3.880000 -21.895660 -15.082539 706.902954
4.160000 1.840000 -3.840000 -5.957242 -15.102280 263.567596
4.160000 1.840000 -3.800000 1.610114 -7.538595 59.422874
4.160000 1.880000 -4.200000 9.224305 -14.553166 296.882446
4.160000 1.880000 -4.160000 21.100664 -12.441607 600.031616
4.160000 1.880000 -4.120000 31.010782 1.354937 963.504517
4.160000 1.880000 -4.080000 28.407637 21.810265 1282.681519
4.160000 1.880000 -4.040000 11.108345 36.379601 1446.870728
4.160000 1.880000 -4.000000 -11.769594 35.310379 1385.346191
4.160000 1.880000 -3.960000 -26.870258 19.746832 1111.948242
4.160000 1.880000 -3.920000 -26.981897 0.367904 728.158142
4.160000 1.880000 -3.880000 -15.479857 -11.467078 371.119873
4.160000 1.880000 -3.840000 -1.928975 -11.657812 139.625534
4.160000 1.880000 -3.800000 5.919284 -4.086822 51.740032
4.160000 1.920000 -4.200000 19.174742 -6.896265 415.229187
4.160000 1.920000 -4.160000 27.665422 -2.147246 769.986267
4.160000 1.920000 -4.120000 33.244133 10.683029 1219.299438
4.160000 1.920000 -4.080000 29.032055 27.815374 1616.555298
4.160000 1.920000 -4.040000 13.115137 40.414318 1805.323975
4.160000 1.920000 -4.000000 -8.573460 40.264359 1694.722900
4.160000 1.920000 -3.960000 -25.071835 26.144562 1312.135010
4.160000 1.920000 -3.920000 -27.640045 5.808434 797.710022
4.160000 1.920000 -3.880000 -16.299128 -8.674631 340.910767
4.160000 1.920000 -3.840000 -0.297699 -9.377081 88.018272
4.160000 1.920000 -3.800000 8.474623 1.670933 74.611244
4.160000 1.960000 -4.200000 22.580269 6.848249 556.767029
4.160000 1.960000 -4.160000 27.265562 12.684170 904.299072
4.160000 1.960000 -4.120000 29.822475 24.213554 1475.676270
4.160000 1.960000 -4.080000 24.018454 39.964386 2174.038086
4.160000 1.960000 -4.040000 6.052968 51.759647 2715.699463
4.160000 1.960000 -4.000000 -18.856054 49.233669 2779.504883
4.160000 1.960000 -3.960000 -37.045830 29.621647 2249.835449
4.160000 1.960000 -3.920000 -36.531059 3.285979 1345.315918
4.160000 1.960000 -3.880000 -18.484497 -12.599977 500.436066
4.160000 1.960000 -3.840000 1.807388 -8.489489 75.338066
4.160000 1.960000 -3.800000 7.481408 8.370983 126.044823
4.160000 2.000000 -4.200000 15.693588 21.312183 700.497864
4.160000 2.000000 -4.160000 16.057484 26.605024 965.670105
4.160000 2.000000 -4.120000 15.253034 36.245945 1546.423584
4.160000 2.000000 -4.080000 5.991885 49.365589 2472.864014
4.160000 2.000000 -4.040000 -15.530432 55.929001 3369.247559
4.160000 2.000000 -4.000000 -40.783752 44.660442 3657.869629
4.160000 2.000000 -3.960000 -52.572731 16.505131 3036.311523
4.160000 2.000000 -3.920000 -40.687637 -11.725698 1792.975830
4.160000 2.000000 -3.880000 -13.977395 -20.587997 619.233215
4.160000 2.000000 -3.840000 5.521558 -6.595157 73.983688
4.160000 2.000000 -3.800000 2.855846 13.253052 183.799240
4.160000 2.040000 -4.200000 -0.665143 28.421572 808.228210
4.160000 2.040000 -4.160000 -4.318840 30.502361 949.046448
4.160000 2.040000 -4.120000 -8.087157 35.756641 1343.939453
4.160000 2.040000 -4.080000 -19.462873 42.258926 2164.620361
4.160000 2.040000 -4.040000 -39.383247 39.222481 3089.443115
4.160000 2.040000 -4.000000 -55.764931 19.005819 3470.948730
4.160000 2.040000 -3.960000 -52.968132 -10.495003 2915.768066
4.160000 2.040000 -3.920000 -29.036549 -29.243332 1698.293701
4.160000 2.040000 -3.880000 -1.210952 -23.674259 561.936951
4.160000 2.040000 -3.840000 8.922335 -1.524920 81.933434
4.160000 2.040000 -3.800000 -3.196754 14.402155 217.641312
4.160000 2.080000 -4.200000 -18.861435 21.967167 838.310181
4.160000 2.080000 -4.160000 -23.767006 18.321518 900.548584
4.160000 2.080000 -4.120000 -26.985222 17.045029 1018.735229
4.160000 2.080000 -4.080000 -34.582165 15.568182 1438.294434
4.160000 2.080000 -4.040000 -44.606674 5.661866 2021.812134
4.160000 2.080000 -4.000000 -45.849304 -14.156714 2302.571289
4.160000 2.080000 -3.960000 -30.173937 -32.208645 1947.863281
4.160000 2.080000 -3.920000 -4.620732 -33.283871 1129.167236
4.160000 2.080000 -3.880000 12.315846 -15.311279 386.115356
4.160000 2.080000 -3.840000 8.644669 6.091258 111.833710
4.160000 2.080000 -3.800000 -8.001689 12.295795 215.213608
4.160000 2.120000 -4.200000 -27.522263 3.691731 771.103821
4.160000 2.120000 -4.160000 -29.101559 -5.240758 874.366272
4.160000 2.120000 -4.120000 -26.804922 -11.207720 844.116821
4.160000 2.120000 -4.080000 -25.109604 -15.744463 878.380310
4.160000 2.120000 -4.040000 -22.290817 -22.812397 1017.286011
4.160000 2.120000 -4.000000 -12.817856 -30.357834 1085.895508
4.160000 2.120000 -3.960000 3.246580 -30.070436 914.771423
4.160000 2.120000 -3.920000 16.404545 -17.104992 561.689819
4.160000 2.120000 -3.880000 16.102156 1.732125 262.279663
4.160000 2.120000 -3.840000 2.850060 12.637956 167.840775
4.160000 2.120000 -3.800000 -10.570876 8.839429 189.878937
4.160000 2.160000 -4.200000 -19.856461 -15.350485 629.916382
4.160000 2.160000 -4.160000 -15.278650 -25.209419 868.951965
4.160000 2.160000 -4.120000 -5.781481 -30.090946 938.890564
4.160000 2.160000 -4.080000 4.356829 -29.624123 896.570557
4.160000 2.160000 -4.040000 13.521973 -25.198364 817.801331
4.160000 2.160000 -4.000000 20.992058 -16.678030 718.823181
4.160000 2.160000 -3.960000 23.865940 -3.893072 584.739075
4.160000 2.160000 -3.920000 18.525909 9.521147 433.861572
4.160000 2.160000 -3.880000 5.885550 16.676617 312.749268
4.160000 2.160000 -3.840000 -6.744392 13.737268 234.199371
4.160000 2.160000 -3.800000 -11.533164 5.128180 159.312103
4.160000 2.200000 -4.200000 -0.581893 -21.847345 477.645081
4.160000 2.200000 -4.160000 8.109849 -27.447140 819.115112
4.160000 2.200000 -4.120000 20.806549 -26.359104 1127.714844
4.160000 2.200000 -4.080000 32.210144 -16.914623 1323.597900
4.160000 2.200000 -4.040000 36.997551 -1.126961 1370.088745
4.160000 2.200000 -4.000000 31.918583 15.815985 1268.941284
4.160000 2.200000 -3.960000 17.808378 27.164316 1055.038452
4.160000 2.200000 -3.920000 0.379257 28.009802 784.692871
4.160000 2.200000 -3.880000 -12.252644 19.092699 514.658447
4.160000 2.200000 -3.840000 -15.192286 7.336110 284.624054
4.160000 2.200000 -3.800000 -11.075713 0.850423 123.394646
4.200000 1.800000 -4.200000 -14.417681 6.753368 253.477509
4.200000 1.800000 -4.160000 -9.369186 -2.291011 93.030388
4.200000 1.800000 -4.120000 4.046866 0.186738 16.411999
4.200000 1.800000 -4.080000 9.685145 17.759602 409.205475
4.200000 1.800000 -4.040000 -4.650321 36.586807 1360.219971
4.200000 1.800000 -4.000000 -32.816105 37.395531 2475.322266
4.200000 1.800000 -3.960000 -53.959522 14.694296 3127.552490
4.200000 1.800000 -3.920000 -51.585991 -16.714851 2940.500732
4.200000 1.800000 -3.880000 -28.833981 -35.164349 2067.929688
4.200000 1.800000 -3.840000 -4.504099 -31.884079 1036.881348
4.200000 1.800000 -3.800000 5.589028 -17.115307 324.170959
4.200000 1.840000 -4.200000 -12.783144 -6.099656 200.614563
4.200000 1.840000 -4.160000 -2.584060 -8.914051 86.137672
4.200000 1.840000 -4.120000 6.294003 1.984040 43.550884
4.200000 1.840000 -4.080000 0.316627 19.305927 372.819092
4.200000 1.840000 -4.040000 -21.061497 26.184496 1129.214478
4.200000 1.840000 -4.000000 -42.779610 12.513954 1986.693970
4.200000 1.840000 -3.960000 -47.400017 -14.366840 2453.167480
4.200000 1.840000 -3.920000 -31.228361 -35.830017 2259.000732
4.200000 1.840000 -3.880000 -7.053427 -38.838333 1558.166992
4.200000 1.840000 -3.840000 8.611099 -26.470875 774.858276
4.200000 1.840000 -3.800000 10.278473 -12.361022 258.441864
4.200000 1.880000 -4.200000 0.080554 -13.635497 185.933273
4.200000 1.880000 -4.160000 8.465106 -7.326805 125.340088
4.200000 1.880000 -4.120000 7.045906 5.916817 84.653511
4.200000 1.880000 -4.080000 -6.990755 13.941463 243.235062
4.200000 1.880000 -4.040000 -24.292931 7.254679 642.776855
4.200000 1.880000 -4.000000 -31.232258 -11.556602 1109.009033
4.200000 1.880000 -3.960000 -22.081259 -29.770576 1373.869263
4.200000 1.880000 -3.920000 -3.589344 -35.719746 1288.783691
4.200000 1.880000 -3.880000 11.872787 -28.106424 930.934143
4.200000 1.880000 -3.840000 17.064003 -15.011076 516.512573
4.200000 1.880000 -3.800000 13.970369 -5.056635 220.740784
4.200000 1.920000 -4.200000 16.153408 -7.234412 313.269318
4.200000 1.920000 -4.160000 15.343773 4.411808 254.895416
4.200000 1.920000 -4.120000 4.399612 11.362821 148.470276
4.200000 1.920000 -4.080000 -8.664450 6.890819 122.556061
4.200000 1.920000 -4.040000 -13.863481 -6.199039 230.624176
4.200000 1.920000 -4.000000 -7.855844 -18.556105 406.043274
4.200000 1.920000 -3.960000 4.288710 -22.640240 530.973450
4.200000 1.920000 -3.920000 14.713545 -17.955765 538.897888
4.200000 1.920000 -3.880000 19.143570 -9.185195 450.844055
4.200000 1.920000 -3.840000 18.087574 -0.866263 327.910736
4.200000 1.920000 -3.800000 13.597288 5.204635 211.974472
4.200000 1.960000 -4.200000 22.099030 11.745519 626.324341
4.200000 1.960000 -4.160000 9.941895 20.102802 502.963928
4.200000 1.960000 -4.120000 -3.662192 15.412124 250.945206
4.200000 1.960000 -4.080000 -7.796489 2.654060 67.829269
4.200000 1.960000 -4.040000 -1.024542 -7.182773 52.641914
4.200000 1.960000 -4.000000 9.082157 -7.902620 144.936981
4.200000 1.960000 -3.960000 14.844603 -2.214243 225.265106
4.200000 1.960000 -3.920000 15.158024 3.759829 243.901993
4.200000 1.960000 -3.880000 13.422453 7.637572 238.494751
4.200000 1.960000 -3.840000 11.134007 11.149786 248.283829
4.200000 1.960000 -3.800000 6.108019 14.637162 251.554413
4.200000 2.000000 -4.200000 10.215918 30.543880 1037.293579
4.200000 2.000000 -4.160000 -8.125143 27.957874 847.660706
4.200000 2.000000 -4.120000 -16.014515 12.718435 418.223267
4.200000 2.000000 -4.080000 -8.928278 -0.683629 80.181496
4.200000 2.000000 -4.040000 3.818797 -2.030409 18.705774
4.200000 2.000000 -4.000000 10.416564 5.979484 144.259033
4.200000 2.000000 -3.960000 8.235188 13.555067 251.558151
4.200000 2.000000 -3.920000 3.413706 15.560217 253.773727
4.200000 2.000000 -3.880000 1.031953 15.142010 230.345383
4.200000 2.000000 -3.840000 -0.963883 16.418776 270.505280
4.200000 2.000000 -3.800000 -6.756386 17.022320 335.408112
4.200000 2.040000 -4.200000 -13.403328 34.176311 1347.669434
4.200000 2.040000 -4.160000 -28.778004 19.251133 1198.779663
4.200000 2.040000 -4.120000 -26.007193 -0.375467 676.515076
4.200000 2.040000 -4.080000 -10.597786 -8.492602 184.437363
4.200000 2.040000 -4.040000 2.358891 -1.912159 9.220721
4.200000 2.040000 -4.000000 3.971484 9.438992 104.867249
4.200000 2.040000 -3.960000 -2.044010 15.277162 237.569641
4.200000 2.040000 -3.920000 -7.339813 14.827230 273.719604
4.200000 2.040000 -3.880000 -9.562693 13.558486 275.277618
4.200000 2.040000 -3.840000 -12.614424 13.303051 336.094849
4.200000 2.040000 -3.800000 -17.808508 9.594926 409.205536
4.200000 2.080000 -4.200000 -32.154694 18.351023 1370.684326
4.200000 2.080000 -4.160000 -37.562237 -3.379513 1422.342773
4.200000 2.080000 -4.120000 -24.560612 -20.278212 1014.429504
4.200000 2.080000 -4.080000 -5.375980 -20.928879 466.919128
4.200000 2.080000 -4.040000 5.607543 -8.954088 111.620239
4.200000 2.080000 -4.000000 4.437168 3.834081 34.388641
4.200000 2.080000 -3.960000 -2.734388 9.954483 106.568619
4.200000 2.080000 -3.920000 -9.301954 10.435883 195.433990
4.200000 2.080000 -3.880000 -14.250546 8.735140 279.380707
4.200000 2.080000 -3.840000 -18.633776 4.695354 369.263947
4.200000 2.080000 -3.800000 -19.842018 -3.124272 403.466766
4.200000 2.120000 -4.200000 -32.231380 -5.731425 1071.711182
4.200000 2.120000 -4.160000 -27.013748 -26.022429 1406.909424
4.200000 2.120000 -4.120000 -8.135430 -35.741333 1343.628052
4.200000 2.120000 -4.080000 11.204731 -29.215427 979.087219
4.200000 2.120000 -4.040000 19.908201 -12.741903 558.692566
4.200000 2.120000 -4.000000 16.209648 3.100803 272.367676
4.200000 2.120000 -3.960000 5.355644 11.728874 166.249405
4.200000 2.120000 -3.920000 -6.562627 12.153958 190.786774
4.200000 2.120000 -3.880000 -15.354477 6.008341 271.860138
4.200000 2.120000 -3.840000 -17.813702 -3.887510 332.440704
4.200000 2.120000 -3.800000 -12.172558 -12.356100 300.844360
4.200000 2.160000 -4.200000 -14.542193 -20.026880 612.551331
4.200000 2.160000 -4.160000 -3.750806 -33.523537 1137.896118
4.200000 2.160000 -4.120000 15.734185 -35.533096 1510.165527
4.200000 2.160000 -4.080000 32.665569 -22.945644 1593.541992
4.200000 2.160000 -4.040000 37.452988 -1.764884 1405.841187
4.200000 2.160000 -4.000000 27.741043 17.409111 1072.642578
4.200000 2.160000 -3.960000 8.903718 25.640165 736.694275
4.200000 2.160000 -3.920000 -9.276679 20.079662 489.249603
4.200000 2.160000 -3.880000 -17.734234 5.367331 343.311279
4.200000 2.160000 -3.840000 -13.309178 -8.601043 251.112167
4.200000 2.160000 -3.800000 -1.374414 -12.528525 158.852951
4.200000 2.200000 -4.200000 5.788694 -14.738441 250.730621
4.200000 2.200000 -4.160000 15.835882 -21.751484 723.902222
4.200000 2.200000 -4.120000 32.277077 -18.562229 1386.366089
4.200000 2.200000 -4.080000 44.699734 -1.705448 2000.974731
4.200000 2.200000 -4.040000 42.565155 22.471998 2316.783203
4.200000 2.200000 -4.000000 23.555609 40.602226 2203.407471
4.200000 2.200000 -3.960000 -3.052777 41.386017 1722.121826
4.200000 2.200000 -3.920000 -21.885563 24.602190 1084.245605
4.200000 2.200000 -3.880000 -22.792866 2.334713 524.965576
4.200000 2.200000 -3.840000 -9.103621 -9.907839 181.041168
4.200000 2.200000 -3.800000 4.858650 -5.738590 56.537903
