#kx 	ky 	kz 	real 	imag 	intensity
2.800000 2.800000 -7.200000 -24.851076 -21.445141 1077.470093
2.800000 2.800000 -7.160000 -4.404215 -39.928017 1613.643555
2.800000 2.800000 -7.120000 23.161247 -34.594162 1733.199463
2.800000 2.800000 -7.080000 34.993298 -10.365231 1331.968872
2.800000 2.800000 -7.040000 23.343445 11.208837 670.554443
2.800000 2.800000 -7.000000 1.906495 12.963110 171.676941
2.800000 2.800000 -6.960000 -8.857727 -2.450863 84.466057
2.800000 2.800000 -6.920000 -1.511399 -17.541264 309.980255
2.800000 2.800000 -6.880000 13.458821 -18.696726 530.707458
2.800000 2.800000 -6.840000 20.994392 -8.522464 513.396912
2.800000 2.800000 -6.800000 17.414856 0.009965 303.277313
2.800000 2.840000 -7.200000 -6.049565 -34.636734 1236.300659
2.800000 2.840000 -7.160000 19.840725 -40.297630 2017.553467
2.800000 2.840000 -7.120000 41.090168 -24.674469 2297.231201
2.800000 2.840000 -7.080000 43.284878 -0.601139 1873.942017
2.800000 2.840000 -7.040000 29.005020 13.790058 1031.456909
2.800000 2.840000 -7.000000 13.593884 11.382988 314.366089
2.800000 2.840000 -6.960000 9.814478 0.490601 96.564667
2.800000 2.840000 -6.920000 17.110836 -5.494684 322.972260
2.800000 2.840000 -6.880000 25.133690 -1.361847 633.557007
2.800000 2.840000 -6.840000 25.920799 7.046691 721.543701
2.800000 2.840000 -6.800000 21.215059 11.532892 583.086304
2.800000 2.880000 -7.200000 13.470270 -27.929394 961.499207
2.800000 2.880000 -7.160000 34.992607 -22.780704 1743.443115
2.800000 2.880000 -7.120000 46.654228 -4.288972 2195.012207
2.800000 2.880000 -7.080000 42.894302 15.079123 2067.301025
2.800000 2.880000 -7.040000 29.941803 24.468983 1495.242676
2.800000 2.880000 -7.000000 18.794487 22.781322 872.221375
2.800000 2.880000 -6.960000 15.516747 17.229959 537.640930
2.800000 2.880000 -6.920000 17.786348 15.220942 548.031250
2.800000 2.880000 -6.880000 19.538080 18.148037 711.087830
2.800000 2.880000 -6.840000 17.597828 22.281399 806.144287
2.800000 2.880000 -6.800000 13.622186 24.190790 770.758301
2.800000 2.920000 -7.200000 17.961990 -11.137093 446.667908
2.800000 2.920000 -7.160000 31.838255 -2.568459 1020.271484
2.800000 2.920000 -7.120000 36.887367 13.300959 1537.593384
2.800000 2.920000 -7.080000 31.178398 27.964893 1754.127808
2.800000 2.920000 -7.040000 19.527515 35.007980 1606.882568
2.800000 2.920000 -7.000000 9.018839 34.031254 1239.465698
2.800000 2.920000 -6.960000 3.748912 29.478628 883.043823
2.800000 2.920000 -6.920000 2.906914 26.270733 698.601562
2.800000 2.920000 -6.880000 2.907083 26.192322 694.488831
2.800000 2.920000 -6.840000 0.990279 27.619976 763.843750
2.800000 2.920000 -6.800000 -2.831847 27.977530 790.761536
2.800000 2.960000 -7.200000 8.129920 -1.264504 67.694565
2.800000 2.960000 -7.160000 17.619232 6.046015 346.991638
2.800000 2.960000 -7.120000 19.876350 18.933315 753.539734
2.800000 2.960000 -7.080000 13.047830 30.299747 1088.320557
2.800000 2.960000 -7.040000 1.404169 34.338066 1181.074463
2.800000 2.960000 -7.000000 -8.244969 30.814894 1017.537231
2.800000 2.960000 -6.960000 -12.012806 24.558140 747.409729
2.800000 2.960000 -6.920000 -11.477865 20.806337 564.645081
2.800000 2.960000 -6.880000 -11.239344 20.720737 555.671814
2.800000 2.960000 -6.840000 -14.053782 21.157463 645.147034
2.800000 2.960000 -6.800000 -18.311964 18.586094 680.770935
2.800000 3.000000 -7.200000 -2.227163 -4.973640 29.697351
2.800000 3.000000 -7.160000 6.081058 2.168113 41.679974
2.800000 3.000000 -7.120000 5.770663 13.420103 213.399719
2.800000 3.000000 -7.080000 -2.683164 20.262436 417.765686
2.800000 3.000000 -7.040000 -12.167795 18.661217 496.296234
2.800000 3.000000 -7.000000 -16.027014 12.306175 408.307129
2.800000 3.000000 -6.960000 -14.226858 8.120871 268.352020
2.800000 3.000000 -6.920000 -12.404655 8.955961 234.084717
2.800000 3.000000 -6.880000 -15.150546 11.037875 351.373718
2.800000 3.000000 -6.840000 -20.804686 8.701180 508.545471
2.800000 3.000000 -6.800000 -23.261147 1.099884 542.290649
2.800000 3.040000 -7.200000 -2.357782 -13.823223 196.640640
2.800000 3.040000 -7.160000 3.064145 -4.619968 30.733089
2.800000 3.040000 -7.120000 -1.334038 3.107906 11.438735
2.800000 3.040000 -7.080000 -8.611580 2.333732 79.605614
2.800000 3.040000 -7.040000 -9.866958 -3.954122 112.991936
2.800000 3.040000 -7.000000 -4.144515 -6.746305 62.689644
2.800000 3.040000 -6.960000 0.734015 -1.549057 2.938355
2.800000 3.040000 -6.920000 -2.737576 6.200163 45.936344
2.800000 3.040000 -6.880000 -12.826400 6.935377 212.615967
2.800000 3.040000 -6.840000 -19.728958 -2.342421 394.718719
2.800000 3.040000 -6.800000 -15.769997 -14.140562 448.648285
2.800000 3.080000 -7.200000 4.645802 -15.915116 274.874390
2.800000 3.080000 -7.160000 3.290030 -7.277527 63.786697
2.800000 3.080000 -7.120000 -2.967649 -7.775633 69.267410
2.800000 3.080000 -7.080000 -2.098639 -15.672357 250.027039
2.800000 3.080000 -7.040000 9.105898 -18.875273 439.193298
2.800000 3.080000 -7.000000 20.324181 -8.984800 493.798950
2.800000 3.080000 -6.960000 18.506731 8.051298 407.322479
2.800000 3.080000 -6.920000 2.665771 16.913271 293.165070
2.800000 3.080000 -6.880000 -13.708661 8.762625 264.710968
2.800000 3.080000 -6.840000 -15.783942 -9.018798 330.471558
2.800000 3.080000 -6.800000 -2.367532 -19.823902 398.592285
2.800000 3.120000 -7.200000 7.431132 -9.876813 152.773163
2.800000 3.120000 -7.160000 0.122664 -8.795349 77.373215
2.800000 3.120000 -7.120000 -0.323847 -18.962402 359.677582
2.800000 3.120000 -7.080000 14.255376 -26.253281 892.450500
2.800000 3.120000 -7.040000 33.722080 -15.949997 1391.581055
2.800000 3.120000 -7.000000 38.584190 9.617112 1581.228638
2.800000 3.120000 -6.960000 20.592058 30.883963 1377.852051
2.800000 3.120000 -6.920000 -7.047585 29.804981 938.005371
2.800000 3.120000 -6.880000 -21.530825 8.239679 531.468750
2.800000 3.120000 -6.840000 -12.541917 -13.540025 340.631958
2.800000 3.120000 -6.800000 8.295196 -16.777386 350.290955
2.800000 3.160000 -7.200000 0.765093 -5.660308 32.624451
2.800000 3.160000 -7.160000 -4.418003 -16.310829 285.561890
2.800000 3.160000 -7.120000 8.461197 -29.592440 947.304321
2.800000 3.160000 -7.080000 33.946304 -25.047209 1779.714233
2.800000 3.160000 -7.040000 49.253914 2.908859 2434.409424
2.800000 3.160000 -7.000000 36.518242 35.979790 2628.127441
2.800000 3.160000 -6.960000 2.229121 47.826363 2292.329834
2.800000 3.160000 -6.920000 -27.178566 29.490038 1608.336792
2.800000 3.160000 -6.880000 -29.967587 -1.687028 900.902283
2.800000 3.160000 -6.840000 -9.032684 -18.977125 441.720673
2.800000 3.160000 -6.800000 12.791880 -11.495650 295.782166
2.800000 3.200000 -7.200000 -7.935466 -12.173544 211.166794
2.800000 3.200000 -7.160000 -1.429275 -29.867619 894.117493
2.800000 3.200000 -7.120000 24.364052 -34.723076 1799.299072
2.800000 3.200000 -7.080000 49.125008 -12.553699 2570.861816
2.800000 3.200000 -7.040000 48.003990 25.746849 2967.283203
2.800000 3.200000 -7.000000 16.481863 51.532860 2927.287598
2.800000 3.200000 -6.960000 -23.208334 44.514648 2520.180664
2.800000 3.200000 -6.920000 -41.712124 11.925342 1882.114990
2.800000 3.200000 -6.880000 -29.046062 -18.566664 1188.394775
2.800000 3.200000 -6.840000 -1.883177 -24.822962 619.725769
2.800000 3.200000 -6.800000 14.513262 -8.924686 290.284790
2.840000 2.800000 -7.200000 13.497382 -31.550440 1177.609619
2.840000 2.800000 -7.160000 38.296741 -24.807331 2082.043945
2.840000 2.800000 -7.120000 48.884281 0.438225 2389.864990
2.840000 2.800000 -7.080000 36.172504 24.053764 1887.033691
2.840000 2.800000 -7.040000 12.391837 28.217236 949.770020
2.840000 2.800000 -7.000000 -1.917339 14.204899 205.455338
2.840000 2.800000 -6.960000 1.751911 -0.891185 3.863403
2.840000 2.800000 -6.920000 13.439671 -2.873693 188.882858
2.840000 2.800000 -6.880000 17.698387 5.925483 348.344269
2.840000 2.800000 -6.840000 10.711262 11.813389 254.287277
2.840000 2.800000 -6.800000 2.987149 6.569207 52.077541
2.840000 2.840000 -7.200000 28.642490 -19.640118 1206.126465
2.840000 2.840000 -7.160000 48.294525 -6.474237 2374.276855
2.840000 2.840000 -7.120000 53.066502 18.220760 3148.049805
2.840000 2.840000 -7.080000 40.126015 38.774178 3113.533936
2.840000 2.840000 -7.040000 19.770390 44.715500 2390.344238
2.840000 2.840000 -7.000000 4.620113 38.129070 1475.171509
2.840000 2.840000 -6.960000 -0.970753 28.447121 810.181030
2.840000 2.840000 -6.920000 -1.284431 22.076000 488.999542
2.840000 2.840000 -6.880000 -1.336629 18.193953 332.806488
2.840000 2.840000 -6.840000 -0.914022 13.624142 186.452667
2.840000 2.840000 -6.800000 3.092271 9.248055 95.088654
2.840000 2.880000 -7.200000 27.279060 -0.523342 744.421021
2.840000 2.880000 -7.160000 41.993023 13.913061 1956.987183
2.840000 2.880000 -7.120000 44.025211 38.027939 3384.343262
2.840000 2.880000 -7.080000 29.363564 59.944290 4455.536621
2.840000 2.880000 -7.040000 3.876369 68.693405 4733.810059
2.840000 2.880000 -7.000000 -20.946795 60.849056 4141.375977
2.840000 2.880000 -6.960000 -35.072929 41.564720 2957.736328
2.840000 2.880000 -6.920000 -34.918396 20.613194 1644.198242
2.840000 2.880000 -6.880000 -23.996513 6.817973 622.317383
2.840000 2.880000 -6.840000 -9.992243 4.062169 116.346130
2.840000 2.880000 -6.800000 -0.446867 10.342875 107.174744
2.840000 2.920000 -7.200000 11.367946 7.971596 192.776535
2.840000 2.920000 -7.160000 24.673664 22.777252 1127.592896
2.840000 2.920000 -7.120000 23.475426 48.955242 2947.711426
2.840000 2.920000 -7.080000 1.083632 71.385559 5097.072266
2.840000 2.920000 -7.040000 -34.387283 73.708771 6615.468262
2.840000 2.920000 -7.000000 -63.983002 51.199417 6715.205078
2.840000 2.920000 -6.960000 -71.233032 15.549229 5315.923340
2.840000 2.920000 -6.920000 -54.308464 -13.132853 3121.881104
2.840000 2.920000 -6.880000 -26.893402 -20.962357 1162.675415
2.840000 2.920000 -6.840000 -7.096135 -9.522930 141.041321
2.840000 2.920000 -6.800000 -4.006787 7.569372 73.349731
2.840000 2.960000 -7.200000 -2.609922 -0.978338 7.768841
2.840000 2.960000 -7.160000 9.872034 17.683632 410.167908
2.840000 2.960000 -7.120000 0.782307 45.574760 2077.670898
2.840000 2.960000 -7.080000 -32.075836 60.215412 4654.754883
2.840000 2.960000 -7.040000 -70.262093 45.020081 6963.569336
2.840000 2.960000 -7.000000 -87.844223 4.953608 7741.145508
2.840000 2.960000 -6.960000 -72.572708 -35.698647 6541.191406
2.840000 2.960000 -6.920000 -36.106857 -52.526859 4062.776367
2.840000 2.960000 -6.880000 -3.856289 -40.160480 1627.735107
2.840000 2.960000 -6.840000 6.077120 -14.442142 245.506866
2.840000 2.960000 -6.800000 -4.307714 3.221944 28.937321
2.840000 3.000000 -7.200000 -1.058280 -16.342789 268.206696
2.840000 3.000000 -7.160000 5.547031 8.067743 95.858047
2.840000 3.000000 -7.120000 -14.743960 31.044327 1181.134644
2.840000 3.000000 -7.080000 -51.149330 28.521358 3429.721680
2.840000 3.000000 -7.040000 -75.856087 -4.694292 5776.182617
2.840000 3.000000 -7.000000 -67.592545 -48.062576 6878.763184
2.840000 3.000000 -6.960000 -30.581491 -71.871887 6100.795898
2.840000 3.000000 -6.920000 9.124650 -62.277439 3961.738770
2.840000 3.000000 -6.880000 26.357367 -31.632595 1695.331787
2.840000 3.000000 -6.840000 17.026705 -5.335226 318.373291
2.840000 3.000000 -6.800000 -2.304991 0.969989 6.253862
2.840000 3.040000 -7.200000 12.750318 -21.402580 620.641052
2.840000 3.040000 -7.160000 7.490591 3.722235 69.963982
2.840000 3.040000 -7.120000 -19.714785 12.724782 550.592773
2.840000 3.040000 -7.080000 -45.482849 -7.653742 2127.269287
2.840000 3.040000 -7.040000 -44.723145 -44.602898 3989.578125
2.840000 3.040000 -7.000000 -13.930813 -69.407036 5011.403809
2.840000 3.040000 -6.960000 25.172899 -62.896767 4589.678223
2.840000 3.040000 -6.920000 45.212112 -31.844101 3058.181885
2.840000 3.040000 -6.880000 36.819092 -1.136606 1356.937378
2.840000 3.040000 -6.840000 14.046611 9.476957 287.119995
2.840000 3.040000 -6.800000 -1.802208 0.988362 4.224813
2.840000 3.080000 -7.200000 22.932106 -11.517735 658.539673
2.840000 3.080000 -7.160000 6.470964 4.323851 60.569069
2.840000 3.080000 -7.120000 -15.920345 -3.837822 268.186279
2.840000 3.080000 -7.080000 -19.966141 -30.459822 1326.447510
2.840000 3.080000 -7.040000 2.719508 -51.232048 2632.118408
2.840000 3.080000 -7.000000 35.823349 -45.664867 3368.592285
2.840000 3.080000 -6.960000 53.324722 -16.282988 3108.661865
2.840000 3.080000 -6.920000 43.362907 14.380819 2087.149658
2.840000 3.080000 -6.880000 17.597494 25.274086 948.451233
2.840000 3.080000 -6.840000 -2.014108 14.943012 227.350235
2.840000 3.080000 -6.800000 -4.213764 -0.740916 18.304760
2.840000 3.120000 -7.200000 18.418179 1.560310 341.663879
2.840000 3.120000 -7.160000 0.324814 1.447518 2.200813
2.840000 3.120000 -7.120000 -5.930664 -16.406200 304.336182
2.840000 3.120000 -7.080000 10.331387 -32.305969 1150.413208
2.840000 3.120000 -7.040000 37.082867 -26.323462 2068.063721
2.840000 3.120000 -7.000000 50.335358 1.586474 2536.165039
2.840000 3.120000 -6.960000 37.136909 30.856030 2331.244629
2.840000 3.120000 -6.920000 7.694786 39.714706 1636.467651
2.840000 3.120000 -6.880000 -15.134590 25.059921 857.055420
2.840000 3.120000 -6.840000 -17.543779 3.222830 318.170807
2.840000 3.120000 -6.800000 -5.564681 -7.629398 89.173393
2.840000 3.160000 -7.200000 4.569289 2.899979 29.288280
2.840000 3.160000 -7.160000 -3.022604 -9.812512 105.421539
2.840000 3.160000 -7.120000 8.858098 -23.319424 622.261414
2.840000 3.160000 -7.080000 31.791613 -18.231033 1343.077148
2.840000 3.160000 -7.040000 43.414413 8.141502 1951.095337
2.840000 3.160000 -7.000000 28.979753 37.212608 2224.604248
2.840000 3.160000 -6.960000 -3.597621 45.830559 2113.383057
2.840000 3.160000 -6.920000 -30.592058 27.838573 1710.860107
2.840000 3.160000 -6.880000 -34.309925 -0.952829 1178.078735
2.840000 3.160000 -6.840000 -17.982262 -18.657606 671.468018
2.840000 3.160000 -6.800000 0.256657 -17.188030 295.494263
2.840000 3.200000 -7.200000 -3.091783 -9.587146 101.472488
2.840000 3.200000 -7.160000 5.095924 -23.269663 567.445679
2.840000 3.200000 -7.120000 26.030762 -21.790447 1152.424194
2.840000 3.200000 -7.080000 39.707191 1.070694 1577.807373
2.840000 3.200000 -7.040000 28.970148 30.539827 1771.950439
2.840000 3.200000 -7.000000 -3.037244 42.829132 1843.559448
2.840000 3.200000 -6.960000 -34.185799 26.810850 1887.490479
2.840000 3.200000 -6.920000 -42.736469 -5.692621 1858.811646
2.840000 3.200000 -6.880000 -25.999992 -31.006180 1637.382812
2.840000 3.200000 -6.840000 -0.568409 -34.582661 1196.283569
2.840000 3.200000 -6.800000 14.628445 -21.422907 672.932373
2.880000 2.800000 -7.200000 47.597122 -2.804732 2273.352539
2.880000 2.800000 -7.160000 54.067181 25.119526 3554.250488
2.880000 2.800000 -7.120000 35.272320 50.377277 3782.006836
2.880000 2.800000 -7.080000 4.349425 52.678169 2793.906982
2.880000 2.800000 -7.040000 -14.680012 32.966663 1302.303711
2.880000 2.800000 -7.000000 -10.958115 11.735224 257.795746
2.880000 2.800000 -6.960000 3.578339 7.247780 65.334816
2.880000 2.800000 -6.920000 8.737337 17.361073 377.747894
2.880000 2.800000 -6.880000 -1.742036 24.062704 582.048401
2.880000 2.800000 -6.840000 -14.463182 14.748467 426.700928
2.880000 2.800000 -6.800000 -12.519285 -3.609694 169.762390
2.880000 2.840000 -7.200000 37.122337 21.370626 1834.771484
2.880000 2.840000 -7.160000 37.785789 42.491207 3233.268555
2.880000 2.840000 -7.120000 23.088951 60.971546 4250.629395
2.880000 2.840000 -7.080000 0.310207 66.706367 4449.835449
2.880000 2.840000 -7.040000 -19.581177 59.618210 3937.753418
2.880000 2.840000 -7.000000 -31.402954 46.606716 3158.331543
2.880000 2.840000 -6.960000 -36.904587 33.030125 2452.937500
2.880000 2.840000 -6.920000 -38.388100 19.116035 1839.069092
2.880000 2.840000 -6.880000 -34.171932 4.455397 1187.571533
2.880000 2.840000 -6.840000 -21.867531 -6.754339 523.809998
2.880000 2.840000 -6.800000 -4.863270 -7.724795 83.323860
2.880000 2.880000 -7.200000 10.879735 28.475355 929.214478
2.880000 2.880000 -7.160000 15.104949 45.230385 2273.947266
2.880000 2.880000 -7.120000 4.528074 67.796600 4616.882324
2.880000 2.880000 -7.080000 -23.733467 82.413353 7355.238281
2.880000 2.880000 -7.040000 -60.484200 76.221031 9467.984375
2.880000 2.880000 -7.000000 -88.564102 46.738232 10028.062500
2.880000 2.880000 -6.960000 -93.271851 5.186977 8726.541992
2.880000 2.880000 -6.920000 -72.202194 -29.410362 6078.125977
2.880000 2.880000 -6.880000 -37.369926 -41.924065 3154.138672
2.880000 2.880000 -6.840000 -7.590212 -30.621326 995.276978
2.880000 2.880000 -6.800000 3.783333 -7.453881 69.873955
2.880000 2.920000 -7.200000 -9.975065 11.864309 240.263763
2.880000 2.920000 -7.160000 -0.933228 34.104950 1164.018555
2.880000 2.920000 -7.120000 -18.395443 65.135269 4580.996094
2.880000 2.920000 -7.080000 -64.169189 77.071968 10057.773438
2.880000 2.920000 -7.040000 -114.164261 49.394039 15473.250000
2.880000 2.920000 -7.000000 -134.357330 -10.905754 18170.828125
2.880000 2.920000 -6.960000 -107.993195 -71.086777 16715.859375
2.880000 2.920000 -6.920000 -50.212746 -96.773102 11886.353516
2.880000 2.920000 -6.880000 3.347429 -78.181160 6123.499023
2.880000 2.920000 -6.840000 24.300529 -35.828857 1874.222778
2.880000 2.920000 -6.800000 11.378454 -1.680200 132.292297
2.880000 2.960000 -7.200000 -7.951768 -13.588398 247.875183
2.880000 2.960000 -7.160000 -3.726423 20.055229 416.098450
2.880000 2.960000 -7.120000 -38.624027 50.225739 4014.440186
2.880000 2.960000 -7.080000 -97.173340 40.353790 11071.086914
2.880000 2.960000 -7.040000 -136.189697 -18.895866 18904.687500
2.880000 2.960000 -7.000000 -119.939217 -95.856163 23573.820312
2.880000 2.960000 -6.960000 -52.366524 -140.750244 22552.882812
2.880000 2.960000 -6.920000 24.175747 -126.196625 16510.054688
2.880000 2.960000 -6.880000 63.437317 -68.738388 8749.258789
2.880000 2.960000 -6.840000 51.609375 -12.369239 2816.525635
2.880000 2.960000 -6.800000 13.320378 9.263950 263.253265
2.880000 3.000000 -7.200000 13.628305 -24.959860 808.725342
2.880000 3.000000 -7.160000 1.329416 13.759069 191.079346
2.880000 3.000000 -7.120000 -48.545624 26.603657 3064.432129
2.880000 3.000000 -7.080000 -98.684883 -13.196266 9912.847656
2.880000 3.000000 -7.040000 -101.709808 -88.536362 18183.572266
2.880000 3.000000 -7.000000 -43.130032 -147.614166 23650.140625
2.880000 3.000000 -6.960000 42.588726 -146.629242 23313.933594
2.880000 3.000000 -6.920000 99.624268 -87.195663 17528.078125
2.880000 3.000000 -6.880000 97.032196 -13.610043 9600.480469
2.880000 3.000000 -6.840000 51.061947 26.406357 3304.618164
2.880000 3.000000 -6.800000 5.103419 19.834373 419.447266
2.880000 3.040000 -7.200000 33.789936 -13.111958 1313.683228
2.880000 3.040000 -7.160000 3.257946 15.593088 253.758606
2.880000 3.040000 -7.120000 -45.153915 2.148812 2043.493530
2.880000 3.040000 -7.080000 -65.661522 -54.822639 7316.957031
2.880000 3.040000 -7.040000 -29.187031 -115.084015 14096.212891
2.880000 3.040000 -7.000000 47.019691 -129.038147 18861.695312
2.880000 3.040000 -6.960000 111.183922 -81.398987 18987.660156
2.880000 3.040000 -6.920000 120.661171 -4.961784 14583.737305
2.880000 3.040000 -6.880000 76.821739 48.496456 8253.486328
2.880000 3.040000 -6.840000 19.415367 51.902229 3070.797852
2.880000 3.040000 -6.800000 -11.352703 20.453297 547.221191
2.880000 3.080000 -7.200000 34.365326 9.161903 1264.916016
2.880000 3.080000 -7.160000 -2.660664 16.395824 275.902191
2.880000 3.080000 -7.120000 -31.246288 -15.926924 1229.997437
2.880000 3.080000 -7.080000 -18.222818 -64.911346 4545.554199
2.880000 3.080000 -7.040000 35.793396 -87.320709 8906.073242
2.880000 3.080000 -7.000000 93.059845 -57.954063 12018.808594
2.880000 3.080000 -6.960000 110.278954 6.474834 12203.371094
2.880000 3.080000 -6.920000 75.952354 61.334309 9530.658203
2.880000 3.080000 -6.880000 18.443336 72.662231 5619.956543
2.880000 3.080000 -6.840000 -21.393492 43.579266 2356.833740
2.880000 3.080000 -6.800000 -25.072199 5.500649 658.872314
2.880000 3.120000 -7.200000 16.974028 20.629196 713.681335
2.880000 3.120000 -7.160000 -9.969368 8.207899 166.757904
2.880000 3.120000 -7.120000 -12.440388 -24.373013 748.807007
2.880000 3.120000 -7.080000 18.124138 -46.630463 2502.884521
2.880000 3.120000 -7.040000 59.645916 -33.078598 4651.829102
2.880000 3.120000 -7.000000 77.118980 12.123356 6094.312500
2.880000 3.120000 -6.960000 53.654663 57.153084 6145.297852
2.880000 3.120000 -6.920000 5.392612 70.064522 4938.117188
2.880000 3.120000 -6.880000 -33.648357 45.636238 3214.878174
2.880000 3.120000 -6.840000 -41.228107 6.731269 1745.066772
2.880000 3.120000 -6.800000 -22.650528 -18.839024 867.955200
2.880000 3.160000 -7.200000 -0.221907 12.459970 155.300079
2.880000 3.160000 -7.160000 -8.190443 -6.379125 107.776588
2.880000 3.160000 -7.120000 6.219831 -23.385235 585.555481
2.880000 3.160000 -7.080000 31.930182 -18.719633 1369.961182
2.880000 3.160000 -7.040000 44.771088 9.247585 2089.968262
2.880000 3.160000 -7.000000 29.189669 40.365406 2481.402832
2.880000 3.160000 -6.960000 -6.831627 49.677441 2514.519287
2.880000 3.160000 -6.920000 -38.262047 29.245026 2319.255859
2.880000 3.160000 -6.880000 -44.655056 -5.761326 2027.266846
2.880000 3.160000 -6.840000 -26.220545 -31.618317 1687.234863
2.880000 3.160000 -6.800000 -0.165582 -36.106869 1303.733398
2.880000 3.200000 -7.200000 -1.558336 -4.669695 24.234467
2.880000 3.200000 -7.160000 5.532193 -16.132351 290.857910
2.880000 3.200000 -7.120000 21.074453 -14.567829 656.354248
2.880000 3.200000 -7.080000 29.338808 2.687939 867.990723
2.880000 3.200000 -7.040000 18.535366 23.010845 873.058838
2.880000 3.200000 -7.000000 -7.330193 28.398590 860.211670
2.880000 3.200000 -6.960000 -30.505699 11.330217 1058.971436
2.880000 3.200000 -6.920000 -34.137932 -18.223419 1497.491455
2.880000 3.200000 -6.880000 -16.012127 -41.193111 1953.260620
2.880000 3.200000 -6.840000 10.966347 -44.950619 2140.818848
2.880000 3.200000 -6.800000 30.788639 -31.638710 1948.948242
2.920000 2.800000 -7.200000 45.691994 45.916512 4196.083984
2.920000 2.800000 -7.160000 22.151564 73.674736 5918.658691
2.920000 2.800000 -7.120000 -17.996716 74.995224 5948.165527
2.920000 2.800000 -7.080000 -45.436092 46.484222 4225.221680
2.920000 2.800000 -7.040000 -41.892052 11.827722 1894.838989
2.920000 2.800000 -7.000000 -18.282616 -1.725761 337.232269
2.920000 2.800000 -6.960000 -2.486526 9.467171 95.810135
2.920000 2.800000 -6.920000 -9.865993 23.565964 652.692505
2.920000 2.800000 -6.880000 -28.170353 18.124195 1122.055176
2.920000 2.800000 -6.840000 -32.447220 -5.578238 1083.938721
2.920000 2.800000 -6.800000 -12.913527 -24.699862 776.842285
2.920000 2.840000 -7.200000 7.491261 55.481636 3134.330811
2.920000 2.840000 -7.160000 -10.643721 67.469223 4665.384766
2.920000 2.840000 -7.120000 -34.802677 66.545822 5639.573242
2.920000 2.840000 -7.080000 -54.076393 52.896221 5722.266602
2.920000 2.840000 -7.040000 -63.330524 34.318993 5188.548828
2.920000 2.840000 -7.000000 -65.427452 16.970901 4568.763184
2.920000 2.840000 -6.960000 -64.085022 0.371231 4107.027832
2.920000 2.840000 -6.920000 -57.371391 -17.635887 3602.500977
2.920000 2.840000 -6.880000 -40.724365 -33.181885 2759.511230
2.920000 2.840000 -6.840000 -15.987625 -36.988495 1623.752930
2.920000 2.840000 -6.800000 5.458267 -24.203081 615.581787
2.920000 2.880000 -7.200000 -24.520693 32.295559 1644.267578
2.920000 2.880000 -7.160000 -28.688417 44.472805 2800.855713
2.920000 2.880000 -7.120000 -48.883968 57.032623 5642.362305
2.920000 2.880000 -7.080000 -83.262985 53.636566 9809.605469
2.920000 2.880000 -7.040000 -115.531082 23.772499 13912.562500
2.920000 2.880000 -7.000000 -124.383713 -26.399055 16168.217773
2.920000 2.880000 -6.960000 -99.121582 -74.863670 15429.657227
2.920000 2.880000 -6.920000 -49.319344 -97.390381 11917.284180
2.920000 2.880000 -6.880000 0.059677 -84.440079 7130.130371
2.920000 2.880000 -6.840000 25.452248 -48.005531 2952.347900
2.920000 2.880000 -6.800000 20.579353 -12.549803 581.007324
2.920000 2.920000 -7.200000 -25.940575 -5.788149 706.416077
2.920000 2.920000 -7.160000 -26.611364 21.657753 1177.223022
2.920000 2.920000 -7.120000 -63.084396 43.475655 5869.773438
2.920000 2.920000 -7.080000 -119.291504 25.334631 14872.306641
2.920000 2.920000 -7.040000 -152.953934 -40.352379 25023.220703
2.920000 2.920000 -7.000000 -129.519257 -121.289276 31486.328125
2.920000 2.920000 -6.960000 -53.632435 -167.351578 30882.988281
2.920000 2.920000 -6.920000 31.427025 -150.368118 23598.228516
2.920000 2.920000 -6.880000 77.242615 -86.464508 13442.533203
2.920000 2.920000 -6.840000 67.309357 -21.301504 4984.303223
2.920000 2.920000 -6.800000 25.517801 7.558912 708.295349
2.920000 2.960000 -7.200000 2.305929 -28.085472 794.111084
2.920000 2.960000 -7.160000 -14.230804 12.477505 358.203918
2.920000 2.960000 -7.120000 -73.516396 21.802193 5879.996094
2.920000 2.960000 -7.080000 -131.106720 -31.753471 18197.255859
2.920000 2.960000 -7.040000 -129.851669 -127.331299 33074.714844
2.920000 2.960000 -7.000000 -51.928913 -201.418472 43266.015625
2.920000 2.960000 -6.960000 60.300076 -199.223419 43326.070312
2.920000 2.960000 -6.920000 136.600189 -121.497910 33421.351562
2.920000 2.960000 -6.880000 136.030273 -23.378395 19050.783203
2.920000 2.960000 -6.840000 76.926147 33.074322 7011.542969
2.920000 2.960000 -6.800000 14.559893 27.955347 993.491882
2.920000 3.000000 -7.200000 34.627457 -18.308750 1534.271118
2.920000 3.000000 -7.160000 -6.717182 16.407063 314.312256
2.920000 3.000000 -7.120000 -72.583511 -5.701006 5300.867676
2.920000 3.000000 -7.080000 -100.068848 -88.896263 17916.320312
2.920000 3.000000 -7.040000 -46.155449 -178.364014 33944.046875
2.920000 3.000000 -7.000000 67.805588 -202.271576 45511.386719
2.920000 3.000000 -6.960000 168.180573 -134.494141 46373.378906
2.920000 3.000000 -6.920000 189.612305 -19.027111 36314.855469
2.920000 3.000000 -6.880000 128.552612 67.551498 21088.978516
2.920000 3.000000 -6.840000 40.893738 79.999367 8072.196777
2.920000 3.000000 -6.800000 -10.698669 35.529064 1376.776001
2.920000 3.040000 -7.200000 44.239616 11.743750 2095.059326
2.920000 3.040000 -7.160000 -10.897840 21.507879 581.351807
2.920000 3.040000 -7.120000 -57.014511 -29.933670 4146.679199
2.920000 3.040000 -7.080000 -39.260078 -112.746803 14253.195312
2.920000 3.040000 -7.040000 49.103485 -158.636093 27576.562500
2.920000 3.040000 -7.000000 152.433929 -119.658539 37554.269531
2.920000 3.040000 -6.960000 196.527832 -13.567162 38807.253906
2.920000 3.040000 -6.920000 151.728851 88.889877 30923.054688
2.920000 3.040000 -6.880000 56.348579 123.834351 18510.109375
2.920000 3.040000 -6.840000 -20.140425 85.047882 7638.778809
2.920000 3.040000 -6.800000 -36.884392 20.297508 1772.447266
2.920000 3.080000 -7.200000 26.640364 34.812431 1921.614380
2.920000 3.080000 -7.160000 -20.302887 16.876760 697.032227
2.920000 3.080000 -7.120000 -32.029327 -41.870903 2779.050293
2.920000 3.080000 -7.080000 17.237658 -93.985504 9130.412109
2.920000 3.080000 -7.040000 100.347145 -86.910553 17622.994141
2.920000 3.080000 -7.000000 154.702423 -12.233288 24082.494141
2.920000 3.080000 -6.960000 135.392136 82.333496 25109.835938
2.920000 3.080000 -6.920000 54.658638 132.049286 20424.580078
2.920000 3.080000 -6.880000 -29.681299 109.369720 12842.714844
2.920000 3.080000 -6.840000 -64.878960 42.929516 6052.222656
2.920000 3.080000 -6.800000 -44.314415 -13.612863 2149.077393
2.920000 3.120000 -7.200000 0.895786 33.842922 1146.145874
2.920000 3.120000 -7.160000 -22.874285 2.919970 531.759155
2.920000 3.120000 -7.120000 -7.505393 -39.399830 1608.677490
2.920000 3.120000 -7.080000 43.511799 -52.652039 4665.513672
2.920000 3.120000 -7.040000 91.367645 -15.121548 8576.708008
2.920000 3.120000 -7.000000 93.307678 52.414608 11453.614258
2.920000 3.120000 -6.960000 41.132496 101.186707 11930.631836
2.920000 3.120000 -6.920000 -30.130600 95.572662 10041.986328
2.920000 3.120000 -6.880000 -72.144363 42.626129 7021.795898
2.920000 3.120000 -6.840000 -63.316200 -16.970318 4296.932617
2.920000 3.120000 -6.800000 -21.950054 -45.751198 2574.977051
2.920000 3.160000 -7.200000 -10.720915 15.502467 355.264526
2.920000 3.160000 -7.160000 -13.151323 -9.896360 270.895264
2.920000 3.160000 -7.120000 9.261896 -27.489178 841.437622
2.920000 3.160000 -7.080000 40.196022 -17.118084 1908.749023
2.920000 3.160000 -7.040000 51.180168 18.762623 2971.445801
2.920000 3.160000 -7.000000 26.944237 53.413960 3579.042969
2.920000 3.160000 -6.960000 -18.845428 57.441658 3654.694336
2.920000 3.160000 -6.920000 -53.561382 24.506981 3469.413818
2.920000 3.160000 -6.880000 -52.853107 -23.045872 3324.562988
2.920000 3.160000 -6.840000 -19.861994 -53.661476 3274.052734
2.920000 3.160000 -6.800000 20.482393 -52.145821 3138.714844
2.920000 3.200000 -7.200000 -3.258735 0.002494 10.619359
2.920000 3.200000 -7.160000 2.799138 -11.632419 143.148331
2.920000 3.200000 -7.120000 16.906006 -12.859871 451.189331
2.920000 3.200000 -7.080000 26.247732 0.025753 688.944092
2.920000 3.200000 -7.040000 19.311665 17.300812 672.258484
2.920000 3.200000 -7.000000 -2.194771 22.308834 502.501099
2.920000 3.200000 -6.960000 -22.332672 6.112843 536.115051
2.920000 3.200000 -6.920000 -23.384577 -23.180115 1084.156250
2.920000 3.200000 -6.880000 -0.959069 -45.856964 2103.781006
2.920000 3.200000 -6.840000 32.109127 -46.283707 3173.177490
2.920000 3.200000 -6.800000 56.373962 -24.644329 3785.366699
2.960000 2.800000 -7.200000 5.550970 77.106293 5976.193848
2.960000 2.800000 -7.160000 -38.634380 81.547691 8142.641113
2.960000 2.800000 -7.120000 -75.656219 49.259949 8150.406250
2.960000 2.800000 -7.080000 -77.006065 0.581358 5930.271973
2.960000 2.800000 -7.040000 -44.979458 -28.663097 2844.724854
2.960000 2.800000 -7.000000 -11.057240 -21.972786 605.065857
2.960000 2.800000 -6.960000 -4.267532 2.417816 24.057667
2.960000 2.800000 -6.920000 -22.667702 11.914036 655.768921
2.960000 2.800000 -6.880000 -37.766300 -6.141580 1464.012451
2.960000 2.800000 -6.840000 -26.258339 -32.596836 1752.054077
2.960000 2.800000 -6.800000 5.395702 -38.614651 1520.204956
2.960000 2.840000 -7.200000 -39.149612 54.091114 4458.541016
2.960000 2.840000 -7.160000 -63.017166 46.207607 6106.306641
2.960000 2.840000 -7.120000 -79.655121 24.483524 6944.381348
2.960000 2.840000 -7.080000 -81.816948 -1.475502 6696.190430
2.960000 2.840000 -7.040000 -73.200012 -21.518082 5821.269531
2.960000 2.840000 -7.000000 -62.252495 -34.324623 5053.552734
2.960000 2.840000 -6.960000 -51.544991 -45.396446 4717.723633
2.960000 2.840000 -6.920000 -35.943298 -56.629898 4498.866211
2.960000 2.840000 -6.880000 -11.996094 -60.957520 3859.725342
2.960000 2.840000 -6.840000 13.161010 -49.763580 2649.625977
2.960000 2.840000 -6.800000 25.540138 -25.055611 1280.082275
2.960000 2.880000 -7.200000 -49.945118 5.757090 2527.658936
2.960000 2.880000 -7.160000 -56.988499 10.267969 3353.120117
2.960000 2.880000 -7.120000 -77.988815 8.327910 6151.609375
2.960000 2.880000 -7.080000 -103.162857 -14.535770 10853.864258
2.960000 2.880000 -7.040000 -111.762787 -59.353092 16013.710938
2.960000 2.880000 -7.000000 -87.672951 -108.317986 19419.332031
2.960000 2.880000 -6.960000 -34.190575 -134.857086 19355.429688
2.960000 2.880000 -6.920000 25.006279 -122.715157 15684.324219
2.960000 2.880000 -6.880000 61.141129 -78.972122 9974.833984
2.960000 2.880000 -6.840000 60.561771 -29.698641 4549.737305
2.960000 2.880000 -6.800000 33.640862 -1.108968 1132.937378
2.960000 2.920000 -7.200000 -20.268284 -30.757278 1356.813477
2.960000 2.920000 -7.160000 -33.861214 -5.162560 1173.233765
2.960000 2.920000 -7.120000 -79.024422 -5.686354 6277.193848
2.960000 2.920000 -7.080000 -119.066177 -56.097599 17323.695312
2.960000 2.920000 -7.040000 -108.431030 -137.420822 30641.769531
2.960000 2.920000 -7.000000 -34.513138 -196.861557 39945.628906
2.960000 2.920000 -6.960000 66.022125 -189.758667 40367.273438
2.960000 2.920000 -6.920000 133.842194 -117.709579 31769.277344
2.960000 2.920000 -6.880000 134.001968 -27.888103 18734.273438
2.960000 2.920000 -6.840000 81.524200 25.819225 7312.827637
2.960000 2.920000 -6.800000 24.146233 24.427872 1179.761475
2.960000 2.960000 -7.200000 23.470413 -29.059202 1395.297607
2.960000 2.960000 -7.160000 -16.223274 1.069166 264.337769
2.960000 2.960000 -7.120000 -78.572380 -25.861166 6842.418945
2.960000 2.960000 -7.080000 -99.850601 -112.887077 22713.634766
2.960000 2.960000 -7.040000 -37.457531 -203.136566 42667.531250
2.960000 2.960000 -7.000000 85.077087 -223.242706 57075.414062
2.960000 2.960000 -6.960000 190.978638 -147.510376 58232.148438
2.960000 2.960000 -6.920000 212.680267 -22.704851 45748.406250
2.960000 2.960000 -6.880000 147.014648 70.773895 26622.250000
2.960000 2.960000 -6.840000 53.040844 85.207153 10073.589844
2.960000 2.960000 -6.800000 -2.520452 38.536686 1491.428833
2.960000 3.000000 -7.200000 45.872940 4.407351 2123.751465
2.960000 3.000000 -7.160000 -15.971737 12.866310 420.638306
2.960000 3.000000 -7.120000 -66.484184 -49.928532 6913.004883
2.960000 3.000000 -7.080000 -40.718491 -148.726135 23777.458984
2.960000 3.000000 -7.040000 69.290787 -202.017517 45612.289062
2.960000 3.000000 -7.000000 196.632584 -152.191833 61826.726562
2.960000 3.000000 -6.960000 251.518005 -20.534462 63682.972656
2.960000 3.000000 -6.920000 197.458374 107.144302 50469.710938
2.960000 3.000000 -6.880000 80.606277 152.483475 29748.582031
2.960000 3.000000 -6.840000 -13.941893 106.988464 11640.907227
2.960000 3.000000 -6.800000 -35.110760 28.983360 2072.800781
2.960000 3.040000 -7.200000 33.233387 38.742500 2605.439453
2.960000 3.040000 -7.160000 -26.566380 13.959066 900.628052
2.960000 3.040000 -7.120000 -40.120823 -65.830467 5943.331055
2.960000 3.040000 -7.080000 29.341341 -137.651321 19808.800781
2.960000 3.040000 -7.040000 146.918732 -128.721710 38154.390625
2.960000 3.040000 -7.000000 226.924774 -24.778402 52108.820312
2.960000 3.040000 -6.960000 205.003082 110.312134 54195.031250
2.960000 3.040000 -6.920000 94.854149 186.047058 43610.816406
2.960000 3.040000 -6.880000 -24.476517 160.981552 26514.160156
2.960000 3.040000 -6.840000 -77.780472 72.282730 11274.594727
2.960000 3.040000 -6.800000 -53.023487 -5.067848 2837.173340
2.960000 3.080000 -7.200000 2.203468 47.834656 2293.009521
2.960000 3.080000 -7.160000 -32.730961 2.172789 1076.036865
2.960000 3.080000 -7.120000 -9.281366 -63.964714 4177.628418
2.960000 3.080000 -7.080000 72.127762 -88.161324 12974.833008
2.960000 3.080000 -7.040000 153.943695 -31.958305 24719.996094
2.960000 3.080000 -7.000000 166.611542 77.618332 33784.011719
2.960000 3.080000 -6.960000 90.670166 164.978714 35439.054688
2.960000 3.080000 -6.920000 -23.621380 169.124146 29160.945312
2.960000 3.080000 -6.880000 -99.065994 94.432068 18731.486328
2.960000 3.080000 -6.840000 -96.086464 2.164604 9237.293945
2.960000 3.080000 -6.800000 -38.956356 -46.118061 3644.473145
2.960000 3.120000 -7.200000 -19.534813 31.628357 1381.961914
2.960000 3.120000 -7.160000 -26.128792 -11.520208 815.428955
2.960000 3.120000 -7.120000 12.260799 -46.808052 2341.320801
2.960000 3.120000 -7.080000 72.931267 -34.207542 6489.125977
2.960000 3.120000 -7.040000 104.678825 30.314980 11876.654297
2.960000 3.120000 -7.000000 72.147514 103.674286 15953.621094
2.960000 3.120000 -6.960000 -9.349846 129.172028 16772.832031
2.960000 3.120000 -6.920000 -83.748001 85.430923 14312.169922
2.960000 3.120000 -6.880000 -101.243469 4.618877 10271.574219
2.960000 3.120000 -6.840000 -58.399040 -56.857674 6643.243164
2.960000 3.120000 -6.800000 4.908129 -65.995850 4379.541992
2.960000 3.160000 -7.200000 -19.358746 10.750999 490.345001
2.960000 3.160000 -7.160000 -11.749943 -15.698892 384.516357
2.960000 3.160000 -7.120000 18.707800 -26.035206 1027.813721
2.960000 3.160000 -7.080000 48.751720 -3.857162 2391.607910
2.960000 3.160000 -7.040000 48.359455 39.121540 3869.131836
2.960000 3.160000 -7.000000 9.569305 68.292061 4755.377441
2.960000 3.160000 -6.960000 -42.085625 55.391228 4839.387695
2.960000 3.160000 -6.920000 -67.149155 4.911026 4533.126953
2.960000 3.160000 -6.880000 -45.744022 -48.249619 4420.541016
2.960000 3.160000 -6.840000 6.315447 -68.168198 4686.788086
2.960000 3.160000 -6.800000 53.104179 -46.488701 4981.252930
2.960000 3.200000 -7.200000 -7.330638 3.330559 64.830872
2.960000 3.200000 -7.160000 -0.809622 -9.148708 84.354355
2.960000 3.200000 -7.120000 15.086567 -11.477393 359.335083
2.960000 3.200000 -7.080000 26.733788 1.736584 717.711121
2.960000 3.200000 -7.040000 20.757790 20.175554 837.938843
2.960000 3.200000 -7.000000 -0.863815 24.866512 619.089600
2.960000 3.200000 -6.960000 -19.235550 6.297417 409.663818
2.960000 3.200000 -6.920000 -14.326401 -24.221809 791.941772
2.960000 3.200000 -6.880000 16.218361 -42.373695 2058.565186
2.960000 3.200000 -6.840000 53.585892 -31.441086 3859.989746
2.960000 3.200000 -6.800000 73.262489 3.697108 5381.061035
3.000000 2.800000 -7.200000 -43.522079 67.891022 6503.362305
3.000000 2.800000 -7.160000 -84.715225 41.465317 8896.041992
3.000000 2.800000 -7.120000 -95.226807 -12.021320 9212.656250
3.000000 2.800000 -7.080000 -63.345036 -56.502625 7205.140137
3.000000 2.800000 -7.040000 -13.897243 -61.675377 3996.985352
3.000000 2.800000 -7.000000 14.430052 -32.318855 1252.734863
3.000000 2.800000 -6.960000 6.193375 -2.763969 45.997417
3.000000 2.800000 -6.920000 -17.666443 -1.903121 315.725067
3.000000 2.800000 -6.880000 -23.785805 -25.292896 1205.495117
3.000000 2.800000 -6.840000 -1.410235 -42.824764 1835.949219
3.000000 2.800000 -6.800000 28.310385 -32.211277 1839.044312
3.000000 2.840000 -7.200000 -67.738770 18.644909 4936.173828
3.000000 2.840000 -7.160000 -81.353828 -6.202099 6656.911133
3.000000 2.840000 -7.120000 -78.127121 -37.088802 7479.426270
3.000000 2.840000 -7.080000 -58.806767 -59.898754 7046.096680
3.000000 2.840000 -7.040000 -34.939125 -67.659241 5798.515625
3.000000 2.840000 -7.000000 -16.900707 -65.681427 4599.683594
3.000000 2.840000 -6.960000 -4.408737 -63.167587 4009.581055
3.000000 2.840000 -6.920000 9.731094 -61.498795 3876.795898
3.000000 2.840000 -6.880000 27.544924 -53.311394 3600.827637
3.000000 2.840000 -6.840000 40.508652 -33.575977 2768.297119
3.000000 2.840000 -6.800000 38.199898 -9.234764 1544.513062
3.000000 2.880000 -7.200000 -45.475071 -29.964170 2965.833740
3.000000 2.880000 -7.160000 -50.197582 -31.861031 3534.922607
3.000000 2.880000 -7.120000 -62.048920 -45.121159 5885.987305
3.000000 2.880000 -7.080000 -65.850296 -75.638954 10057.513672
3.000000 2.880000 -7.040000 -45.474068 -112.850510 14803.127930
3.000000 2.880000 -7.000000 1.089485 -134.512665 18094.843750
3.000000 2.880000 -6.960000 56.328880 -122.867188 18269.289062
3.000000 2.880000 -6.920000 93.489548 -79.490685 15059.064453
3.000000 2.880000 -6.880000 95.464821 -26.146172 9797.154297
3.000000 2.880000 -6.840000 67.261734 10.091280 4625.974609
3.000000 2.880000 -6.800000 31.728951 15.909778 1259.847290
3.000000 2.920000 -7.200000 3.422155 -41.689995 1749.766846
3.000000 2.920000 -7.160000 -19.823421 -26.613449 1101.243774
3.000000 2.920000 -7.120000 -55.466663 -50.410587 5617.778320
3.000000 2.920000 -7.080000 -59.545944 -112.408966 16181.495117
3.000000 2.920000 -7.040000 -5.124256 -171.237396 29348.503906
3.000000 2.920000 -7.000000 88.074974 -176.452637 38892.734375
3.000000 2.920000 -6.960000 164.512665 -112.766388 39780.671875
3.000000 2.920000 -6.920000 177.045685 -15.896698 31597.878906
3.000000 2.920000 -6.880000 125.095657 55.612366 18741.658203
3.000000 2.920000 -6.840000 52.612873 67.314392 7299.341797
3.000000 2.920000 -6.800000 9.254065 32.512054 1142.671387
3.000000 2.960000 -7.200000 39.095119 -12.357830 1681.144287
3.000000 2.960000 -7.160000 -11.034185 -7.323648 175.389069
3.000000 2.960000 -7.120000 -49.011635 -63.655376 6454.147461
3.000000 2.960000 -7.080000 -18.731621 -148.131744 22293.886719
3.000000 2.960000 -7.040000 83.914001 -188.414322 42541.515625
3.000000 2.960000 -7.000000 197.399017 -135.793564 57406.265625
3.000000 2.960000 -6.960000 242.348022 -12.432171 58887.121094
3.000000 2.960000 -6.920000 188.865448 103.519562 46386.457031
3.000000 2.960000 -6.880000 80.867966 142.838562 26942.484375
3.000000 2.960000 -6.840000 -4.341993 100.123940 10043.656250
3.000000 2.960000 -6.800000 -21.612894 29.782616 1354.121338
3.000000 3.000000 -7.200000 37.035042 29.256971 2227.564697
3.000000 3.000000 -7.160000 -21.005190 2.829647 449.224915
3.000000 3.000000 -7.120000 -30.008163 -78.838326 7115.971191
3.000000 3.000000 -7.080000 46.611790 -149.344376 24476.400391
3.000000 3.000000 -7.040000 170.427307 -133.910095 46977.382812
3.000000 3.000000 -7.000000 251.560623 -20.203819 63690.941406
3.000000 3.000000 -6.960000 224.588425 123.042503 65579.421875
3.000000 3.000000 -6.920000 106.523956 201.355530 51891.406250
3.000000 3.000000 -6.880000 -18.416355 173.540588 30455.498047
3.000000 3.000000 -6.840000 -72.205566 81.004738 11775.412109
3.000000 3.000000 -6.800000 -44.622555 3.400349 2002.734741
3.000000 3.040000 -7.200000 6.592510 49.776558 2521.166992
3.000000 3.040000 -7.160000 -31.322128 -4.041893 997.412659
3.000000 3.040000 -7.120000 0.357159 -80.615219 6498.940918
3.000000 3.040000 -7.080000 99.935501 -105.402359 21096.761719
3.000000 3.040000 -7.040000 197.693756 -33.620636 40213.167969
3.000000 3.040000 -7.000000 210.837799 100.780472 54609.281250
3.000000 3.040000 -6.960000 117.686272 206.689255 56570.507812
3.000000 3.040000 -6.920000 -20.137127 212.057526 45373.898438
3.000000 3.040000 -6.880000 -110.236084 123.961823 27518.527344
3.000000 3.040000 -6.840000 -106.942245 16.876310 11721.453125
3.000000 3.040000 -6.800000 -41.562378 -36.280495 3043.705566
3.000000 3.080000 -7.200000 -22.772564 39.937126 2113.563721
3.000000 3.080000 -7.160000 -28.603569 -17.234745 1115.200684
3.000000 3.080000 -7.120000 26.529984 -62.434292 4601.880859
3.000000 3.080000 -7.080000 110.861649 -41.093884 13979.011719
3.000000 3.080000 -7.040000 153.915131 51.470001 26339.027344
3.000000 3.080000 -7.000000 107.718018 155.447449 35767.082031
3.000000 3.080000 -6.960000 -5.952999 193.177094 37352.828125
3.000000 3.080000 -6.920000 -110.143799 136.114975 30658.943359
3.000000 3.080000 -6.880000 -137.563599 28.755373 19750.615234
3.000000 3.080000 -6.840000 -84.811462 -52.537624 9953.186523
3.000000 3.080000 -6.800000 -6.744743 -64.778450 4241.739258
3.000000 3.120000 -7.200000 -30.805351 17.169167 1243.750000
3.000000 3.120000 -7.160000 -15.971922 -22.291487 752.012695
3.000000 3.120000 -7.120000 34.319668 -34.642647 2377.952637
3.000000 3.120000 -7.080000 82.112862 5.616425 6774.066406
3.000000 3.120000 -7.040000 79.538315 78.734970 12525.539062
3.000000 3.120000 -7.000000 14.582443 129.135574 16888.644531
3.000000 3.120000 -6.960000 -71.893250 112.178413 17752.634766
3.000000 3.120000 -6.920000 -117.944115 35.055649 15139.712891
3.000000 3.120000 -6.880000 -92.948486 -48.190590 10961.753906
3.000000 3.120000 -6.840000 -21.384613 -83.153214 7371.758789
3.000000 3.120000 -6.800000 42.850990 -58.552505 5264.603516
3.000000 3.160000 -7.200000 -21.750828 3.583001 485.936401
3.000000 3.160000 -7.160000 -6.017027 -16.263260 300.698242
3.000000 3.160000 -7.120000 24.776474 -14.311192 818.683838
3.000000 3.160000 -7.080000 43.661263 17.024788 2196.149170
3.000000 3.160000 -7.040000 26.674023 56.098328 3858.525879
3.000000 3.160000 -7.000000 -20.665123 67.200005 4942.888184
3.000000 3.160000 -6.960000 -62.881878 33.451752 5073.150391
3.000000 3.160000 -6.920000 -63.884911 -24.683475 4690.555664
3.000000 3.160000 -6.880000 -19.171598 -64.981110 4590.094727
3.000000 3.160000 -6.840000 40.179211 -59.210346 5120.233887
3.000000 3.160000 -6.800000 74.997467 -15.178680 5855.012695
3.000000 3.200000 -7.200000 -13.537075 4.345027 202.131653
3.000000 3.200000 -7.160000 -5.780530 -8.197111 100.607162
3.000000 3.200000 -7.120000 11.548351 -8.969489 213.816147
3.000000 3.200000 -7.080000 22.400249 6.400811 542.741577
3.000000 3.200000 -7.040000 13.944885 24.289696 784.449158
3.000000 3.200000 -7.000000 -7.578114 24.838837 674.395630
3.000000 3.200000 -6.960000 -19.821959 2.894844 401.290161
3.000000 3.200000 -6.920000 -5.247204 -23.836601 595.716675
3.000000 3.200000 -6.880000 30.561100 -29.351883 1795.513916
3.000000 3.200000 -6.840000 62.058681 -3.115963 3860.989258
3.000000 3.200000 -6.800000 65.667389 40.241611 5931.593262
3.040000 2.800000 -7.200000 -67.458916 28.835564 5382.194824
3.040000 2.800000 -7.160000 -85.556068 -15.699217 7566.306152
3.040000 2.800000 -7.120000 -63.898319 -65.402428 8360.472656
3.040000 2.800000 -7.080000 -11.873816 -84.655304 7307.507812
3.040000 2.800000 -7.040000 34.195980 -61.047745 4896.192383
3.040000 2.800000 -7.000000 43.966331 -18.101429 2260.700195
3.040000 2.800000 -6.960000 20.834511 7.243832 486.549927
3.040000 2.800000 -6.920000 -3.777122 -0.281193 14.345723
3.040000 2.800000 -6.880000 -3.175812 -22.285851 506.744904
3.040000 2.800000 -6.840000 19.169884 -28.919712 1203.834229
3.040000 2.800000 -6.800000 36.845940 -10.505841 1467.995972
3.040000 2.840000 -7.200000 -60.558327 -22.307495 4164.935547
3.040000 2.840000 -7.160000 -56.365913 -51.033981 5781.583496
3.040000 2.840000 -7.120000 -33.661263 -74.751587 6720.880371
3.040000 2.840000 -7.080000 -1.278793 -80.563126 6492.052246
3.040000 2.840000 -7.040000 25.053596 -68.106689 5266.203613
3.040000 2.840000 -7.000000 36.733131 -49.141804 3764.239990
3.040000 2.840000 -6.960000 38.331459 -35.203510 2708.587891
3.040000 2.840000 -6.920000 39.631916 -27.126438 2306.532227
3.040000 2.840000 -6.880000 43.445366 -17.673920 2199.867188
3.040000 2.840000 -6.840000 43.333866 -3.239367 1888.317505
3.040000 2.840000 -6.800000 33.420616 9.816605 1213.303345
3.040000 2.880000 -7.200000 -17.700651 -47.764263 2594.737793
3.040000 2.880000 -7.160000 -17.586979 -52.466412 3062.026123
3.040000 2.880000 -7.120000 -15.596663 -67.531235 4803.723633
3.040000 2.880000 -7.080000 0.712793 -88.109085 7763.719238
3.040000 2.880000 -7.040000 34.984562 -98.930786 11011.220703
3.040000 2.880000 -7.000000 75.972168 -85.851799 13142.301758
3.040000 2.880000 -6.960000 103.616837 -48.236336 13063.193359
3.040000 2.880000 -6.920000 103.204094 -1.697838 10653.967773
3.040000 2.880000 -6.880000 76.575867 31.783337 6874.043945
3.040000 2.880000 -6.840000 41.206860 39.021332 3220.669434
3.040000 2.880000 -6.800000 17.709003 24.305943 904.387695
3.040000 2.920000 -7.200000 25.476757 -30.666306 1589.487427
3.040000 2.920000 -7.160000 2.017885 -30.078659 908.797546
3.040000 2.920000 -7.120000 -11.087219 -63.596550 4167.447754
3.040000 2.920000 -7.080000 17.224974 -108.330902 12032.283203
3.040000 2.920000 -7.040000 84.883148 -121.239632 21904.197266
3.040000 2.920000 -7.000000 152.144470 -77.012405 29078.849609
3.040000 2.920000 -6.960000 172.299911 6.356461 29727.664062
3.040000 2.920000 -6.920000 131.109360 79.483040 23507.218750
3.040000 2.920000 -6.880000 58.858929 101.433601 13753.148438
3.040000 2.920000 -6.840000 4.251173 71.589455 5143.122070
3.040000 2.920000 -6.800000 -5.405651 25.759174 692.756104
3.040000 2.960000 -7.200000 36.695679 9.855021 1443.694336
3.040000 2.960000 -7.160000 -3.518864 -10.243773 117.317276
3.040000 2.960000 -7.120000 -4.413712 -70.109009 4934.753906
3.040000 2.960000 -7.080000 59.073032 -117.144493 17212.455078
3.040000 2.960000 -7.040000 153.911392 -95.843132 32874.625000
3.040000 2.960000 -7.000000 210.432892 -1.095264 44283.203125
3.040000 2.960000 -6.960000 181.484985 110.943268 45245.210938
3.040000 2.960000 -6.920000 84.679382 167.897461 35360.156250
3.040000 2.960000 -6.880000 -12.571629 141.530258 20188.859375
3.040000 2.960000 -6.840000 -50.999489 67.705391 7184.967773
3.040000 2.960000 -6.800000 -25.968307 9.765070 769.709534
3.040000 3.000000 -7.200000 14.097456 39.187328 1734.385010
3.040000 3.000000 -7.160000 -17.126223 -8.881329 372.185486
3.040000 3.000000 -7.120000 15.459366 -74.815331 5836.325684
3.040000 3.000000 -7.080000 107.154724 -90.792343 19725.384766
3.040000 3.000000 -7.040000 192.581085 -19.158615 37454.523438
3.040000 3.000000 -7.000000 197.999329 105.488663 50331.593750
3.040000 3.000000 -6.960000 107.842407 199.295380 51348.632812
3.040000 3.000000 -6.920000 -18.480145 199.539795 40157.644531
3.040000 3.000000 -6.880000 -97.127342 117.075996 23140.509766
3.040000 3.000000 -6.840000 -90.152313 22.205254 8620.512695
3.040000 3.000000 -6.800000 -30.306149 -19.873779 1313.429688
3.040000 3.040000 -7.200000 -17.253035 39.041813 1821.930420
3.040000 3.040000 -7.160000 -20.096544 -19.472523 783.050232
3.040000 3.040000 -7.120000 40.315342 -62.376472 5516.150879
3.040000 3.040000 -7.080000 127.767761 -33.916794 17474.949219
3.040000 3.040000 -7.040000 168.063141 67.163788 32756.193359
3.040000 3.040000 -7.000000 114.060402 175.723053 43888.367188
3.040000 3.040000 -6.960000 -7.443945 211.719040 44880.367188
3.040000 3.040000 -6.920000 -114.695007 149.452789 35491.082031
3.040000 3.040000 -6.880000 -140.190796 38.956470 21171.066406
3.040000 3.040000 -6.840000 -85.097382 -40.288635 8864.738281
3.040000 3.040000 -6.800000 -9.433235 -47.546383 2349.644287
3.040000 3.080000 -7.200000 -32.450802 19.489590 1432.898682
3.040000 3.080000 -7.160000 -10.756697 -25.266010 754.077820
3.040000 3.080000 -7.120000 51.281723 -33.947266 3782.231934
3.040000 3.080000 -7.080000 105.483688 20.902996 11563.744141
3.040000 3.080000 -7.040000 95.822296 111.390404 21589.734375
3.040000 3.080000 -7.000000 12.371181 169.787689 28980.906250
3.040000 3.080000 -6.960000 -92.598633 145.924545 29868.480469
3.040000 3.080000 -6.920000 -146.137756 53.015984 24166.939453
3.040000 3.080000 -6.880000 -116.399117 -42.980061 15396.039062
3.040000 3.080000 -6.840000 -36.511490 -80.681946 7842.665039
3.040000 3.080000 -6.800000 30.066187 -52.316925 3641.036133
3.040000 3.120000 -7.200000 -28.422548 2.810850 815.742126
3.040000 3.120000 -7.160000 -2.051241 -19.394039 380.336334
3.040000 3.120000 -7.120000 39.932682 -7.697947 1653.877563
3.040000 3.120000 -7.080000 58.679581 42.531868 5252.252930
3.040000 3.120000 -7.040000 25.349262 96.777779 10008.523438
3.040000 3.120000 -7.000000 -46.336086 106.924522 13579.886719
3.040000 3.120000 -6.960000 -105.491783 55.363235 14193.604492
3.040000 3.120000 -6.920000 -106.403145 -25.528553 11973.335938
3.040000 3.120000 -6.880000 -48.438290 -79.454727 8659.321289
3.040000 3.120000 -6.840000 24.694437 -73.853661 6064.178711
3.040000 3.120000 -6.800000 64.655594 -23.926533 4752.824707
3.040000 3.160000 -7.200000 -20.320211 -0.585769 413.254120
3.040000 3.160000 -7.160000 -3.988870 -10.676880 129.906845
3.040000 3.160000 -7.120000 17.877859 -0.240374 319.675629
3.040000 3.160000 -7.080000 21.649479 28.915075 1304.781494
3.040000 3.160000 -7.040000 -4.723511 51.899406 2715.859863
3.040000 3.160000 -7.000000 -44.458439 42.196064 3757.060547
3.040000 3.160000 -6.960000 -62.951950 -0.662910 3963.387451
3.040000 3.160000 -6.920000 -38.985413 -46.297737 3663.342773
3.040000 3.160000 -6.880000 14.253296 -58.611992 3638.521973
3.040000 3.160000 -6.840000 59.720917 -27.285961 4311.111328
3.040000 3.160000 -6.800000 68.434311 24.762297 5296.426270
3.040000 3.200000 -7.200000 -20.728603 0.970788 430.617432
3.040000 3.200000 -7.160000 -12.067988 -11.052349 267.790771
3.040000 3.200000 -7.120000 4.629557 -10.061383 122.664223
3.040000 3.200000 -7.080000 12.756310 5.034391 188.068527
3.040000 3.200000 -7.040000 3.378395 18.711533 361.535004
3.040000 3.200000 -7.000000 -12.937731 14.801292 386.463135
3.040000 3.200000 -6.960000 -15.359360 -4.811718 259.062561
3.040000 3.200000 -6.920000 5.447578 -19.480335 409.159576
3.040000 3.200000 -6.880000 35.762325 -9.164171 1362.926025
3.040000 3.200000 -6.840000 50.121220 25.556026 3165.247070
3.040000 3.200000 -6.800000 34.324448 63.131088 5163.702148
3.080000 2.800000 -7.200000 -56.321312 -8.455927 3243.592773
3.080000 2.800000 -7.160000 -48.500763 -49.288738 4781.703613
3.080000 2.800000 -7.120000 -8.847961 -76.114006 5871.628418
3.080000 2.800000 -7.080000 40.508492 -66.158981 6017.948730
3.080000 2.800000 -7.040000 66.502289 -24.923988 5043.759277
3.080000 2.800000 -7.000000 54.683121 16.939129 3277.177734
3.080000 2.800000 -6.960000 21.843513 31.113171 1445.168457
3.080000 2.800000 -6.920000 -1.127323 16.377884 269.505920
3.080000 2.800000 -6.880000 1.397791 -3.723587 15.818920
3.080000 2.800000 -6.840000 17.785227 -6.546109 359.165833
3.080000 2.800000 -6.800000 25.100115 7.864403 691.864563
3.080000 2.840000 -7.200000 -30.382233 -40.347775 2551.022949
3.080000 2.840000 -7.160000 -12.987677 -60.175941 3789.823730
3.080000 2.840000 -7.120000 17.622728 -66.896683 4785.726562
3.080000 2.840000 -7.080000 47.619644 -52.671127 5041.877930
3.080000 2.840000 -7.040000 61.598988 -24.334938 4386.624512
3.080000 2.840000 -7.000000 55.881012 1.901606 3126.303711
3.080000 2.840000 -6.960000 40.545578 14.534081 1855.183350
3.080000 2.840000 -6.920000 28.601553 15.179626 1048.469849
3.080000 2.840000 -6.880000 24.205368 13.433651 766.362793
3.080000 2.840000 -6.840000 21.995472 15.071181 710.941284
3.080000 2.840000 -6.800000 16.648243 17.029013 567.151245
3.080000 2.880000 -7.200000 8.847305 -39.165497 1612.210938
3.080000 2.880000 -7.160000 13.482635 -43.106606 2039.960938
3.080000 2.880000 -7.120000 25.573351 -50.341316 3188.244385
3.080000 2.880000 -7.080000 47.743263 -50.909084 4871.154297
3.080000 2.880000 -7.040000 72.142120 -35.803131 6486.349609
3.080000 2.880000 -7.000000 85.286659 -5.728153 7306.625977
3.080000 2.880000 -6.960000 78.242256 27.703011 6889.307617
3.080000 2.880000 -6.920000 53.750950 49.457088 5335.167969
3.080000 2.880000 -6.880000 24.801416 51.294342 3246.219727
3.080000 2.880000 -6.840000 5.891590 37.004333 1404.031494
3.080000 2.880000 -6.800000 3.754125 19.166065 381.431488
3.080000 2.920000 -7.200000 29.729488 -9.808242 980.044067
3.080000 2.920000 -7.160000 15.674677 -19.188581 613.897156
3.080000 2.920000 -7.120000 23.202244 -44.171051 2489.425781
3.080000 2.920000 -7.080000 60.078331 -56.927078 6850.097656
3.080000 2.920000 -7.040000 105.302856 -33.214119 12191.869141
3.080000 2.920000 -7.000000 124.082748 23.408497 15944.486328
3.080000 2.920000 -6.960000 97.611206 80.930138 16077.634766
3.080000 2.920000 -6.920000 40.550117 104.106262 12482.425781
3.080000 2.920000 -6.880000 -10.379217 83.326302 7051.000488
3.080000 2.920000 -6.840000 -26.507343 41.217766 2401.543457
3.080000 2.920000 -6.800000 -8.891193 11.871593 219.988068
3.080000 2.960000 -7.200000 20.096594 20.552044 826.259583
3.080000 2.960000 -7.160000 2.965084 -9.262066 94.577591
3.080000 2.960000 -7.120000 27.780884 -47.179970 2997.727051
3.080000 2.960000 -7.080000 87.482605 -49.428017 10096.334961
3.080000 2.960000 -7.040000 137.471039 4.491199 18918.457031
3.080000 2.960000 -7.000000 131.972244 87.730865 25113.378906
3.080000 2.960000 -6.960000 65.805580 144.772812 25289.542969
3.080000 2.960000 -6.920000 -18.491234 138.013428 19389.632812
3.080000 2.960000 -6.880000 -66.272881 79.405701 10697.359375
3.080000 2.960000 -6.840000 -56.270496 17.877951 3485.989746
3.080000 2.960000 -6.800000 -14.226949 -4.419373 221.936920
3.080000 3.000000 -7.200000 -5.298248 29.575563 902.785339
3.080000 3.000000 -7.160000 -5.162867 -14.440224 235.175262
3.080000 3.000000 -7.120000 43.266907 -43.271423 3744.441406
3.080000 3.000000 -7.080000 108.909470 -15.490513 12101.228516
3.080000 3.000000 -7.040000 134.197723 66.039993 22370.310547
3.080000 3.000000 -7.000000 85.960510 148.462936 29430.453125
3.080000 3.000000 -6.960000 -10.944957 171.143341 29409.835938
3.080000 3.000000 -6.920000 -91.787140 118.379318 22438.542969
3.080000 3.000000 -6.880000 -106.754341 32.686256 12464.880859
3.080000 3.000000 -6.840000 -61.275673 -23.897926 4325.818848
3.080000 3.000000 -6.800000 -5.215918 -22.985552 555.541382
3.080000 3.040000 -7.200000 -23.239618 18.113655 868.184326
3.080000 3.040000 -7.160000 -1.131893 -20.033632 402.627625
3.080000 3.040000 -7.120000 55.036507 -22.983902 3557.276855
3.080000 3.040000 -7.080000 100.073776 30.813972 10964.261719
3.080000 3.040000 -7.040000 85.431747 112.790070 20020.183594
3.080000 3.040000 -7.000000 6.321896 161.691162 26183.998047
3.080000 3.040000 -6.960000 -87.557693 135.784973 26103.908203
3.080000 3.040000 -6.920000 -131.958466 51.243031 20038.884766
3.080000 3.040000 -6.880000 -102.691132 -31.212894 11519.713867
3.080000 3.040000 -6.840000 -33.498581 -59.258694 4633.747559
3.080000 3.040000 -6.800000 18.334177 -31.029564 1298.975952
3.080000 3.080000 -7.200000 -24.882851 3.419403 630.848572
3.080000 3.080000 -7.160000 5.291941 -15.445505 266.568268
3.080000 3.080000 -7.120000 47.256115 3.029343 2242.317383
3.080000 3.080000 -7.080000 60.378418 58.831139 7106.656250
3.080000 3.080000 -7.040000 18.870220 113.193542 13168.863281
3.080000 3.080000 -7.000000 -58.201962 118.229141 17365.597656
3.080000 3.080000 -6.960000 -117.232285 60.923229 17455.048828
3.080000 3.080000 -6.920000 -114.963326 -21.620117 13683.996094
3.080000 3.080000 -6.880000 -56.120750 -72.793594 8448.445312
3.080000 3.080000 -6.840000 12.450302 -64.599838 4328.149414
3.080000 3.080000 -6.800000 44.678619 -17.665693 2308.255859
3.080000 3.120000 -7.200000 -19.725821 -2.026864 393.216187
3.080000 3.120000 -7.160000 1.878843 -6.389242 44.352467
3.080000 3.120000 -7.120000 22.495420 14.207118 707.886169
3.080000 3.120000 -7.080000 16.349091 50.805817 2848.523682
3.080000 3.120000 -7.040000 -23.706102 72.062187 5754.938477
3.080000 3.120000 -7.000000 -72.426521 51.583694 7906.478516
3.080000 3.120000 -6.960000 -90.299911 -4.171272 8171.473633
3.080000 3.120000 -6.920000 -58.856537 -57.114670 6726.177734
3.080000 3.120000 -6.880000 1.280022 -69.344246 4810.263184
3.080000 3.120000 -6.840000 48.141258 -35.590530 3584.266602
3.080000 3.120000 -6.800000 54.783806 14.906158 3223.458984
3.080000 3.160000 -7.200000 -19.943466 -2.025379 401.844025
3.080000 3.160000 -7.160000 -9.806536 -6.508224 138.525131
3.080000 3.160000 -7.120000 0.972918 2.442879 6.914225
3.080000 3.160000 -7.080000 -2.877438 19.220448 377.705231
3.080000 3.160000 -7.040000 -23.463978 24.880787 1169.611816
3.080000 3.160000 -7.000000 -42.841209 6.717155 1880.489502
3.080000 3.160000 -6.960000 -38.334343 -25.295536 2109.385986
3.080000 3.160000 -6.920000 -5.768318 -44.343979 1999.661865
3.080000 3.160000 -6.880000 33.756241 -30.919579 2095.504150
3.080000 3.160000 -6.840000 51.613262 8.712351 2739.833740
3.080000 3.160000 -6.800000 36.574909 48.281139 3668.792480
3.080000 3.200000 -7.200000 -24.944176 -7.924513 685.009827
3.080000 3.200000 -7.160000 -15.622986 -19.610819 628.661926
3.080000 3.200000 -7.120000 0.026888 -18.570095 344.849152
3.080000 3.200000 -7.080000 7.578911 -6.198088 95.856178
3.080000 3.200000 -7.040000 2.138839 3.889980 19.706579
3.080000 3.200000 -7.000000 -5.830727 1.531689 36.343441
3.080000 3.200000 -6.960000 -2.252983 -7.702898 64.410568
3.080000 3.200000 -6.920000 13.986683 -7.670283 254.460541
3.080000 3.200000 -6.880000 28.030676 10.942324 905.453247
3.080000 3.200000 -6.840000 23.190044 39.632385 2108.504150
3.080000 3.200000 -6.800000 -2.700552 59.201099 3512.063232
3.120000 2.800000 -7.200000 -28.527271 -20.653191 1240.359497
3.120000 2.800000 -7.160000 -8.207614 -43.583298 1966.868652
3.120000 2.800000 -7.120000 28.325373 -46.194817 2936.287842
3.120000 2.800000 -7.080000 58.865574 -19.939760 3862.749756
3.120000 2.800000 -7.040000 61.744728 21.125515 4258.698730
3.120000 2.800000 -7.000000 35.442154 50.277443 3783.967529
3.120000 2.800000 -6.960000 0.512684 50.721970 2572.981201
3.120000 2.800000 -6.920000 -18.704929 29.216242 1203.463135
3.120000 2.800000 -6.880000 -14.917178 7.668026 281.320831
3.120000 2.800000 -6.840000 -1.141678 1.790857 4.510598
3.120000 2.800000 -6.800000 5.316896 8.350176 97.994820
3.120000 2.840000 -7.200000 -4.771912 -31.023314 985.217102
3.120000 2.840000 -7.160000 14.732367 -37.930775 1655.786255
3.120000 2.840000 -7.120000 39.771973 -29.662910 2461.697998
3.120000 2.840000 -7.080000 55.642670 -4.316831 3114.741699
3.120000 2.840000 -7.040000 50.953289 26.141615 3279.621582
3.120000 2.840000 -7.000000 28.495205 44.641579 2804.847168
3.120000 2.840000 -6.960000 3.334988 43.168682 1874.657349
3.120000 2.840000 -6.920000 -10.141314 28.467171 913.226074
3.120000 2.840000 -6.880000 -9.336939 14.211414 289.142731
3.120000 2.840000 -6.840000 -2.357121 8.413913 76.349945
3.120000 2.840000 -6.800000 2.462335 8.809898 83.677406
3.120000 2.880000 -7.200000 15.981316 -18.893072 612.350647
3.120000 2.880000 -7.160000 23.054546 -19.941601 929.179565
3.120000 2.880000 -7.120000 36.104389 -16.081608 1562.145020
3.120000 2.880000 -7.080000 48.354836 -1.366754 2340.058105
3.120000 2.880000 -7.040000 49.870350 21.476511 2948.292236
3.120000 2.880000 -7.000000 36.467400 41.945057 3089.259033
3.120000 2.880000 -6.960000 13.870999 49.699249 2662.419922
3.120000 2.880000 -6.920000 -6.401970 42.299442 1830.228027
3.120000 2.880000 -6.880000 -15.237995 26.360096 927.051147
3.120000 2.880000 -6.840000 -11.349501 12.169416 276.905884
3.120000 2.880000 -6.800000 -0.509028 6.990074 49.120247
3.120000 2.920000 -7.200000 18.302002 2.211593 339.854431
3.120000 2.920000 -7.160000 16.376333 -7.076658 318.263397
3.120000 2.920000 -7.120000 30.239681 -14.229577 1116.919189
3.120000 2.920000 -7.080000 51.693352 -4.038422 2688.511475
3.120000 2.920000 -7.040000 61.770988 25.271811 4454.319336
3.120000 2.920000 -7.000000 46.969322 57.981194 5567.936035
3.120000 2.920000 -6.960000 12.194510 72.603279 5419.942383
3.120000 2.920000 -6.920000 -21.809212 59.738884 4044.375977
3.120000 2.920000 -6.880000 -34.868870 30.152393 2125.004883
3.120000 2.920000 -6.840000 -23.352760 5.889982 580.043335
3.120000 2.920000 -6.800000 -1.935152 2.398000 9.495216
3.120000 2.960000 -7.200000 5.462195 14.342470 235.542023
3.120000 2.960000 -7.160000 8.002978 -6.210994 102.624100
3.120000 2.960000 -7.120000 33.647079 -15.640813 1376.760986
3.120000 2.960000 -7.080000 63.620239 4.524702 4068.007812
3.120000 2.960000 -7.040000 69.220993 48.675949 7160.893555
3.120000 2.960000 -7.000000 37.405621 87.854843 9117.654297
3.120000 2.960000 -6.960000 -15.120935 92.909294 8860.779297
3.120000 2.960000 -6.920000 -54.062534 59.992607 6521.870117
3.120000 2.960000 -6.880000 -56.134827 14.455563 3360.082031
3.120000 2.960000 -6.840000 -28.105560 -11.009828 911.138855
3.120000 2.960000 -6.800000 1.002270 -3.893718 16.165583
3.120000 3.000000 -7.200000 -7.827843 12.365636 214.184067
3.120000 3.000000 -7.160000 7.524957 -9.074221 138.966461
3.120000 3.000000 -7.120000 41.593445 -7.057549 1779.823608
3.120000 3.000000 -7.080000 65.786758 28.987276 5168.159668
3.120000 3.000000 -7.040000 51.995670 79.303040 8992.521484
3.120000 3.000000 -7.000000 0.075547 106.255257 11290.185547
3.120000 3.000000 -6.960000 -57.657082 86.350082 10780.675781
3.120000 3.000000 -6.920000 -82.121948 32.314354 7788.231445
3.120000 3.000000 -6.880000 -60.855736 -16.847565 3987.260986
3.120000 3.000000 -6.840000 -17.711679 -29.553865 1187.134521
3.120000 3.000000 -6.800000 10.121427 -7.580048 159.900406
3.120000 3.040000 -7.200000 -12.408424 5.093615 179.913910
3.120000 3.040000 -7.160000 10.367916 -5.489366 137.626816
3.120000 3.040000 -7.120000 38.835464 11.173180 1633.033325
3.120000 3.040000 -7.080000 44.515144 52.680367 4756.818848
3.120000 3.040000 -7.040000 11.156803 90.363678 8290.068359
3.120000 3.040000 -7.000000 -45.553108 91.065048 10367.928711
3.120000 3.040000 -6.960000 -86.820534 47.737209 9816.646484
3.120000 3.040000 -6.920000 -83.177498 -11.230888 7044.628906
3.120000 3.040000 -6.880000 -40.544468 -45.247017 3691.146484
3.120000 3.040000 -6.840000 5.573444 -36.371624 1353.958252
3.120000 3.040000 -6.800000 22.508087 -2.726677 514.048767
3.120000 3.080000 -7.200000 -12.098434 1.819282 149.681900
3.120000 3.080000 -7.160000 5.692592 2.540450 38.859489
3.120000 3.080000 -7.120000 19.136580 22.962582 893.488831
3.120000 3.080000 -7.080000 8.919612 53.221931 2912.133545
3.120000 3.080000 -7.040000 -27.722723 67.535934 5329.651855
3.120000 3.080000 -7.000000 -68.172348 46.642269 6822.970703
3.120000 3.080000 -6.960000 -80.799454 -1.236160 6530.080078
3.120000 3.080000 -6.920000 -53.290920 -43.759987 4754.858398
3.120000 3.080000 -6.880000 -5.235629 -51.602715 2690.251953
3.120000 3.080000 -6.840000 28.788401 -23.922716 1401.068359
3.120000 3.080000 -6.800000 29.676741 12.768209 1043.736084
3.120000 3.120000 -7.200000 -15.091969 1.232460 229.286499
3.120000 3.120000 -7.160000 -7.810574 2.873072 69.259605
3.120000 3.120000 -7.120000 -4.397038 13.990939 215.080322
3.120000 3.120000 -7.080000 -15.123550 26.771305 945.424561
3.120000 3.120000 -7.040000 -37.436253 25.222076 2037.626221
3.120000 3.120000 -7.000000 -53.323227 2.096695 2847.762695
3.120000 3.120000 -6.960000 -44.599483 -29.721066 2872.455566
3.120000 3.120000 -6.920000 -11.861912 -45.733799 2232.285156
3.120000 3.120000 -6.880000 23.288124 -31.790590 1552.978271
3.120000 3.120000 -6.840000 36.692352 2.408480 1352.129517
3.120000 3.120000 -6.800000 22.799652 32.411209 1570.310547
3.120000 3.160000 -7.200000 -21.307693 -4.904449 478.071411
3.120000 3.160000 -7.160000 -17.709328 -11.164365 438.263336
3.120000 3.160000 -7.120000 -11.133209 -10.751303 239.538849
3.120000 3.160000 -7.080000 -10.063334 -5.841331 135.391846
3.120000 3.160000 -7.040000 -15.066133 -5.709957 259.591949
3.120000 3.160000 -7.000000 -16.522041 -14.542879 484.473175
3.120000 3.160000 -6.960000 -5.462170 -24.076984 609.536499
3.120000 3.160000 -6.920000 14.492683 -20.702286 638.622498
3.120000 3.160000 -6.880000 28.224295 -0.092321 796.619324
3.120000 3.160000 -6.840000 23.098871 26.753935 1249.330811
3.120000 3.160000 -6.800000 1.095577 43.101883 1858.972656
3.120000 3.200000 -7.200000 -21.326000 -18.947823 813.818237
3.120000 3.200000 -7.160000 -10.894745 -30.258217 1034.255127
3.120000 3.200000 -7.120000 5.338926 -29.760605 914.197754
3.120000 3.200000 -7.080000 15.661554 -18.632542 592.455872
3.120000 3.200000 -7.040000 15.919704 -6.592867 296.902893
3.120000 3.200000 -7.000000 12.077213 -0.494858 146.103973
3.120000 3.200000 -6.960000 11.429455 2.408838 136.434937
3.120000 3.200000 -6.920000 13.318562 9.420301 266.126160
3.120000 3.200000 -6.880000 10.008621 22.215778 593.713318
3.120000 3.200000 -6.840000 -3.850362 33.580982 1142.507690
3.120000 3.200000 -6.800000 -24.431683 34.504997 1787.501953
3.160000 2.800000 -7.200000 -9.742414 -9.914807 193.218048
3.160000 2.800000 -7.160000 6.427424 -16.460361 312.255310
3.160000 2.800000 -7.120000 27.584492 -8.052650 825.749329
3.160000 2.800000 -7.080000 38.650848 16.923208 1780.283081
3.160000 2.800000 -7.040000 27.768013 45.522621 2843.371582
3.160000 2.800000 -7.000000 -1.581536 58.776741 3457.206543
3.160000 2.800000 -6.960000 -31.394596 47.549801 3246.604248
3.160000 2.800000 -6.920000 -43.571613 20.674820 2325.933594
3.160000 2.800000 -6.880000 -34.645561 -3.005090 1209.345459
3.160000 2.800000 -6.840000 -16.758900 -11.095480 403.970398
3.160000 2.800000 -6.800000 -4.561219 -6.572453 64.001862
3.160000 2.840000 -7.200000 0.233744 -12.401660 153.855804
3.160000 2.840000 -7.160000 13.340927 -11.541431 311.184967
3.160000 2.840000 -7.120000 26.589930 1.650475 709.748413
3.160000 2.840000 -7.080000 27.572514 24.837376 1377.138672
3.160000 2.840000 -7.040000 10.351768 44.574799 2094.071777
3.160000 2.840000 -7.000000 -16.948402 46.848366 2482.017578
3.160000 2.840000 -6.960000 -37.523491 29.670860 2288.372314
3.160000 2.840000 -6.920000 -39.747883 5.129980 1606.210815
3.160000 2.840000 -6.880000 -26.123104 -11.200603 807.870117
3.160000 2.840000 -6.840000 -9.114904 -12.938206 250.478653
3.160000 2.840000 -6.800000 1.051706 -5.560421 32.024364
3.160000 2.880000 -7.200000 6.669182 -7.186501 96.123795
3.160000 2.880000 -7.160000 13.596449 -5.134988 211.231522
3.160000 2.880000 -7.120000 20.109346 5.190076 431.322693
3.160000 2.880000 -7.080000 17.425449 21.124048 749.871704
3.160000 2.880000 -7.040000 2.748798 32.681038 1075.606201
3.160000 2.880000 -7.000000 -16.822451 31.112259 1250.967529
3.160000 2.880000 -6.960000 -29.627275 16.833317 1161.135986
3.160000 2.880000 -6.920000 -28.856178 -0.862562 833.423035
3.160000 2.880000 -6.880000 -17.235600 -11.493927 429.176239
3.160000 2.880000 -6.840000 -3.462264 -10.905063 130.907669
3.160000 2.880000 -6.800000 5.052329 -2.231887 30.507343
3.160000 2.920000 -7.200000 6.988325 -1.174376 50.215839
3.160000 2.920000 -7.160000 11.384675 -2.550766 136.117233
3.160000 2.920000 -7.120000 17.362892 2.987117 310.392883
3.160000 2.920000 -7.080000 17.545614 14.522230 518.743774
3.160000 2.920000 -7.040000 8.179694 25.005524 692.183594
3.160000 2.920000 -7.000000 -7.155714 26.697628 763.967590
3.160000 2.920000 -6.960000 -19.769861 17.442898 695.102051
3.160000 2.920000 -6.920000 -22.186274 2.700963 499.525940
3.160000 2.920000 -6.880000 -13.652422 -8.137730 252.611267
3.160000 2.920000 -6.840000 -0.770593 -8.268815 68.967110
3.160000 2.920000 -6.800000 6.988134 1.888621 52.400913
3.160000 2.960000 -7.200000 5.065506 2.007602 29.689817
3.160000 2.960000 -7.160000 11.652431 -1.164422 137.135025
3.160000 2.960000 -7.120000 20.299568 3.909406 427.355927
3.160000 2.960000 -7.080000 22.894993 16.971241 812.203735
3.160000 2.960000 -7.040000 13.854507 30.603750 1128.536865
3.160000 2.960000 -7.000000 -4.207765 34.684208 1220.699585
3.160000 2.960000 -6.960000 -20.749260 24.551258 1033.296143
3.160000 2.960000 -6.920000 -24.810678 6.102740 652.813232
3.160000 2.960000 -6.880000 -14.355633 -7.664770 264.832886
3.160000 2.960000 -6.840000 1.022567 -7.026336 50.415043
3.160000 2.960000 -6.800000 7.485789 5.843003 90.177727
3.160000 3.000000 -7.200000 3.733526 4.513887 34.314396
3.160000 3.000000 -7.160000 12.060277 4.208451 163.161346
3.160000 3.000000 -7.120000 20.120646 12.485029 560.716309
3.160000 3.000000 -7.080000 19.681946 27.814701 1161.036621
3.160000 3.000000 -7.040000 5.898451 40.880207 1705.983032
3.160000 3.000000 -7.000000 -15.901848 40.382515 1883.616333
3.160000 3.000000 -6.960000 -31.787212 23.462997 1560.939209
3.160000 3.000000 -6.920000 -30.223526 0.587896 913.807190
3.160000 3.000000 -6.880000 -13.167730 -11.864441 314.154083
3.160000 3.000000 -6.840000 4.316593 -6.017947 54.848663
3.160000 3.000000 -6.800000 7.222628 9.787926 147.969849
3.160000 3.040000 -7.200000 0.596847 8.454103 71.828087
3.160000 3.040000 -7.160000 5.625331 11.789967 170.647659
3.160000 3.040000 -7.120000 8.424888 20.617271 496.050598
3.160000 3.040000 -7.080000 2.781568 32.521786 1065.403564
3.160000 3.040000 -7.040000 -13.294666 38.409782 1652.059570
3.160000 3.040000 -7.000000 -31.741432 29.657890 1887.108887
3.160000 3.040000 -6.960000 -38.736519 8.278236 1569.047119
3.160000 3.040000 -6.920000 -27.305311 -11.694481 882.340881
3.160000 3.040000 -6.880000 -5.682824 -15.616455 276.168152
3.160000 3.040000 -6.840000 8.804410 -2.241750 82.543076
3.160000 3.040000 -6.800000 5.802388 14.390619 240.757629
3.160000 3.080000 -7.200000 -7.513622 10.376483 164.125916
3.160000 3.080000 -7.160000 -8.678337 12.109005 221.941544
3.160000 3.080000 -7.120000 -9.976210 15.138278 328.692230
3.160000 3.080000 -7.080000 -15.340404 18.825928 589.743530
3.160000 3.080000 -7.040000 -25.411777 17.168676 940.521851
3.160000 3.080000 -7.000000 -33.111313 5.750209 1129.423950
3.160000 3.080000 -6.960000 -29.122169 -10.468926 957.699219
3.160000 3.080000 -6.920000 -12.620799 -19.088352 523.649780
3.160000 3.080000 -6.880000 5.264201 -11.928679 170.005173
3.160000 3.080000 -6.840000 10.918647 5.720732 151.943634
3.160000 3.080000 -6.800000 1.656244 19.306656 375.490082
3.160000 3.120000 -7.200000 -17.496727 4.136185 323.243500
3.160000 3.120000 -7.160000 -20.755583 -1.417261 432.802856
3.160000 3.120000 -7.120000 -18.743645 -6.144836 389.083221
3.160000 3.120000 -7.080000 -15.959520 -7.390718 309.329010
3.160000 3.120000 -7.040000 -15.226210 -8.393672 302.291199
3.160000 3.120000 -7.000000 -13.467384 -12.195053 330.089752
3.160000 3.120000 -6.960000 -6.240932 -15.686355 285.010956
3.160000 3.120000 -6.920000 4.742317 -12.080376 168.425034
3.160000 3.120000 -6.880000 11.199202 0.534132 125.707413
3.160000 3.120000 -6.840000 6.568051 15.140196 272.364807
3.160000 3.120000 -6.800000 -6.352384 22.026863 525.535461
3.160000 3.160000 -7.200000 -20.238140 -10.553471 520.958069
3.160000 3.160000 -7.160000 -17.702412 -22.353065 813.034912
3.160000 3.160000 -7.120000 -6.400671 -28.475517 851.823669
3.160000 3.160000 -7.080000 5.593037 -25.173218 664.972961
3.160000 3.160000 -7.040000 12.075300 -16.513544 418.510010
3.160000 3.160000 -7.000000 13.342107 -8.062694 243.018829
3.160000 3.160000 -6.960000 12.757705 -1.052555 163.866898
3.160000 3.160000 -6.920000 10.994821 6.526133 163.476486
3.160000 3.160000 -6.880000 5.513030 14.742210 247.726257
3.160000 3.160000 -6.840000 -4.777252 19.939976 420.424774
3.160000 3.160000 -6.800000 -16.523964 18.818645 627.182800
3.160000 3.200000 -7.200000 -9.554529 -24.424076 687.824524
3.160000 3.200000 -7.160000 2.103679 -34.384941 1186.749634
3.160000 3.200000 -7.120000 19.911312 -32.748352 1468.914917
3.160000 3.200000 -7.080000 32.914776 -18.808666 1437.148438
3.160000 3.200000 -7.040000 34.452145 -0.137578 1186.969238
3.160000 3.200000 -7.000000 25.892462 14.716873 887.005920
3.160000 3.200000 -6.960000 13.023077 22.107426 658.338806
3.160000 3.200000 -6.920000 0.525129 23.179022 537.542786
3.160000 3.200000 -6.880000 -9.919325 20.289280 510.047882
3.160000 3.200000 -6.840000 -18.020042 14.879065 546.108521
3.160000 3.200000 -6.800000 -23.560219 7.986023 618.860474
3.200000 2.800000 -7.200000 -9.913211 4.639690 119.798477
3.200000 2.800000 -7.160000 -5.109493 2.637739 33.064590
3.200000 2.800000 -7.120000 3.074934 7.541866 66.334961
3.200000 2.800000 -7.080000 5.324740 21.765503 502.089966
3.200000 2.800000 -7.040000 -6.835058 36.797260 1400.756348
3.200000 2.800000 -7.000000 -30.460075 38.709816 2426.266113
3.200000 2.800000 -6.960000 -50.807007 21.273771 3033.925293
3.200000 2.800000 -6.920000 -53.300163 -6.618792 2884.715820
3.200000 2.800000 -6.880000 -36.546494 -27.744061 2105.379150
3.200000 2.800000 -6.840000 -13.169734 -31.392502 1158.931152
3.200000 2.800000 -6.800000 2.373710 -21.462200 466.260529
3.200000 2.840000 -7.200000 -9.318850 -3.751937 100.917984
3.200000 2.840000 -7.160000 -3.528646 -3.289021 23.269001
3.200000 2.840000 -7.120000 1.298528 5.399242 30.837996
3.200000 2.840000 -7.080000 -3.984044 18.625101 362.766998
3.200000 2.840000 -7.040000 -21.162487 24.823629 1064.063477
3.200000 2.840000 -7.000000 -40.331165 15.043335 1852.904785
3.200000 2.840000 -6.960000 -47.314861 -7.453403 2294.249268
3.200000 2.840000 -6.920000 -36.217361 -28.772528 2139.555664
3.200000 2.840000 -6.880000 -14.623966 -36.101692 1517.192505
3.200000 2.840000 -6.840000 3.651114 -28.079723 801.801514
3.200000 2.840000 -6.800000 10.643333 -13.845290 304.972595
3.200000 2.880000 -7.200000 -2.794497 -10.120215 110.227982
3.200000 2.880000 -7.160000 2.205251 -6.519177 47.362808
3.200000 2.880000 -7.120000 1.617836 2.469702 8.716820
3.200000 2.880000 -7.080000 -8.164475 9.083030 149.160095
3.200000 2.880000 -7.040000 -21.885172 5.323772 507.303314
3.200000 2.880000 -7.000000 -29.169937 -8.925976 930.558289
3.200000 2.880000 -6.960000 -23.628910 -24.941202 1180.388916
3.200000 2.880000 -6.920000 -8.412999 -32.419193 1121.782715
3.200000 2.880000 -6.880000 6.930962 -27.769674 819.192993
3.200000 2.880000 -6.840000 14.643176 -15.686678 460.494476
3.200000 2.880000 -6.800000 13.753517 -3.539783 201.689301
3.200000 2.920000 -7.200000 7.552968 -10.056464 158.179794
3.200000 2.920000 -7.160000 9.519914 -3.669556 104.094391
3.200000 2.920000 -7.120000 4.384479 2.061626 23.473955
3.200000 2.920000 -7.080000 -4.143317 0.970013 18.108002
3.200000 2.920000 -7.040000 -8.762192 -7.061560 126.641624
3.200000 2.920000 -7.000000 -5.408024 -16.085300 287.983612
3.200000 2.920000 -6.960000 3.528562 -19.720861 401.363129
3.200000 2.920000 -6.920000 12.192170 -16.255178 412.879852
3.200000 2.920000 -6.880000 16.435795 -8.571180 343.600464
3.200000 2.920000 -6.840000 15.770238 -0.330145 248.809402
3.200000 2.920000 -6.800000 11.282318 6.600461 170.856781
3.200000 2.960000 -7.200000 15.639504 -1.311581 246.314346
3.200000 2.960000 -7.160000 12.389937 5.837552 187.587555
3.200000 2.960000 -7.120000 5.175741 6.272565 66.133369
3.200000 2.960000 -7.080000 1.847588 0.388461 3.564481
3.200000 2.960000 -7.040000 5.554806 -5.081368 56.676178
3.200000 2.960000 -7.000000 12.165939 -4.636104 169.503540
3.200000 2.960000 -6.960000 15.614548 0.786129 244.432098
3.200000 2.960000 -6.920000 14.264965 6.284256 242.981110
3.200000 2.960000 -6.880000 11.048023 9.190527 206.524597
3.200000 2.960000 -6.840000 8.206120 11.100559 190.562836
3.200000 2.960000 -6.800000 4.018622 13.661307 202.780640
3.200000 3.000000 -7.200000 14.344649 12.209296 354.835876
3.200000 3.000000 -7.160000 5.309687 16.303900 294.009918
3.200000 3.000000 -7.120000 -1.126144 10.810745 118.140419
3.200000 3.000000 -7.080000 1.511569 3.644978 15.570704
3.200000 3.000000 -7.040000 9.232338 3.578281 98.040161
3.200000 3.000000 -7.000000 13.020133 10.827674 286.762390
3.200000 3.000000 -6.960000 9.107015 17.999428 406.917114
3.200000 3.000000 -6.920000 2.081772 19.263563 375.418640
3.200000 3.000000 -6.880000 -1.904243 16.379259 271.906250
3.200000 3.000000 -6.840000 -2.786954 14.761233 225.661133
3.200000 3.000000 -6.800000 -5.460305 15.265008 262.835388
3.200000 3.040000 -7.200000 2.011572 21.009935 445.463806
3.200000 3.040000 -7.160000 -10.182461 18.035885 428.975647
3.200000 3.040000 -7.120000 -12.717559 7.171910 213.172592
3.200000 3.040000 -7.080000 -4.589810 0.916075 21.905552
3.200000 3.040000 -7.040000 4.244794 5.466756 47.903694
3.200000 3.040000 -7.000000 4.532957 15.226523 252.394714
3.200000 3.040000 -6.960000 -2.924608 20.451748 426.827332
3.200000 3.040000 -6.920000 -10.100394 18.105957 429.843658
3.200000 3.040000 -6.880000 -11.985393 13.428831 323.983154
3.200000 3.040000 -6.840000 -11.392542 11.674267 266.078522
3.200000 3.040000 -6.800000 -13.199540 11.258802 300.988495
3.200000 3.080000 -7.200000 -13.911930 17.013485 483.000488
3.200000 3.080000 -7.160000 -23.774239 5.698713 597.689758
3.200000 3.080000 -7.120000 -19.304705 -8.069749 437.792480
3.200000 3.080000 -7.080000 -5.877268 -11.430178 165.191238
3.200000 3.080000 -7.040000 3.701144 -2.735658 21.182295
3.200000 3.080000 -7.000000 2.417399 8.746614 82.347084
3.200000 3.080000 -6.960000 -5.719447 13.798776 223.118286
3.200000 3.080000 -6.920000 -12.456795 11.744879 293.113922
3.200000 3.080000 -6.880000 -14.585097 8.079847 278.009003
3.200000 3.080000 -6.840000 -15.001759 6.256313 264.194214
3.200000 3.080000 -6.800000 -16.223934 4.514703 283.598572
3.200000 3.120000 -7.200000 -21.410330 1.467360 460.555359
3.200000 3.120000 -7.160000 -23.615475 -14.834715 777.759460
3.200000 3.120000 -7.120000 -10.844475 -26.714571 831.270874
3.200000 3.120000 -7.080000 6.746092 -24.083944 625.546143
3.200000 3.120000 -7.040000 16.073568 -9.672594 351.918671
3.200000 3.120000 -7.000000 12.564820 5.435221 187.416336
3.200000 3.120000 -6.960000 1.754299 12.650241 163.106155
3.200000 3.120000 -6.920000 -8.211675 11.604937 202.106171
3.200000 3.120000 -6.880000 -13.623320 6.953270 233.942795
3.200000 3.120000 -6.840000 -15.335292 2.373355 240.803986
3.200000 3.120000 -6.800000 -14.855813 -1.046157 221.789627
3.200000 3.160000 -7.200000 -13.944210 -14.491557 404.446228
3.200000 3.160000 -7.160000 -7.205663 -29.228090 906.202820
3.200000 3.160000 -7.120000 11.216690 -33.945152 1278.087402
3.200000 3.160000 -7.080000 28.875809 -22.725079 1350.241455
3.200000 3.160000 -7.040000 33.970787 -1.815788 1157.311523
3.200000 3.160000 -7.000000 24.251560 16.503839 860.514893
3.200000 3.160000 -6.960000 6.895177 23.611328 605.038269
3.200000 3.160000 -6.920000 -8.403004 19.239464 440.767456
3.200000 3.160000 -6.880000 -15.940536 9.179306 338.360352
3.200000 3.160000 -6.840000 -15.810019 0.150719 249.979401
3.200000 3.160000 -6.800000 -12.039117 -3.795929 159.349411
3.200000 3.200000 -7.200000 3.096805 -18.541265 353.368744
3.200000 3.200000 -7.160000 14.692630 -26.314133 908.306946
3.200000 3.200000 -7.120000 32.516838 -21.857868 1535.111084
3.200000 3.200000 -7.080000 44.269676 -3.346347 1971.002197
3.200000 3.200000 -7.040000 40.573883 20.502462 2066.590820
3.200000 3.200000 -7.000000 21.982264 36.869484 1842.578857
3.200000 3.200000 -6.960000 -1.789166 37.823803 1433.841187
3.200000 3.200000 -6.920000 -18.930285 25.127914 989.767822
3.200000 3.200000 -6.880000 -23.224371 8.063305 604.388306
3.200000 3.200000 -6.840000 -17.317842 -3.415529 311.573486
3.200000 3.200000 -6.800000 -9.837872 -5.323370 125.121979
