#kx 	ky 	kz 	real 	imag 	intensity
6.800000 6.800000 0.800000 -5.656217 -26.438858 731.005981
6.800000 6.800000 0.840000 0.770851 -21.521286 463.759949
6.800000 6.800000 0.880000 -0.041714 -17.385889 302.270874
6.800000 6.800000 0.920000 -2.292817 -20.049194 407.227203
6.800000 6.800000 0.960000 2.286905 -26.654594 715.697327
6.800000 6.800000 1.000000 14.898457 -27.829025 996.418640
6.800000 6.800000 1.040000 27.262606 -17.510357 1049.862305
6.800000 6.800000 1.080000 29.362413 0.161046 862.177246
6.800000 6.800000 1.120000 19.210083 14.436484 577.439331
6.800000 6.800000 1.160000 4.272079 18.144791 347.484100
6.800000 6.800000 1.200000 -6.626470 13.438638 224.507080
6.800000 6.840000 0.800000 7.046142 -31.129305 1018.681763
6.800000 6.840000 0.840000 11.475477 -25.498468 781.858459
6.800000 6.840000 0.880000 12.231952 -23.747227 713.551392
6.800000 6.840000 0.920000 16.361769 -25.196320 902.562012
6.800000 6.840000 0.960000 25.436001 -22.801819 1166.913086
6.800000 6.840000 1.000000 32.878590 -12.147551 1228.564697
6.800000 6.840000 1.040000 31.167440 2.372825 977.039673
6.800000 6.840000 1.080000 20.585003 11.583501 557.919800
6.800000 6.840000 1.120000 9.226623 11.294189 212.689270
6.800000 6.840000 1.160000 4.087969 6.457289 58.408066
6.800000 6.840000 1.200000 3.518090 4.705719 34.520752
6.800000 6.880000 0.800000 20.269951 -28.340950 1214.080322
6.800000 6.880000 0.840000 24.518959 -22.904699 1125.804688
6.800000 6.880000 0.880000 28.720169 -19.789110 1216.457031
6.800000 6.880000 0.920000 35.229649 -14.305557 1445.777100
6.800000 6.880000 0.960000 39.145844 -3.002925 1541.414673
6.800000 6.880000 1.000000 34.491081 9.765635 1285.002197
6.800000 6.880000 1.040000 22.928787 15.474130 765.177979
6.800000 6.880000 1.080000 13.681943 11.480050 318.987122
6.800000 6.880000 1.120000 13.621202 5.269024 213.299744
6.800000 6.880000 1.160000 18.718361 6.665871 394.810883
6.800000 6.880000 1.200000 17.683821 16.060440 570.655273
6.800000 6.920000 0.800000 30.944626 -18.897343 1314.679443
6.800000 6.920000 0.840000 35.275459 -11.534750 1377.408447
6.800000 6.920000 0.880000 39.260590 -3.651347 1554.726196
6.800000 6.920000 0.920000 40.581116 7.550035 1703.829956
6.800000 6.920000 0.960000 34.663795 19.025951 1563.565552
6.800000 6.920000 1.000000 22.984337 23.358961 1073.920776
6.800000 6.920000 1.040000 14.531893 18.053629 537.109375
6.800000 6.920000 1.080000 16.679745 11.011587 399.468933
6.800000 6.920000 1.120000 25.348995 13.705570 830.414185
6.800000 6.920000 1.160000 27.046730 28.046587 1518.136719
6.800000 6.920000 1.200000 12.684938 41.836136 1911.169922
6.800000 6.960000 0.800000 35.914383 -3.610868 1302.881226
6.800000 6.960000 0.840000 36.719051 6.541563 1391.080688
6.800000 6.960000 0.880000 34.860489 16.533813 1488.620605
6.800000 6.960000 0.920000 28.448999 25.429087 1455.984009
6.800000 6.960000 0.960000 18.333054 28.663830 1157.715942
6.800000 6.960000 1.000000 11.136516 24.225786 710.910706
6.800000 6.960000 1.040000 13.264677 18.394424 514.306519
6.800000 6.960000 1.080000 21.783827 21.723953 946.465271
6.800000 6.960000 1.120000 24.068363 37.373745 1976.082886
6.800000 6.960000 1.160000 9.416681 54.602760 3070.135254
6.800000 6.960000 1.200000 -18.335119 56.655960 3546.074219
6.800000 7.000000 0.800000 30.833614 14.391056 1157.814331
6.800000 7.000000 0.840000 24.445469 22.890965 1121.577148
6.800000 7.000000 0.880000 16.541620 27.291145 1018.431885
6.800000 7.000000 0.920000 8.903914 27.236177 821.089111
6.800000 7.000000 0.960000 5.010448 23.326103 569.211731
6.800000 7.000000 1.000000 7.786523 20.335129 474.147400
6.800000 7.000000 1.040000 14.131159 25.430494 846.399658
6.800000 7.000000 1.080000 14.061831 40.465569 1835.197388
6.800000 7.000000 1.120000 -1.322955 56.517582 3195.987305
6.800000 7.000000 1.160000 -29.525053 58.850754 4335.139648
6.800000 7.000000 1.200000 -55.421383 39.843559 4659.039062
6.800000 7.040000 0.800000 13.638393 27.412590 937.455811
6.800000 7.040000 0.840000 2.422070 26.767042 722.340942
6.800000 7.040000 0.880000 -3.683708 20.635788 439.405457
6.800000 7.040000 0.920000 -2.606159 14.217405 208.926682
6.800000 7.040000 0.960000 3.978121 13.305950 192.873749
6.800000 7.040000 1.000000 9.960238 21.691921 569.745789
6.800000 7.040000 1.040000 6.762677 37.252224 1433.461914
6.800000 7.040000 1.080000 -10.715601 50.535686 2668.679932
6.800000 7.040000 1.120000 -38.074059 49.647331 3914.491211
6.800000 7.040000 1.160000 -61.874763 29.499266 4698.692871
6.800000 7.040000 1.200000 -68.424492 -2.513992 4688.231445
6.800000 7.080000 0.800000 -10.362403 26.410036 804.869385
6.800000 7.080000 0.840000 -17.185627 13.544045 478.786926
6.800000 7.080000 0.880000 -11.759544 1.257297 139.867676
6.800000 7.080000 0.920000 1.411663 -0.858339 2.729539
6.800000 7.080000 0.960000 11.575441 10.539413 245.070084
6.800000 7.080000 1.000000 8.237602 29.288776 925.690491
6.800000 7.080000 1.040000 -11.300091 42.488705 1932.982056
6.800000 7.080000 1.080000 -38.771378 38.666245 2998.298340
6.800000 7.080000 1.120000 -59.411423 16.080082 3788.286133
6.800000 7.080000 1.160000 -61.722466 -15.386587 4046.409912
6.800000 7.080000 1.200000 -45.186874 -40.836105 3709.441162
6.800000 7.120000 0.800000 -28.864601 8.882744 912.068359
6.800000 7.120000 0.840000 -22.092636 -10.022547 588.536011
6.800000 7.120000 0.880000 -2.793327 -16.999573 296.788147
6.800000 7.120000 0.920000 15.156321 -5.516653 260.147522
6.800000 7.120000 0.960000 16.948971 17.444380 591.573975
6.800000 7.120000 1.000000 -1.678656 35.123898 1236.506104
6.800000 7.120000 1.040000 -30.158331 32.993027 1998.064697
6.800000 7.120000 1.080000 -50.288593 9.809829 2625.175293
6.800000 7.120000 1.120000 -49.546680 -21.481735 2916.338379
6.800000 7.120000 1.160000 -29.602503 -43.801605 2794.888672
6.800000 7.120000 1.200000 -3.346729 -48.180794 2332.589600
6.800000 7.160000 0.800000 -30.914974 -16.538261 1229.249756
6.800000 7.160000 0.840000 -9.588193 -29.760561 977.624390
6.800000 7.160000 0.880000 15.581253 -22.338924 741.802979
6.800000 7.160000 0.920000 26.361908 2.288583 700.187805
6.800000 7.160000 0.960000 13.598456 26.661335 895.744812
6.800000 7.160000 1.000000 -14.301213 32.056789 1232.162354
6.800000 7.160000 1.040000 -37.080799 13.464013 1556.265381
6.800000 7.160000 1.080000 -38.452854 -16.365606 1746.455078
6.800000 7.160000 1.120000 -18.431965 -37.508072 1746.592773
6.800000 7.160000 1.160000 8.333427 -38.584190 1558.185791
6.800000 7.160000 1.200000 25.768501 -23.746559 1227.914795
6.800000 7.200000 0.800000 -16.340908 -35.303658 1513.373535
6.800000 7.200000 0.840000 11.141096 -34.866505 1339.797119
6.800000 7.200000 0.880000 30.435434 -13.745623 1115.257812
6.800000 7.200000 0.920000 27.501188 14.659901 971.228027
6.800000 7.200000 0.960000 4.437275 30.104929 925.996155
6.800000 7.200000 1.000000 -20.977116 21.734343 912.421021
6.800000 7.200000 1.040000 -29.400253 -2.792171 872.171082
6.800000 7.200000 1.080000 -15.555174 -23.864841 811.494080
6.800000 7.200000 1.120000 8.505188 -26.375614 768.011230
6.800000 7.200000 1.160000 24.911764 -11.081498 743.395630
6.800000 7.200000 1.200000 24.812096 8.643560 690.351196
6.840000 6.800000 0.800000 10.954421 -7.359262 174.158081
6.840000 6.800000 0.840000 5.033088 -5.418281 54.689743
6.840000 6.800000 0.880000 1.203895 -11.949067 144.229568
6.840000 6.800000 0.920000 7.029421 -20.907681 486.543884
6.840000 6.800000 0.960000 21.010641 -21.908964 921.449768
6.840000 6.800000 1.000000 32.912792 -10.476078 1193.000000
6.840000 6.800000 1.040000 33.146294 7.046630 1148.331787
6.840000 6.800000 1.080000 21.712339 19.340670 845.487183
6.840000 6.800000 1.120000 7.428499 20.658165 481.942383
6.840000 6.800000 1.160000 -1.460549 14.937713 225.268463
6.840000 6.800000 1.200000 -4.798749 9.521744 113.691597
6.840000 6.840000 0.800000 13.508858 -6.095613 219.645737
6.840000 6.840000 0.840000 13.293398 -8.263456 244.999146
6.840000 6.840000 0.880000 19.387100 -10.648643 489.253265
6.840000 6.840000 0.920000 29.011297 -5.570271 872.683289
6.840000 6.840000 0.960000 32.898941 8.045802 1147.075317
6.840000 6.840000 1.000000 25.009109 21.729599 1097.631104
6.840000 6.840000 1.040000 9.935246 25.297718 738.683655
6.840000 6.840000 1.080000 -0.876162 17.570522 309.490936
6.840000 6.840000 1.120000 -0.880552 7.946555 63.923111
6.840000 6.840000 1.160000 4.563339 6.276443 60.217804
6.840000 6.840000 1.200000 4.350296 11.686261 155.493774
6.840000 6.880000 0.800000 16.258511 -4.564322 285.172211
6.840000 6.880000 0.840000 23.670151 -3.115036 569.979492
6.840000 6.880000 0.880000 31.839930 6.813124 1060.199829
6.840000 6.880000 0.920000 30.585520 24.063421 1514.522217
6.840000 6.880000 0.960000 15.103603 37.028637 1599.238770
6.840000 6.880000 1.000000 -5.913083 33.927189 1186.018799
6.840000 6.880000 1.040000 -16.201914 16.090996 521.422119
6.840000 6.880000 1.080000 -7.803913 -0.849125 61.622070
6.840000 6.880000 1.120000 9.541762 -1.302591 92.741974
6.840000 6.880000 1.160000 16.849174 14.153847 484.226074
6.840000 6.880000 1.200000 4.993271 28.257454 823.416443
6.840000 6.920000 0.800000 19.922762 -0.567266 397.238220
6.840000 6.920000 0.840000 28.015108 10.779437 901.042542
6.840000 6.920000 0.880000 25.696863 30.126339 1567.925049
6.840000 6.920000 0.920000 6.787065 44.701603 2044.297485
6.840000 6.920000 0.960000 -19.369848 39.828888 1961.531372
6.840000 6.920000 1.000000 -32.559456 15.450462 1298.834961
6.840000 6.920000 1.040000 -20.451054 -9.549015 509.429291
6.840000 6.920000 1.080000 7.044500 -12.893467 215.866470
6.840000 6.920000 1.120000 24.491016 9.272182 685.783264
6.840000 6.920000 1.160000 14.440805 36.823734 1564.524292
6.840000 6.920000 1.200000 -15.158068 43.792114 2147.516357
6.840000 6.960000 0.800000 20.955753 8.168144 505.862183
6.840000 6.960000 0.840000 19.455330 26.040035 1056.593262
6.840000 6.960000 0.880000 2.025538 41.248768 1705.563599
6.840000 6.960000 0.920000 -24.976088 38.366531 2095.795654
6.840000 6.960000 0.960000 -41.542156 13.650006 1912.073364
6.840000 6.960000 1.000000 -31.270636 -15.913027 1231.077148
6.840000 6.960000 1.040000 0.148398 -24.556471 603.042297
6.840000 6.960000 1.080000 26.011467 -1.959263 680.435120
6.840000 6.960000 1.120000 21.592279 34.350574 1646.188477
6.840000 6.960000 1.160000 -12.123405 53.039745 2960.191650
6.840000 6.960000 1.200000 -48.130810 37.439735 3718.308594
6.840000 7.000000 0.800000 13.710966 18.470924 529.165649
6.840000 7.000000 0.840000 -0.130094 30.962467 958.691284
6.840000 7.000000 0.880000 -23.017385 29.852875 1420.994141
6.840000 7.000000 0.920000 -39.553699 9.395070 1652.762451
6.840000 7.000000 0.960000 -33.303703 -18.743347 1460.449707
6.840000 7.000000 1.000000 -4.775995 -31.014194 984.690369
6.840000 7.000000 1.040000 23.768551 -12.973545 733.256897
6.840000 7.000000 1.080000 25.541014 24.187889 1237.397339
6.840000 7.000000 1.120000 -5.790565 50.204895 2554.062256
6.840000 7.000000 1.160000 -48.149918 41.844551 4069.380859
6.840000 7.000000 1.200000 -69.619949 4.045924 4863.307129
6.840000 7.040000 0.800000 -2.345168 21.569901 470.760437
6.840000 7.040000 0.840000 -19.099237 19.058924 728.023438
6.840000 7.040000 0.880000 -31.053055 2.998225 973.281616
6.840000 7.040000 0.920000 -26.374073 -19.277018 1067.195068
6.840000 7.040000 0.960000 -3.675989 -30.513680 944.597534
6.840000 7.040000 1.000000 21.409975 -17.415331 761.680786
6.840000 7.040000 1.040000 26.120911 14.340678 887.957031
6.840000 7.040000 1.080000 0.845111 40.642254 1652.507080
6.840000 7.040000 1.120000 -39.521790 37.945396 3001.824951
6.840000 7.040000 1.160000 -66.080635 4.321754 4385.328125
6.840000 7.040000 1.200000 -60.119312 -37.954903 5054.906250
6.840000 7.080000 0.800000 -18.625607 10.690088 461.191193
6.840000 7.080000 0.840000 -24.148352 -4.165956 600.498047
6.840000 7.080000 0.880000 -16.820854 -20.491289 702.834106
6.840000 7.080000 0.920000 2.184154 -26.843237 725.329895
6.840000 7.080000 0.960000 21.363615 -15.130203 685.327087
6.840000 7.080000 1.000000 24.692162 10.207052 713.886719
6.840000 7.080000 1.040000 4.670657 31.655787 1023.903809
6.840000 7.080000 1.080000 -28.655102 30.635460 1759.646240
6.840000 7.080000 1.120000 -52.976006 3.216308 2816.802002
6.840000 7.080000 1.160000 -50.776871 -35.033638 3805.646484
6.840000 7.080000 1.200000 -23.377419 -60.824970 4246.180664
6.840000 7.120000 0.800000 -22.917698 -10.670830 639.087524
6.840000 7.120000 0.840000 -11.177065 -24.326488 716.704773
6.840000 7.120000 0.880000 8.219195 -25.797260 733.053833
6.840000 7.120000 0.920000 23.728050 -11.929228 705.326843
6.840000 7.120000 0.960000 24.004936 10.400727 684.412048
6.840000 7.120000 1.000000 6.152252 26.861223 759.375549
6.840000 7.120000 1.040000 -20.397942 24.682638 1025.308594
6.840000 7.120000 1.080000 -38.851063 2.319691 1514.786011
6.840000 7.120000 1.120000 -36.499390 -28.291321 2132.604248
6.840000 7.120000 1.160000 -13.898196 -49.695072 2662.760010
6.840000 7.120000 1.200000 15.926177 -51.174965 2872.520020
6.840000 7.160000 0.800000 -10.467622 -29.424873 975.394287
6.840000 7.160000 0.840000 11.016678 -29.351646 982.886353
6.840000 7.160000 0.880000 26.762022 -13.330016 893.895142
6.840000 7.160000 0.920000 26.137035 9.491978 773.242249
6.840000 7.160000 0.960000 8.923752 24.645206 687.019592
6.840000 7.160000 1.000000 -14.058681 22.143793 687.994080
6.840000 7.160000 1.040000 -28.152668 3.340161 803.729370
6.840000 7.160000 1.080000 -24.673489 -20.280151 1020.065613
6.840000 7.160000 1.120000 -6.050660 -35.172787 1273.735352
6.840000 7.160000 1.160000 16.996239 -34.392471 1471.714111
6.840000 7.160000 1.200000 33.324387 -20.594673 1534.655273
6.840000 7.200000 0.800000 10.545454 -33.626392 1241.940918
6.840000 7.200000 0.840000 28.105370 -18.918507 1147.821655
6.840000 7.200000 0.880000 30.141125 4.225776 926.344604
6.840000 7.200000 0.920000 15.363191 21.234398 686.927307
6.840000 7.200000 0.960000 -5.856952 21.820007 510.416626
6.840000 7.200000 1.000000 -19.341269 7.287958 427.198975
6.840000 7.200000 1.040000 -17.379475 -11.258468 428.799255
6.840000 7.200000 1.080000 -3.145610 -21.786804 484.559692
6.840000 7.200000 1.120000 13.413427 -19.409332 556.642212
6.840000 7.200000 1.160000 23.500202 -7.673835 611.147278
6.840000 7.200000 1.200000 24.307459 6.226820 629.625854
6.880000 6.800000 0.800000 4.366058 20.865753 454.442139
6.880000 6.800000 0.840000 -7.626918 9.548905 149.351471
6.880000 6.800000 0.880000 -4.373558 -7.416504 74.132538
6.880000 6.800000 0.920000 12.523302 -14.402294 364.259155
6.880000 6.800000 0.960000 28.702160 -4.204125 841.488647
6.880000 6.800000 1.000000 30.442230 14.934250 1149.761230
6.880000 6.800000 1.040000 17.492180 27.510607 1062.809814
6.880000 6.800000 1.080000 2.180351 25.862289 673.611938
6.880000 6.800000 1.120000 -3.999586 16.351492 283.367981
6.880000 6.800000 1.160000 -1.671879 10.541647 113.921501
6.880000 6.800000 1.200000 -0.598011 11.597419 134.857742
6.880000 6.840000 0.800000 -4.946994 15.404281 261.764618
6.880000 6.840000 0.840000 -1.105117 4.719017 23.490406
6.880000 6.840000 0.880000 11.327177 4.720980 150.592590
6.880000 6.840000 0.920000 17.823933 18.185343 648.399292
6.880000 6.840000 0.960000 8.439529 33.086414 1165.936523
6.880000 6.840000 1.000000 -10.886314 34.144646 1284.368652
6.880000 6.840000 1.040000 -23.298290 18.922998 900.890137
6.880000 6.840000 1.080000 -18.141182 1.225528 330.604401
6.880000 6.840000 1.120000 -2.413870 -2.767527 13.485971
6.880000 6.840000 1.160000 6.222757 8.387341 109.070183
6.880000 6.840000 1.200000 -1.655756 19.464338 381.601990
6.880000 6.880000 0.800000 -6.640105 5.694988 76.523895
6.880000 6.880000 0.840000 6.096375 9.482038 127.074852
6.880000 6.880000 0.880000 8.554535 28.022587 858.445435
6.880000 6.880000 0.920000 -10.200760 44.191189 2056.916748
6.880000 6.880000 0.960000 -39.519917 37.903549 2998.502930
6.880000 6.880000 1.000000 -54.391548 7.894062 3020.756592
6.880000 6.880000 1.040000 -39.467667 -23.653557 2117.187500
6.880000 6.880000 1.080000 -5.897997 -30.663979 975.065979
6.880000 6.880000 1.120000 17.538050 -8.592176 381.408691
6.880000 6.880000 1.160000 11.714268 20.302328 549.408630
6.880000 6.880000 1.200000 -14.230668 28.302811 1003.560974
6.880000 6.920000 0.800000 -0.964003 0.126934 0.945413
6.880000 6.920000 0.840000 4.114100 20.111397 421.394104
6.880000 6.920000 0.880000 -16.055878 40.744370 1917.894775
6.880000 6.920000 0.920000 -52.763851 35.654354 4055.256836
6.880000 6.920000 0.960000 -75.206711 -2.093557 5660.432129
6.880000 6.920000 1.000000 -58.630871 -47.725986 5715.348633
6.880000 6.920000 1.040000 -10.852846 -64.298958 4252.140137
6.880000 6.920000 1.080000 31.297089 -37.296902 2370.566650
6.880000 6.920000 1.120000 34.748146 10.083138 1309.103271
6.880000 6.920000 1.160000 0.847702 37.625710 1416.412598
6.880000 6.920000 1.200000 -36.608627 25.329517 1981.776123
6.880000 6.960000 0.800000 4.335896 2.567481 25.391949
6.880000 6.960000 0.840000 -9.151524 25.073362 712.423889
6.880000 6.960000 0.880000 -44.793144 27.076561 2739.565918
6.880000 6.960000 0.920000 -74.113419 -6.972201 5541.410645
6.880000 6.960000 0.960000 -64.760178 -58.809231 7652.406250
6.880000 6.960000 1.000000 -14.138077 -87.212891 7805.973633
6.880000 6.960000 1.040000 42.335018 -65.143768 6035.964355
6.880000 6.960000 1.080000 60.425919 -7.441251 3706.664062
6.880000 6.960000 1.120000 27.380838 40.169952 2363.335449
6.880000 6.960000 1.160000 -26.255701 41.971462 2450.965332
6.880000 6.960000 1.200000 -55.462059 3.611294 3089.081543
6.880000 7.000000 0.800000 2.097042 7.667698 63.191185
6.880000 7.000000 0.840000 -24.179520 15.600628 828.028748
6.880000 7.000000 0.880000 -53.414040 -6.785985 2899.109131
6.880000 7.000000 0.920000 -54.039474 -52.791473 5707.204590
6.880000 7.000000 0.960000 -12.876696 -87.526108 7826.628418
6.880000 7.000000 1.000000 45.752373 -77.070351 8033.118164
6.880000 7.000000 1.040000 76.619232 -22.503464 6376.912598
6.880000 7.000000 1.080000 53.651123 36.438652 4206.218750
6.880000 7.000000 1.120000 -4.998304 54.831768 3031.505859
6.880000 7.000000 1.160000 -52.528893 22.261692 3254.867676
6.880000 7.000000 1.200000 -55.421833 -29.670450 3951.915283
6.880000 7.040000 0.800000 -5.956201 6.157174 73.387123
6.880000 7.040000 0.840000 -27.331093 -4.958189 771.572266
6.880000 7.040000 0.880000 -33.022316 -36.799496 2444.676270
6.880000 7.040000 0.920000 -6.679183 -67.643204 4620.214355
6.880000 7.040000 0.960000 41.093910 -67.334740 6222.676758
6.880000 7.040000 1.000000 75.300003 -26.437983 6369.057129
6.880000 7.040000 1.040000 65.471298 29.574165 5161.122070
6.880000 7.040000 1.080000 14.923645 58.705757 3669.081055
6.880000 7.040000 1.120000 -39.250427 38.698891 3038.200195
6.880000 7.040000 1.160000 -57.670395 -13.241438 3501.210205
6.880000 7.040000 1.200000 -32.063782 -56.631416 4235.203613
6.880000 7.080000 0.800000 -10.100069 -4.838782 125.425217
6.880000 7.080000 0.840000 -13.321451 -22.744366 694.767212
6.880000 7.080000 0.880000 1.929669 -42.040871 1771.158447
6.880000 7.080000 0.920000 32.942593 -44.090477 3029.184570
6.880000 7.080000 0.960000 59.462570 -18.348743 3872.473633
6.880000 7.080000 1.000000 57.708527 23.397905 3877.735840
6.880000 7.080000 1.040000 22.457653 51.916267 3199.645020
6.880000 7.080000 1.080000 -24.383667 43.837601 2516.298340
6.880000 7.080000 1.120000 -49.657799 2.785775 2473.657471
6.880000 7.080000 1.160000 -36.283264 -42.407204 3114.846191
6.880000 7.080000 1.200000 3.235135 -61.809948 3830.935791
6.880000 7.120000 0.800000 -2.552639 -17.584791 315.740845
6.880000 7.120000 0.840000 9.401507 -25.146233 720.721375
6.880000 7.120000 0.880000 27.074368 -22.302801 1230.436279
6.880000 7.120000 0.920000 40.671726 -5.298375 1682.262085
6.880000 7.120000 0.960000 38.497887 20.062241 1884.580811
6.880000 7.120000 1.000000 16.550438 38.640186 1766.980957
6.880000 7.120000 1.040000 -14.903553 35.599785 1489.460571
6.880000 7.120000 1.080000 -35.949017 9.034174 1373.948120
6.880000 7.120000 1.120000 -31.371883 -26.069056 1663.790771
6.880000 7.120000 1.160000 -3.003484 -47.860867 2299.683594
6.880000 7.120000 1.200000 31.396534 -43.987289 2920.624023
6.880000 7.160000 0.800000 13.737006 -20.795137 621.143066
6.880000 7.160000 0.840000 25.873230 -11.741278 807.281616
6.880000 7.160000 0.880000 29.457001 4.015038 883.835449
6.880000 7.160000 0.920000 21.928936 19.056488 844.027954
6.880000 7.160000 0.960000 6.042503 26.145462 720.097046
6.880000 7.160000 1.000000 -11.426580 21.195057 579.797180
6.880000 7.160000 1.040000 -22.103931 5.165807 515.269348
6.880000 7.160000 1.080000 -19.529663 -15.369682 617.634888
6.880000 7.160000 1.120000 -3.030538 -30.323851 928.720032
6.880000 7.160000 1.160000 20.571789 -31.162676 1394.310791
6.880000 7.160000 1.200000 39.890118 -16.366905 1859.097046
6.880000 7.200000 0.800000 27.232212 -11.026279 863.172241
6.880000 7.200000 0.840000 27.619150 6.057613 799.512146
6.880000 7.200000 0.880000 16.317287 18.262444 599.770752
6.880000 7.200000 0.920000 1.079408 19.271212 372.544739
6.880000 7.200000 0.960000 -9.436162 10.836245 206.465347
6.880000 7.200000 1.000000 -11.625622 -0.726184 135.682419
6.880000 7.200000 1.040000 -6.961706 -10.230129 153.120895
6.880000 7.200000 1.080000 1.848852 -15.616148 247.282333
6.880000 7.200000 1.120000 13.063375 -15.837244 421.470093
6.880000 7.200000 1.160000 24.330381 -9.192923 676.477295
6.880000 7.200000 1.200000 30.836891 4.697302 972.978516
6.920000 6.800000 0.800000 -25.067743 35.122223 1861.962402
6.920000 6.800000 0.840000 -30.853426 8.968094 1032.360596
6.920000 6.800000 0.880000 -14.265911 -10.643177 316.793427
6.920000 6.800000 0.920000 9.542053 -8.628410 165.500244
6.920000 6.800000 0.960000 20.023109 10.458427 510.303589
6.920000 6.800000 1.000000 10.580263 27.493660 867.843323
6.920000 6.800000 1.040000 -6.347826 28.059816 827.648193
6.920000 6.800000 1.080000 -13.508049 15.924236 436.048706
6.920000 6.800000 1.120000 -6.943083 6.873332 95.449097
6.920000 6.800000 1.160000 1.422623 10.257000 107.229904
6.920000 6.800000 1.200000 -1.001850 18.809210 354.790070
6.920000 6.840000 0.800000 -36.382011 13.963783 1518.637939
6.920000 6.840000 0.840000 -23.287369 0.819842 542.973694
6.920000 6.840000 0.880000 -9.071442 6.586185 125.668884
6.920000 6.840000 0.920000 -10.946157 21.465698 580.594604
6.920000 6.840000 0.960000 -28.323702 25.412346 1448.019531
6.920000 6.840000 1.000000 -42.689888 9.378468 1910.382202
6.920000 6.840000 1.040000 -36.724964 -14.143556 1548.763184
6.920000 6.840000 1.080000 -13.150364 -23.189793 710.698547
6.920000 6.840000 1.120000 6.949889 -9.193157 132.815094
6.920000 6.840000 1.160000 5.480009 13.360400 208.530792
6.920000 6.840000 1.200000 -13.581104 21.385782 641.798096
6.920000 6.880000 0.800000 -30.465790 -7.807490 989.121277
6.920000 6.880000 0.840000 -17.239922 2.497113 303.450470
6.920000 6.880000 0.880000 -26.906578 20.713192 1153.000244
6.920000 6.880000 0.920000 -55.831207 19.259186 3488.040039
6.920000 6.880000 0.960000 -75.750114 -12.734215 5900.240234
6.920000 6.880000 1.000000 -61.027657 -54.626781 6708.459961
6.920000 6.880000 1.040000 -16.193768 -71.492348 5373.394043
6.920000 6.880000 1.080000 25.348969 -47.805122 2927.899902
6.920000 6.880000 1.120000 31.925854 -3.720081 1033.099121
6.920000 6.880000 1.160000 3.581125 23.418274 561.239990
6.920000 6.880000 1.200000 -28.673523 14.476709 1031.745972
6.920000 6.920000 0.800000 -13.931194 -17.850506 512.718750
6.920000 6.920000 0.840000 -20.230644 5.803038 442.954224
6.920000 6.920000 0.880000 -54.765976 10.093630 3101.193359
6.920000 6.920000 0.920000 -85.377899 -26.084747 7969.799805
6.920000 6.920000 0.960000 -73.770561 -83.675156 12443.626953
6.920000 6.920000 1.000000 -15.532814 -116.131714 13727.843750
6.920000 6.920000 1.040000 50.313976 -92.489563 11085.815430
6.920000 6.920000 1.080000 74.738525 -28.614899 6404.659668
6.920000 6.920000 1.120000 43.630066 25.705070 2564.333252
6.920000 6.920000 1.160000 -10.027780 32.236973 1139.778809
6.920000 6.920000 1.200000 -38.630959 -2.199155 1497.187256
6.920000 6.960000 0.800000 0.395782 -14.735793 217.300247
6.920000 6.960000 0.840000 -27.832769 0.168547 774.691406
6.920000 6.960000 0.880000 -65.119011 -25.297066 4880.426758
6.920000 6.960000 0.920000 -66.557991 -84.971115 11650.056641
6.920000 6.960000 0.960000 -11.864481 -132.281876 17639.259766
6.920000 6.960000 1.000000 68.160973 -120.979202 19281.886719
6.920000 6.960000 1.040000 114.485641 -50.939728 15701.818359
6.920000 6.960000 1.080000 92.784096 27.701290 9376.250000
6.920000 6.960000 1.120000 25.038004 58.500450 4049.204346
6.920000 6.960000 1.160000 -31.638720 28.618877 1820.048706
6.920000 6.960000 1.200000 -37.776192 -23.610390 1984.491211
6.920000 7.000000 0.800000 5.475406 -7.323946 83.620255
6.920000 7.000000 0.840000 -27.745377 -15.044533 996.143860
6.920000 7.000000 0.880000 -42.130672 -60.627335 5450.666992
6.920000 7.000000 0.920000 -5.872560 -111.425018 12450.022461
6.920000 7.000000 0.960000 68.925804 -117.416748 18537.458984
6.920000 7.000000 1.000000 129.104675 -59.412037 20197.808594
6.920000 7.000000 1.040000 125.889542 27.388847 16598.326172
6.920000 7.000000 1.080000 60.393936 81.056061 10217.512695
6.920000 7.000000 1.120000 -16.121536 67.268204 4784.915039
6.920000 7.000000 1.160000 -48.422947 7.996415 2408.724365
6.920000 7.000000 1.200000 -24.885344 -42.479897 2423.822021
6.920000 7.040000 0.800000 5.116739 -4.414335 45.667374
6.920000 7.040000 0.840000 -13.001837 -28.281403 968.885498
6.920000 7.040000 0.880000 1.754491 -67.848099 4606.442871
6.920000 7.040000 0.920000 54.490280 -84.521118 10113.009766
6.920000 7.040000 0.960000 111.320305 -49.451134 14837.625000
6.920000 7.040000 1.000000 124.695450 24.197546 16134.476562
6.920000 7.040000 1.040000 76.979156 86.517174 13411.011719
6.920000 7.040000 1.080000 -0.246918 92.630493 8580.468750
6.920000 7.040000 1.120000 -52.039078 42.179222 4487.152344
6.920000 7.040000 1.160000 -47.425789 -21.682354 2719.330078
6.920000 7.040000 1.200000 -3.082870 -52.251354 2739.708252
6.920000 7.080000 0.800000 7.504483 -5.935082 91.542473
6.920000 7.080000 0.840000 9.460196 -26.662476 800.382935
6.920000 7.080000 0.880000 36.086231 -41.435501 3019.116699
6.920000 7.080000 0.920000 74.155731 -26.626728 6208.054688
6.920000 7.080000 0.960000 92.026367 20.351704 8883.043945
6.920000 7.080000 1.000000 66.704346 71.850250 9611.927734
6.920000 7.080000 1.040000 7.946268 89.768150 8121.463867
6.920000 7.080000 1.080000 -45.788860 58.552757 5525.044922
6.920000 7.080000 1.120000 -58.483047 0.145230 3420.287842
6.920000 7.080000 1.160000 -26.387836 -44.301746 2658.962646
6.920000 7.080000 1.200000 21.302666 -49.044533 2859.169678
6.920000 7.120000 0.800000 14.999002 -4.741272 247.449707
6.920000 7.120000 0.840000 24.295666 -9.120352 673.460205
6.920000 7.120000 0.880000 39.695198 -2.843311 1583.793213
6.920000 7.120000 0.920000 49.007683 18.816486 2755.812988
6.920000 7.120000 0.960000 38.290192 47.105499 3685.066895
6.920000 7.120000 1.000000 5.734222 62.301903 3914.408447
6.920000 7.120000 1.040000 -32.049156 48.795734 3408.172119
6.920000 7.120000 1.080000 -50.147945 10.237746 2619.627930
6.920000 7.120000 1.120000 -35.069016 -30.339722 2150.334473
6.920000 7.120000 1.160000 3.521510 -47.537697 2272.233643
6.920000 7.120000 1.200000 40.380562 -33.205421 2733.189697
6.920000 7.160000 0.800000 21.548712 3.800398 478.790009
6.920000 7.160000 0.840000 22.121761 11.920077 631.460571
6.920000 7.160000 0.880000 18.219664 20.187698 739.499268
6.920000 7.160000 0.920000 9.953437 26.740747 814.138489
6.920000 7.160000 0.960000 -2.709686 29.032194 850.210693
6.920000 7.160000 1.000000 -17.524540 22.908653 831.915894
6.920000 7.160000 1.040000 -27.505436 5.994228 792.479797
6.920000 7.160000 1.080000 -23.706982 -16.989716 850.671387
6.920000 7.160000 1.120000 -3.023294 -33.747597 1148.040527
6.920000 7.160000 1.160000 26.158783 -32.061649 1712.231201
6.920000 7.160000 1.200000 47.647999 -10.066404 2371.664307
6.920000 7.200000 0.800000 20.161001 15.658821 651.664673
6.920000 7.200000 0.840000 8.157943 22.222116 560.374512
6.920000 7.200000 0.880000 -4.395435 18.324709 355.114807
6.920000 7.200000 0.920000 -9.759890 8.401503 165.840698
6.920000 7.200000 0.960000 -8.010227 0.120817 64.178337
6.920000 7.200000 1.000000 -4.652386 -4.108423 38.523834
6.920000 7.200000 1.040000 -2.300154 -8.040094 69.933830
6.920000 7.200000 1.080000 3.007232 -14.198524 210.641510
6.920000 7.200000 1.120000 15.824959 -17.661621 562.362183
6.920000 7.200000 1.160000 32.605522 -9.674822 1156.722290
6.920000 7.200000 1.200000 41.397911 11.823679 1853.586426
6.960000 6.800000 0.800000 -57.776470 21.804649 3813.563232
6.960000 6.800000 0.840000 -48.243469 -10.996622 2448.358154
6.960000 6.800000 0.880000 -19.725794 -23.936926 962.083374
6.960000 6.800000 0.920000 4.147635 -11.491043 149.246933
6.960000 6.800000 0.960000 6.677846 10.181362 148.253754
6.960000 6.800000 1.000000 -7.247498 19.932243 449.820526
6.960000 6.800000 1.040000 -18.386177 12.301333 489.374329
6.960000 6.800000 1.080000 -14.302841 0.926360 205.429398
6.960000 6.800000 1.120000 -1.813847 1.754118 6.366969
6.960000 6.800000 1.160000 2.281264 14.851561 225.773010
6.960000 6.800000 1.200000 -8.702900 24.799284 690.744934
6.960000 6.840000 0.800000 -57.833652 -12.435684 3499.377686
6.960000 6.840000 0.840000 -36.872383 -21.298462 1813.197144
6.960000 6.840000 0.880000 -24.844433 -11.959669 760.279541
6.960000 6.840000 0.920000 -30.932783 -3.214958 967.173035
6.960000 6.840000 0.960000 -42.652687 -11.340660 1947.862305
6.960000 6.840000 1.000000 -39.577389 -32.098289 2596.669922
6.960000 6.840000 1.040000 -16.115982 -44.356300 2227.206299
6.960000 6.840000 1.080000 10.791737 -32.349590 1162.957520
6.960000 6.840000 1.120000 17.957697 -3.428085 334.230652
6.960000 6.840000 1.160000 -0.118341 17.907650 320.697937
6.960000 6.840000 1.200000 -24.819263 14.314859 820.911072
6.960000 6.880000 0.800000 -36.286938 -37.038605 2688.600098
6.960000 6.880000 0.840000 -28.167183 -23.007990 1322.757812
6.960000 6.880000 0.880000 -44.603470 -15.981205 2244.868408
6.960000 6.880000 0.920000 -64.099945 -37.520573 5516.596191
6.960000 6.880000 0.960000 -55.272537 -77.716026 9094.833984
6.960000 6.880000 1.000000 -10.749958 -101.507637 10419.362305
6.960000 6.880000 1.040000 41.357323 -82.578316 8529.606445
6.960000 6.880000 1.080000 61.936836 -30.969212 4795.263672
6.960000 6.880000 1.120000 37.849434 14.372456 1639.147095
6.960000 6.880000 1.160000 -5.655402 21.612675 499.091278
6.960000 6.880000 1.200000 -29.643593 -5.053767 904.283203
6.960000 6.920000 0.800000 -7.538855 -41.298035 1762.362061
6.960000 6.920000 0.840000 -24.976748 -25.137684 1255.740967
6.960000 6.920000 0.880000 -55.188622 -44.618416 5036.586914
6.960000 6.920000 0.920000 -54.628857 -97.018280 12396.859375
6.960000 6.920000 0.960000 -2.120403 -139.033081 19334.693359
6.960000 6.920000 1.000000 74.220161 -126.326492 21467.015625
6.960000 6.920000 1.040000 118.662048 -58.328705 17482.919922
6.960000 6.920000 1.080000 98.863167 17.631750 10084.804688
6.960000 6.920000 1.120000 35.936287 48.566170 3650.089600
6.960000 6.920000 1.160000 -16.324955 23.212271 805.313660
6.960000 6.920000 1.200000 -21.842928 -21.648129 945.755005
6.960000 6.960000 0.800000 13.106368 -29.334755 1032.304688
6.960000 6.960000 0.840000 -19.802834 -32.624157 1456.487793
6.960000 6.960000 0.880000 -34.995148 -79.480904 7541.874023
6.960000 6.960000 0.920000 5.614651 -133.923706 17967.082031
6.960000 6.960000 0.960000 89.474319 -139.141556 27366.027344
6.960000 6.960000 1.000000 157.242676 -73.375313 30109.195312
6.960000 6.960000 1.040000 155.098328 24.106136 24636.597656
6.960000 6.960000 1.080000 85.146408 85.436646 14549.331055
6.960000 6.960000 1.120000 3.687029 74.609283 5580.139648
6.960000 6.960000 1.160000 -30.965267 16.983845 1247.298828
6.960000 6.960000 1.200000 -9.249289 -29.522505 957.127625
6.960000 7.000000 0.800000 20.728987 -13.128523 602.049011
6.960000 7.000000 0.840000 -5.074951 -38.994488 1546.325195
6.960000 7.000000 0.880000 11.249033 -89.695908 8171.896484
6.960000 7.000000 0.920000 79.290428 -112.709702 18990.449219
6.960000 7.000000 0.960000 154.846832 -68.124084 28618.431641
6.960000 7.000000 1.000000 175.281799 27.686207 31490.234375
6.960000 7.000000 1.040000 117.677704 110.523254 26063.431641
6.960000 7.000000 1.080000 22.318626 123.990265 15871.707031
6.960000 7.000000 1.120000 -42.821358 68.905952 6581.699219
6.960000 7.000000 1.160000 -42.059021 -1.177614 1770.348022
6.960000 7.000000 1.200000 1.635751 -32.039822 1029.225830
6.960000 7.040000 0.800000 20.451891 -0.735175 418.820343
6.960000 7.040000 0.840000 15.530184 -32.873234 1321.836182
6.960000 7.040000 0.880000 53.167934 -61.426697 6600.068359
6.960000 7.040000 0.920000 114.492233 -44.209560 15062.957031
6.960000 7.040000 0.960000 148.102203 26.267342 22624.234375
6.960000 7.040000 1.000000 115.875580 107.883163 25065.927734
6.960000 7.040000 1.040000 31.326229 142.062912 21163.203125
6.960000 7.040000 1.080000 -48.795021 105.391251 13488.269531
6.960000 7.040000 1.120000 -73.294098 29.943848 6268.659180
6.960000 7.040000 1.160000 -39.073112 -27.117958 2262.091797
6.960000 7.040000 1.200000 12.365664 -34.040375 1311.656738
6.960000 7.080000 0.800000 18.324591 8.151942 402.244781
6.960000 7.080000 0.840000 28.147717 -11.709583 929.408264
6.960000 7.080000 0.880000 61.369473 -12.648205 3926.189209
6.960000 7.080000 0.920000 90.538979 23.150656 8733.259766
6.960000 7.080000 0.960000 81.473152 80.495934 13117.469727
6.960000 7.080000 1.000000 26.527983 118.521866 14751.166016
6.960000 7.080000 1.040000 -43.375160 104.945648 12894.993164
6.960000 7.080000 1.080000 -82.276474 45.770233 8864.332031
6.960000 7.080000 1.120000 -67.609413 -18.603430 4917.120117
6.960000 7.080000 1.160000 -17.635120 -47.705063 2586.770508
6.960000 7.080000 1.200000 27.644043 -33.202164 1866.576782
6.960000 7.120000 0.800000 14.742731 16.688194 495.843933
6.960000 7.120000 0.840000 22.197109 12.755565 655.416138
6.960000 7.120000 0.880000 34.152752 22.435287 1669.752686
6.960000 7.120000 0.920000 34.265709 46.664227 3351.688965
6.960000 7.120000 0.960000 10.633835 69.757660 4979.209961
6.960000 7.120000 1.000000 -29.933990 69.750412 5761.164062
6.960000 7.120000 1.040000 -63.007133 37.884888 5405.163574
6.960000 7.120000 1.080000 -64.771568 -10.725044 4310.382324
6.960000 7.120000 1.120000 -32.121113 -46.777885 3219.936523
6.960000 7.120000 1.160000 13.996408 -49.454395 2641.636719
6.960000 7.120000 1.200000 45.391701 -21.893688 2539.739990
6.960000 7.160000 0.800000 7.042644 23.971468 624.230103
6.960000 7.160000 0.840000 2.079918 24.305555 595.086060
6.960000 7.160000 0.880000 -2.181297 24.185856 589.713684
6.960000 7.160000 0.920000 -7.724140 24.806261 675.012939
6.960000 7.160000 0.960000 -17.385193 23.310392 845.619324
6.960000 7.160000 1.000000 -29.147564 13.520351 1032.380371
6.960000 7.160000 1.040000 -33.912971 -7.065849 1200.015869
6.960000 7.160000 1.080000 -21.842266 -30.723015 1420.988281
6.960000 7.160000 1.120000 7.071936 -42.038719 1817.266235
6.960000 7.160000 1.160000 38.992538 -29.775293 2406.986328
6.960000 7.160000 1.200000 54.797619 2.241236 3007.802246
6.960000 7.200000 0.800000 -3.744596 25.593473 669.047852
6.960000 7.200000 0.840000 -15.957857 17.831871 572.628784
6.960000 7.200000 0.880000 -19.101551 3.203302 375.130402
6.960000 7.200000 0.920000 -11.707150 -8.075343 202.268509
6.960000 7.200000 0.960000 -1.847656 -10.182608 107.099335
6.960000 7.200000 1.000000 2.518654 -7.799400 67.174263
6.960000 7.200000 1.040000 3.257638 -9.528954 101.413162
6.960000 7.200000 1.080000 9.836966 -15.880718 348.963104
6.960000 7.200000 1.120000 26.641605 -16.264631 974.313354
6.960000 7.200000 1.160000 44.270378 -0.048645 1959.868652
6.960000 7.200000 1.200000 46.011665 29.661636 2996.885986
7.000000 6.800000 0.800000 -71.261078 -11.328959 5206.486328
7.000000 6.800000 0.840000 -46.316116 -39.198074 3681.671631
7.000000 6.800000 0.880000 -12.576765 -40.428856 1792.667480
7.000000 6.800000 0.920000 6.865445 -20.368248 461.999878
7.000000 6.800000 0.960000 4.220528 0.227596 17.864653
7.000000 6.800000 1.000000 -8.087975 5.567715 96.414780
7.000000 6.800000 1.040000 -12.389633 -1.206313 154.958191
7.000000 6.800000 1.080000 -4.570721 -4.378334 40.061295
7.000000 6.800000 1.120000 3.096419 5.345547 38.162682
7.000000 6.800000 1.160000 -2.654828 20.148947 413.028168
7.000000 6.800000 1.200000 -19.996382 24.216055 986.272583
7.000000 6.840000 0.800000 -54.113842 -46.965012 5134.020508
7.000000 6.840000 0.840000 -30.049385 -48.989056 3302.893066
7.000000 6.840000 0.880000 -19.385075 -39.458694 1932.769653
7.000000 6.840000 0.920000 -21.058083 -36.016350 1740.620361
7.000000 6.840000 0.960000 -19.546829 -44.507011 2362.952637
7.000000 6.840000 1.000000 -3.448837 -52.713394 2790.596436
7.000000 6.840000 1.040000 20.218983 -44.067524 2350.753906
7.000000 6.840000 1.080000 31.684151 -17.071613 1295.325317
7.000000 6.840000 1.120000 18.810734 10.481026 463.695618
7.000000 6.840000 1.160000 -9.100320 17.873260 402.269257
7.000000 6.840000 1.200000 -29.081905 1.996240 849.742188
7.000000 6.880000 0.800000 -19.038692 -62.725086 4296.908203
7.000000 6.880000 0.840000 -15.605680 -51.110840 2855.855225
7.000000 6.880000 0.880000 -25.874630 -56.054623 3811.617188
7.000000 6.880000 0.920000 -22.694229 -81.610413 7175.287109
7.000000 6.880000 0.960000 10.778141 -103.113846 10748.632812
7.000000 6.880000 1.000000 59.522972 -91.165634 11854.157227
7.000000 6.880000 1.040000 87.651649 -43.202621 9549.278320
7.000000 6.880000 1.080000 72.295036 10.327095 5333.221191
7.000000 6.880000 1.120000 26.437502 32.755669 1771.875366
7.000000 6.880000 1.160000 -12.733679 14.760854 380.029358
7.000000 6.880000 1.200000 -18.433910 -18.655609 687.840820
7.000000 6.920000 0.800000 15.022902 -53.833439 3123.726562
7.000000 6.920000 0.840000 -3.022475 -51.339687 2644.898682
7.000000 6.920000 0.880000 -11.121346 -82.544708 6937.313477
7.000000 6.920000 0.920000 22.925751 -120.548019 15057.415039
7.000000 6.920000 0.960000 90.320007 -119.670647 22478.767578
7.000000 6.920000 1.000000 143.347000 -62.188900 24415.822266
7.000000 6.920000 1.040000 138.560730 19.559586 19581.654297
7.000000 6.920000 1.080000 78.651093 69.981384 11083.388672
7.000000 6.920000 1.120000 10.715431 60.398777 3762.832764
7.000000 6.920000 1.160000 -17.467281 13.097075 476.639282
7.000000 6.920000 1.200000 0.566899 -23.471573 551.236084
7.000000 6.960000 0.800000 34.040058 -29.984940 2057.822266
7.000000 6.960000 0.840000 12.322664 -49.147789 2567.353271
7.000000 6.960000 0.880000 28.894905 -93.085434 9499.814453
7.000000 6.960000 0.920000 94.142273 -110.969650 21177.031250
7.000000 6.960000 0.960000 165.285553 -64.301636 31454.015625
7.000000 6.960000 1.000000 182.174774 30.086575 34092.851562
7.000000 6.960000 1.040000 124.459648 109.753342 27536.000000
7.000000 6.960000 1.080000 32.781158 121.952103 15946.919922
7.000000 6.960000 1.120000 -27.922222 70.381027 5733.139160
7.000000 6.960000 1.160000 -26.567484 7.829304 767.129150
7.000000 6.960000 1.200000 11.486425 -15.914984 385.224670
7.000000 7.000000 0.800000 36.188496 -4.767433 1332.335571
7.000000 7.000000 0.840000 29.608974 -37.731968 2300.392822
7.000000 7.000000 0.880000 71.453842 -68.200821 9757.003906
7.000000 7.000000 0.920000 140.283051 -46.867477 21875.894531
7.000000 7.000000 0.960000 176.977982 34.350719 32501.177734
7.000000 7.000000 1.000000 139.336121 126.584763 35438.257812
7.000000 7.000000 1.040000 44.865036 164.546478 29088.414062
7.000000 7.000000 1.080000 -42.256737 125.216553 17464.816406
7.000000 7.000000 1.120000 -68.161713 47.081875 6862.721680
7.000000 7.000000 1.160000 -34.406742 -8.009007 1247.968018
7.000000 7.000000 1.200000 11.366930 -10.951365 249.139481
7.000000 7.040000 0.800000 27.540709 14.052679 955.968384
7.000000 7.040000 0.840000 38.916115 -14.193853 1715.929443
7.000000 7.040000 0.880000 84.800713 -16.884485 7476.246582
7.000000 7.040000 0.920000 125.834213 31.914818 16852.804688
7.000000 7.040000 0.960000 114.370796 110.225723 25230.388672
7.000000 7.040000 1.000000 41.723873 161.808533 27922.882812
7.000000 7.040000 1.040000 -48.793137 145.598297 23579.632812
7.000000 7.040000 1.080000 -98.015961 73.329704 14984.375000
7.000000 7.040000 1.120000 -81.960915 -1.524141 6719.914551
7.000000 7.040000 1.160000 -28.734936 -32.074177 1854.449341
7.000000 7.040000 1.200000 12.705171 -15.850545 412.661133
7.000000 7.080000 0.800000 13.930559 25.217670 829.991394
7.000000 7.080000 0.840000 30.116663 12.293929 1058.154053
7.000000 7.080000 0.880000 57.713837 27.777611 4102.482422
7.000000 7.080000 0.920000 62.919373 72.905327 9274.034180
7.000000 7.080000 0.960000 24.257488 116.352341 14126.292969
7.000000 7.080000 1.000000 -43.027523 119.363731 16099.068359
7.000000 7.080000 1.040000 -96.031380 71.296799 14305.259766
7.000000 7.080000 1.080000 -100.031204 1.121572 10007.500000
7.000000 7.080000 1.120000 -57.545265 -46.791275 5500.880859
7.000000 7.080000 1.160000 -3.577019 -49.511276 2464.161621
7.000000 7.080000 1.200000 26.686012 -20.478930 1131.529785
7.000000 7.120000 0.800000 -1.674961 28.886650 837.244019
7.000000 7.120000 0.840000 5.465396 25.646870 687.632446
7.000000 7.120000 0.880000 11.283804 37.245041 1514.517334
7.000000 7.120000 0.920000 0.056755 56.371063 3177.699951
7.000000 7.120000 0.960000 -30.907349 63.189434 4948.168945
7.000000 7.120000 1.000000 -64.845726 42.291714 5993.557129
7.000000 7.120000 1.040000 -76.997063 -1.592735 5931.084473
7.000000 7.120000 1.080000 -55.083145 -44.484077 5012.985840
7.000000 7.120000 1.120000 -10.414068 -61.097057 3841.303223
7.000000 7.120000 1.160000 30.665352 -44.280991 2901.169922
7.000000 7.120000 1.200000 47.172699 -8.898631 2304.448975
7.000000 7.160000 0.800000 -15.992677 24.394846 850.874268
7.000000 7.160000 0.840000 -19.054440 17.815231 680.454102
7.000000 7.160000 0.880000 -19.831863 12.757723 556.062256
7.000000 7.160000 0.920000 -21.637341 9.347084 555.542480
7.000000 7.160000 0.960000 -26.247360 3.606167 701.928345
7.000000 7.160000 1.000000 -29.690758 -9.215542 966.467285
7.000000 7.160000 1.040000 -23.403545 -27.907745 1326.568115
7.000000 7.160000 1.080000 -2.036829 -42.348431 1797.538208
7.000000 7.160000 1.120000 28.624138 -39.554539 2383.902832
7.000000 7.160000 1.160000 52.550507 -15.102748 2989.648682
7.000000 7.160000 1.200000 54.561546 20.617376 3402.038574
7.000000 7.200000 0.800000 -23.749414 13.513580 746.651489
7.000000 7.200000 0.840000 -27.188053 -2.103339 743.614258
7.000000 7.200000 0.880000 -18.557863 -17.726326 658.616943
7.000000 7.200000 0.920000 -2.097540 -23.390434 551.512085
7.000000 7.200000 0.960000 11.180708 -17.768230 440.718262
7.000000 7.200000 1.000000 15.271682 -9.757111 328.425476
7.000000 7.200000 1.040000 15.861597 -7.918156 314.287445
7.000000 7.200000 1.080000 23.132021 -9.465886 624.693359
7.000000 7.200000 1.120000 37.914871 -2.301259 1442.833252
7.000000 7.200000 1.160000 47.278191 20.609125 2659.963379
7.000000 7.200000 1.200000 36.226326 50.008415 3813.188232
7.040000 6.800000 0.800000 -58.690922 -42.367577 5239.635742
7.040000 6.800000 0.840000 -25.743134 -58.030582 4030.257568
7.040000 6.800000 0.880000 6.227753 -48.058990 2348.451416
7.040000 6.800000 0.920000 19.930202 -23.478247 948.441040
7.040000 6.800000 0.960000 14.344704 -3.175936 215.857086
7.040000 6.800000 1.000000 2.916298 3.012010 17.576996
7.040000 6.800000 1.040000 -1.450306 1.015537 3.134703
7.040000 6.800000 1.080000 1.087817 3.021011 10.309855
7.040000 6.800000 1.120000 -0.083162 12.653393 160.115265
7.040000 6.800000 1.160000 -12.107655 20.976175 586.595215
7.040000 6.800000 1.200000 -29.217224 17.100204 1146.063232
7.040000 6.840000 0.800000 -29.225626 -68.424721 5536.079590
7.040000 6.840000 0.840000 -5.473213 -64.777184 4226.039551
7.040000 6.840000 0.880000 6.944715 -54.415409 3009.265869
7.040000 6.840000 0.920000 12.466583 -47.718311 2432.453125
7.040000 6.840000 0.960000 20.440056 -44.197990 2371.258301
7.040000 6.840000 1.000000 32.523220 -34.894577 2275.391357
7.040000 6.840000 1.040000 39.325081 -14.778164 1764.856201
7.040000 6.840000 1.080000 30.320566 8.591309 993.147339
7.040000 6.840000 1.120000 6.650827 20.176661 451.331116
7.040000 6.840000 1.160000 -17.305389 11.843816 439.752472
7.040000 6.840000 1.200000 -26.145660 -8.900081 762.807007
7.040000 6.880000 0.800000 9.955453 -69.939247 4990.608887
7.040000 6.880000 0.840000 14.547000 -62.670124 4139.159668
7.040000 6.880000 0.880000 17.968107 -68.401886 5001.670898
7.040000 6.880000 0.920000 37.419304 -77.792366 7451.856445
7.040000 6.880000 0.960000 70.865959 -68.940613 9774.792969
7.040000 6.880000 1.000000 94.945107 -32.178566 10050.033203
7.040000 6.880000 1.040000 86.697845 15.759300 7764.872070
7.040000 6.880000 1.080000 47.460449 44.263927 4211.789551
7.040000 6.880000 1.120000 3.995142 36.587833 1354.630737
7.040000 6.880000 1.160000 -15.119277 5.101019 254.612946
7.040000 6.880000 1.200000 -4.561978 -21.134483 467.478027
7.040000 6.920000 0.800000 40.063385 -48.285316 3936.546387
7.040000 6.920000 0.840000 32.739403 -53.579277 3942.607422
7.040000 6.920000 0.880000 46.948650 -74.549332 7761.778809
7.040000 6.920000 0.920000 90.724213 -78.385422 14375.157227
7.040000 6.920000 0.960000 135.673721 -39.636703 19978.427734
7.040000 6.920000 1.000000 141.291412 29.264320 20819.664062
7.040000 6.920000 1.040000 95.006271 84.528412 16171.244141
7.040000 6.920000 1.080000 26.979210 90.023468 8832.102539
7.040000 6.920000 1.120000 -16.357620 50.218727 2789.492432
7.040000 6.920000 1.160000 -13.894726 4.232896 210.980804
7.040000 6.920000 1.200000 14.507931 -12.145013 357.981384
7.040000 6.960000 0.800000 50.470886 -16.283344 2812.457520
7.040000 6.960000 0.840000 47.554752 -36.394886 3586.042480
7.040000 6.960000 0.880000 81.787209 -54.798393 9692.011719
7.040000 6.960000 0.920000 135.898315 -31.332565 19450.082031
7.040000 6.960000 0.960000 161.264557 39.609566 27575.175781
7.040000 6.960000 1.000000 124.433670 116.279465 29004.652344
7.040000 6.960000 1.040000 42.552021 144.881622 22801.357422
7.040000 6.960000 1.080000 -29.490105 109.021790 12755.416992
7.040000 6.960000 1.120000 -48.372864 43.898979 4267.054199
7.040000 6.960000 1.160000 -19.155247 1.583068 369.429596
7.040000 6.960000 1.200000 15.730309 3.283655 258.225006
7.040000 7.000000 0.800000 42.128471 12.277349 1925.541382
7.040000 7.000000 0.840000 52.950420 -10.823036 2920.885254
7.040000 7.000000 0.880000 96.385147 -9.481277 9379.991211
7.040000 7.000000 0.920000 133.478760 41.432369 19533.220703
7.040000 7.000000 0.960000 118.037750 118.876472 28064.525391
7.040000 7.000000 1.000000 44.044983 167.189713 29892.361328
7.040000 7.000000 1.040000 -43.692062 148.587479 23987.234375
7.040000 7.000000 1.080000 -88.287514 78.636055 13978.314453
7.040000 7.000000 1.120000 -71.039169 11.155531 5171.009277
7.040000 7.000000 1.160000 -23.889072 -11.699200 707.559082
7.040000 7.000000 1.200000 5.958639 5.950476 70.913544
7.040000 7.040000 0.800000 22.436253 29.504766 1373.916748
7.040000 7.040000 0.840000 41.719360 16.022331 1997.220093
7.040000 7.040000 0.880000 74.028206 36.746628 6830.490234
7.040000 7.040000 0.920000 78.196762 91.970139 14573.240234
7.040000 7.040000 0.960000 30.311138 142.708679 21284.533203
7.040000 7.040000 1.000000 -48.379143 144.243896 23146.841797
7.040000 7.040000 1.040000 -106.749527 88.516617 19230.652344
7.040000 7.040000 1.080000 -108.687454 12.960591 11980.939453
7.040000 7.040000 1.120000 -63.745411 -33.237240 5168.191406
7.040000 7.040000 1.160000 -14.377917 -31.695826 1211.349854
7.040000 7.040000 1.200000 5.266096 -5.096306 53.704105
7.040000 7.080000 0.800000 -0.544853 33.250214 1105.873535
7.040000 7.080000 0.840000 14.889668 30.505537 1152.289917
7.040000 7.080000 0.880000 25.882809 53.516792 3533.966797
7.040000 7.080000 0.920000 6.935562 87.086945 7632.237793
7.040000 7.080000 0.960000 -42.263721 98.203522 11430.154297
7.040000 7.080000 1.000000 -91.926727 66.787994 12911.160156
7.040000 7.080000 1.040000 -106.747749 6.409546 11436.164062
7.040000 7.080000 1.080000 -76.854523 -45.929565 8016.142578
7.040000 7.080000 1.120000 -25.472719 -61.259903 4401.635254
7.040000 7.080000 1.160000 13.068553 -41.116322 1861.338989
7.040000 7.080000 1.200000 22.413136 -10.966393 622.610413
7.040000 7.120000 0.800000 -19.680212 24.723238 998.549255
7.040000 7.120000 0.840000 -14.020369 23.290112 739.000061
7.040000 7.120000 0.880000 -15.709558 31.803217 1258.234863
7.040000 7.120000 0.920000 -32.233494 37.332336 2432.701660
7.040000 7.120000 0.960000 -55.563519 25.175667 3721.118896
7.040000 7.120000 1.000000 -67.111038 -6.444397 4545.421875
7.040000 7.120000 1.040000 -53.296165 -42.417767 4639.748047
7.040000 7.120000 1.080000 -17.740181 -61.735855 4126.029785
7.040000 7.120000 1.120000 20.912050 -53.754147 3326.822266
7.040000 7.120000 1.160000 43.256096 -25.535118 2523.132080
7.040000 7.120000 1.200000 42.597763 5.263545 1842.274414
7.040000 7.160000 0.800000 -28.782618 8.520317 901.034912
7.040000 7.160000 0.840000 -27.657640 -0.048673 764.947449
7.040000 7.160000 0.880000 -24.785692 -7.317789 667.880615
7.040000 7.160000 0.920000 -21.076143 -13.818899 635.165771
7.040000 7.160000 0.960000 -16.274035 -20.773865 696.397705
7.040000 7.160000 1.000000 -8.155690 -28.620232 885.632935
7.040000 7.160000 1.040000 6.159061 -34.604656 1235.416260
7.040000 7.160000 1.080000 26.286366 -32.575401 1752.129761
7.040000 7.160000 1.120000 45.526375 -17.229641 2369.511475
7.040000 7.160000 1.160000 53.139648 9.700713 2917.926025
7.040000 7.160000 1.200000 42.037106 37.461452 3170.478760
7.040000 7.200000 0.800000 -25.370382 -6.772528 689.523438
7.040000 7.200000 0.840000 -20.069500 -21.385515 860.125122
7.040000 7.200000 0.880000 -3.989558 -31.827049 1028.877686
7.040000 7.200000 0.920000 16.531574 -29.701050 1155.445312
7.040000 7.200000 0.960000 30.196636 -16.067352 1169.996704
7.040000 7.200000 1.000000 32.227779 -1.111706 1039.865601
7.040000 7.200000 1.040000 29.119078 6.886416 895.343445
7.040000 7.200000 1.080000 30.254568 10.846388 1032.983032
7.040000 7.200000 1.120000 35.490818 20.933590 1697.813354
7.040000 7.200000 1.160000 33.450623 40.881443 2790.236328
7.040000 7.200000 1.200000 13.997849 60.089424 3806.678711
7.080000 6.800000 0.800000 -32.770626 -54.154503 4006.624023
7.080000 6.800000 0.840000 -0.628206 -57.584633 3316.384521
7.080000 6.800000 0.880000 25.325809 -40.003319 2241.662109
7.080000 6.800000 0.920000 32.720284 -12.745508 1233.064941
7.080000 6.800000 0.960000 22.641090 8.289690 581.337891
7.080000 6.800000 1.000000 7.062981 15.363001 285.907471
7.080000 6.800000 1.040000 -2.959718 13.274200 184.964325
7.080000 6.800000 1.080000 -6.585379 11.742901 181.262939
7.080000 6.800000 1.120000 -11.093151 14.281265 327.012543
7.080000 6.800000 1.160000 -21.568632 15.145943 694.605469
7.080000 6.800000 1.200000 -33.905525 6.963587 1198.076172
7.080000 6.840000 0.800000 -0.932478 -67.945000 4617.392578
7.080000 6.840000 0.840000 21.549833 -60.057274 4071.271484
7.080000 6.840000 0.880000 35.459023 -44.843468 3268.278809
7.080000 6.840000 0.920000 41.191570 -28.374561 2501.861328
7.080000 6.840000 0.960000 41.465580 -12.817146 1883.673584
7.080000 6.840000 1.000000 36.918327 2.149567 1367.583496
7.080000 6.840000 1.040000 25.914509 15.089699 899.260742
7.080000 6.840000 1.080000 8.618679 21.311707 528.470459
7.080000 6.840000 1.120000 -9.807111 16.479218 367.744019
7.080000 6.840000 1.160000 -21.251762 1.714643 454.577393
7.080000 6.840000 1.200000 -20.779568 -15.562798 673.991089
7.080000 6.880000 0.800000 33.674797 -58.389065 4543.274902
7.080000 6.880000 0.840000 43.529755 -50.626930 4457.925781
7.080000 6.880000 0.880000 54.809570 -44.829597 5013.781738
7.080000 6.880000 0.920000 70.495087 -32.593208 6031.874512
7.080000 6.880000 0.960000 81.355637 -6.862495 6665.833496
7.080000 6.880000 1.000000 73.739456 26.180099 6122.904785
7.080000 6.880000 1.040000 44.768486 48.753181 4381.089844
7.080000 6.880000 1.080000 8.654066 46.614521 2247.806396
7.080000 6.880000 1.120000 -13.730397 22.780275 707.464722
7.080000 6.880000 1.160000 -12.501951 -4.361749 175.323639
7.080000 6.880000 1.200000 3.690227 -17.203321 309.572021
7.080000 6.920000 0.800000 54.903496 -30.080248 3919.215088
7.080000 6.920000 0.840000 59.307392 -30.324207 4436.924316
7.080000 6.920000 0.880000 78.170959 -28.742891 6936.852539
7.080000 6.920000 0.920000 102.931664 -6.106531 10632.217773
7.080000 6.920000 0.960000 108.541031 38.887993 13293.431641
7.080000 6.920000 1.000000 78.705574 82.215919 12954.025391
7.080000 6.920000 1.040000 25.546654 94.202118 9526.670898
7.080000 6.920000 1.080000 -18.077841 67.549881 4889.794434
7.080000 6.920000 1.120000 -27.373306 24.997124 1374.154053
7.080000 6.920000 1.160000 -6.949086 -1.614779 50.897312
7.080000 6.920000 1.200000 16.322393 0.034097 266.421692
7.080000 6.960000 0.800000 55.062077 3.549656 3044.432373
7.080000 6.960000 0.840000 62.995834 -2.712636 3975.833496
7.080000 6.960000 0.880000 88.961029 6.253099 7953.165527
7.080000 6.960000 0.920000 107.798347 46.165260 13751.714844
7.080000 6.960000 0.960000 89.569839 100.390671 18101.042969
7.080000 6.960000 1.000000 32.393341 130.643204 18116.974609
7.080000 6.960000 1.040000 -30.649937 112.498001 13595.218750
7.080000 6.960000 1.080000 -59.747002 59.819298 7148.052734
7.080000 6.960000 1.120000 -44.168465 12.536283 2108.011719
7.080000 6.960000 1.160000 -9.745283 -0.257925 95.037071
7.080000 6.960000 1.200000 8.659858 15.337472 310.231201
7.080000 7.000000 0.800000 36.954250 28.954607 2203.985840
7.080000 7.000000 0.840000 50.192776 24.355541 3112.507080
7.080000 7.000000 0.880000 71.946960 45.546120 7250.814453
7.080000 7.000000 0.920000 69.621078 92.242279 13355.732422
7.080000 7.000000 0.960000 25.178097 132.093628 18082.664062
7.080000 7.000000 1.000000 -41.761333 129.287476 18459.261719
7.080000 7.000000 1.040000 -88.128479 80.096268 14182.041016
7.080000 7.000000 1.080000 -86.229218 18.474586 7776.788574
7.080000 7.000000 1.120000 -48.294098 -14.874357 2553.566406
7.080000 7.000000 1.160000 -12.304996 -8.797541 228.809662
7.080000 7.000000 1.200000 -4.602909 12.692514 182.286697
7.080000 7.040000 0.800000 9.977974 38.262482 1563.577393
7.080000 7.040000 0.840000 22.722471 39.349960 2064.729980
7.080000 7.040000 0.880000 29.930607 64.487869 5054.526367
7.080000 7.040000 0.920000 6.939800 97.807045 9614.378906
7.080000 7.040000 0.960000 -44.531654 106.333443 13289.869141
7.080000 7.040000 1.000000 -92.942673 72.395645 13879.470703
7.080000 7.040000 1.040000 -104.351059 13.253629 11064.801758
7.080000 7.040000 1.080000 -73.724190 -33.024002 6525.840820
7.080000 7.040000 1.120000 -28.617022 -41.699436 2557.776855
7.080000 7.040000 1.160000 -2.105335 -21.376122 461.371002
7.080000 7.040000 1.200000 -3.119123 -1.067507 10.868502
7.080000 7.080000 0.800000 -14.701965 30.653839 1155.805664
7.080000 7.080000 0.840000 -8.058231 33.641811 1196.706543
7.080000 7.080000 0.880000 -13.462200 48.874577 2569.955078
7.080000 7.080000 0.920000 -39.435059 57.256111 4833.386230
7.080000 7.080000 0.960000 -72.070610 39.960068 6790.979980
7.080000 7.080000 1.000000 -85.784889 -1.149956 7360.369629
7.080000 7.080000 1.040000 -67.022469 -42.618111 6308.314453
7.080000 7.080000 1.080000 -27.205719 -59.576309 4289.487793
7.080000 7.080000 1.120000 7.806980 -47.027565 2272.540771
7.080000 7.080000 1.160000 20.661171 -21.682198 897.001709
7.080000 7.080000 1.200000 15.065857 -4.125433 243.999237
7.080000 7.120000 0.800000 -27.817425 11.782476 912.635864
7.080000 7.120000 0.840000 -26.067873 10.055748 780.652039
7.080000 7.120000 0.880000 -31.120314 9.502649 1058.774292
7.080000 7.120000 0.920000 -40.404659 0.741508 1633.086304
7.080000 7.120000 0.960000 -43.277504 -18.643616 2220.526855
7.080000 7.120000 1.000000 -31.061153 -40.112305 2573.792236
7.080000 7.120000 1.040000 -5.680683 -50.712070 2603.984375
7.080000 7.120000 1.080000 21.294420 -43.721779 2365.046387
7.080000 7.120000 1.120000 37.677567 -23.495667 1971.645264
7.080000 7.120000 1.160000 39.125729 -0.951704 1531.728394
7.080000 7.120000 1.200000 30.007381 14.988409 1125.095337
7.080000 7.160000 0.800000 -25.563591 -7.908558 716.042480
7.080000 7.160000 0.840000 -22.382725 -16.133350 761.271362
7.080000 7.160000 0.880000 -15.452738 -25.025190 865.047241
7.080000 7.160000 0.920000 -3.294020 -31.231804 986.276184
7.080000 7.160000 0.960000 11.640807 -31.036800 1098.791382
7.080000 7.160000 1.000000 24.836170 -24.137512 1199.454834
7.080000 7.160000 1.040000 33.731285 -13.313124 1315.038818
7.080000 7.160000 1.080000 38.690590 -0.797717 1497.598145
7.080000 7.160000 1.120000 39.946320 13.536924 1778.956787
7.080000 7.160000 1.160000 35.077061 29.477045 2099.296387
7.080000 7.160000 1.200000 21.322315 42.808746 2287.229980
7.080000 7.200000 0.800000 -12.519030 -17.712646 470.463959
7.080000 7.200000 0.840000 -3.781157 -27.944824 795.210327
7.080000 7.200000 0.880000 15.119329 -32.432556 1280.464844
7.080000 7.200000 0.920000 36.315514 -22.281830 1815.296509
7.080000 7.200000 0.960000 46.710899 0.121103 2181.922852
7.080000 7.200000 1.000000 41.178303 22.000742 2179.685303
7.080000 7.200000 1.040000 27.677813 32.793495 1841.474609
7.080000 7.200000 1.080000 18.027960 34.405727 1508.761353
7.080000 7.200000 1.120000 14.606377 37.232994 1599.642090
7.080000 7.200000 1.160000 8.429637 46.313385 2215.988525
7.080000 7.200000 1.200000 -8.777583 53.727783 2963.720703
7.120000 6.800000 0.800000 -12.639581 -46.995487 2368.334961
7.120000 6.800000 0.840000 13.415124 -42.943005 2024.067261
7.120000 6.800000 0.880000 31.785774 -21.921293 1490.878540
7.120000 6.800000 0.920000 31.777809 5.656921 1041.829956
7.120000 6.800000 0.960000 14.855434 24.511105 821.478149
7.120000 6.800000 1.000000 -6.386430 26.728117 755.178711
7.120000 6.800000 1.040000 -19.334791 17.422636 677.382385
7.120000 6.800000 1.080000 -21.833672 8.238422 544.580811
7.120000 6.800000 1.120000 -21.801863 5.339234 503.828644
7.120000 6.800000 1.160000 -26.820751 4.148587 736.563477
7.120000 6.800000 1.200000 -34.924168 -3.999474 1235.693359
7.120000 6.840000 0.800000 15.022755 -53.462265 3083.896973
7.120000 6.840000 0.840000 35.433449 -41.567257 2983.366211
7.120000 6.840000 0.880000 45.784565 -19.876862 2491.315918
7.120000 6.840000 0.920000 42.221813 2.928179 1791.255737
7.120000 6.840000 0.960000 27.975555 18.301668 1117.582764
7.120000 6.840000 1.000000 10.482300 22.853500 632.161072
7.120000 6.840000 1.040000 -3.963432 18.896507 372.786774
7.120000 6.840000 1.080000 -13.304358 10.815443 293.979736
7.120000 6.840000 1.120000 -18.426590 1.215083 341.015656
7.120000 6.840000 1.160000 -19.830196 -9.560660 484.642914
7.120000 6.840000 1.200000 -16.211575 -20.871574 698.437744
7.120000 6.880000 0.800000 42.725014 -39.647766 3397.372070
7.120000 6.880000 0.840000 54.906719 -25.375763 3658.677246
7.120000 6.880000 0.880000 60.690331 -6.829656 3729.960449
7.120000 6.880000 0.920000 58.130764 13.758991 3568.495605
7.120000 6.880000 0.960000 45.466698 32.092815 3097.169434
7.120000 6.880000 1.000000 24.205528 41.695667 2324.436279
7.120000 6.880000 1.040000 1.200314 37.704620 1423.079224
7.120000 6.880000 1.080000 -14.038518 21.645908 665.625366
7.120000 6.880000 1.120000 -15.707073 1.902993 250.333527
7.120000 6.880000 1.160000 -6.059061 -11.749275 174.757690
7.120000 6.880000 1.200000 6.780880 -15.016674 271.480835
7.120000 6.920000 0.800000 56.195213 -10.519157 3268.554688
7.120000 6.920000 0.840000 62.062599 1.689678 3854.621094
7.120000 6.920000 0.880000 66.681778 18.365513 4783.751465
7.120000 6.920000 0.920000 63.330879 41.616184 5742.707031
7.120000 6.920000 0.960000 44.369263 63.875389 6048.696777
7.120000 6.920000 1.000000 12.356739 71.183502 5219.779785
7.120000 6.920000 1.040000 -17.564123 56.099251 3455.624512
7.120000 6.920000 1.080000 -28.830059 26.976879 1558.924316
7.120000 6.920000 1.120000 -18.122988 2.627058 335.344116
7.120000 6.920000 1.160000 1.573946 -3.627189 15.633802
7.120000 6.920000 1.200000 13.289903 5.147414 203.117401
7.120000 6.960000 0.800000 48.842125 20.586056 2809.338867
7.120000 6.960000 0.840000 51.369328 29.722944 3522.261230
7.120000 6.960000 0.880000 53.681789 47.151604 5105.008301
7.120000 6.960000 0.920000 42.944450 72.177704 7053.846680
7.120000 6.960000 0.960000 12.367868 89.479767 8159.593262
7.120000 6.960000 1.000000 -26.618877 82.205872 7466.369629
7.120000 6.960000 1.040000 -50.941406 50.347694 5129.916992
7.120000 6.960000 1.080000 -46.557964 14.069442 2365.593262
7.120000 6.960000 1.120000 -22.185247 -3.402717 503.763702
7.120000 6.960000 1.160000 -1.141119 3.243674 11.823575
7.120000 6.960000 1.200000 0.998298 18.118069 329.261017
7.120000 7.000000 0.800000 24.796051 39.809151 2199.612549
7.120000 7.000000 0.840000 25.035027 46.459976 2785.281738
7.120000 7.000000 0.880000 21.317583 62.969421 4419.587402
7.120000 7.000000 0.920000 0.611487 81.097710 6577.212402
7.120000 7.000000 0.960000 -35.272228 81.885849 7949.422852
7.120000 7.000000 1.000000 -66.181175 55.622673 7473.829590
7.120000 7.000000 1.040000 -70.876450 15.082258 5250.945801
7.120000 7.000000 1.080000 -48.041611 -13.782716 2497.959473
7.120000 7.000000 1.120000 -18.521288 -15.548580 584.796448
7.120000 7.000000 1.160000 -5.482597 0.842982 30.769491
7.120000 7.000000 1.200000 -12.665660 12.603598 319.269623
7.120000 7.040000 0.800000 -3.970728 39.832275 1602.376831
7.120000 7.040000 0.840000 -6.160938 43.295773 1912.481079
7.120000 7.040000 0.880000 -15.859225 52.709393 3029.795166
7.120000 7.040000 0.920000 -38.822281 55.313641 4566.768555
7.120000 7.040000 0.960000 -64.265793 38.032902 5576.593750
7.120000 7.040000 1.000000 -72.749207 3.922195 5307.831055
7.120000 7.040000 1.040000 -55.502357 -27.226559 3821.797363
7.120000 7.040000 1.080000 -24.633698 -36.379898 1930.315918
7.120000 7.040000 1.120000 -2.521451 -23.183805 543.846558
7.120000 7.040000 1.160000 -0.784606 -5.481684 30.664463
7.120000 7.040000 1.200000 -10.555088 -0.833442 112.104507
7.120000 7.080000 0.800000 -23.982590 23.143890 1110.804199
7.120000 7.080000 0.840000 -27.197903 21.520618 1202.862915
7.120000 7.080000 0.880000 -36.055874 19.464939 1678.909912
7.120000 7.080000 0.920000 -47.673191 8.114588 2338.579590
7.120000 7.080000 0.960000 -50.701267 -13.895052 2763.690918
7.120000 7.080000 1.000000 -36.996223 -35.835045 2652.871094
7.120000 7.080000 1.040000 -11.574957 -43.636974 2038.165161
7.120000 7.080000 1.080000 10.488415 -33.343529 1221.797729
7.120000 7.080000 1.120000 17.601414 -15.052073 536.374634
7.120000 7.080000 1.160000 11.752611 -3.043634 147.387573
7.120000 7.080000 1.200000 4.921675 -2.401196 29.988626
7.120000 7.120000 0.800000 -27.183937 0.589266 739.313660
7.120000 7.120000 0.840000 -27.917646 -6.374547 820.029785
7.120000 7.120000 0.880000 -27.090057 -16.515255 1006.624878
7.120000 7.120000 0.920000 -19.774570 -28.767836 1218.622070
7.120000 7.120000 0.960000 -4.019920 -36.629063 1357.848022
7.120000 7.120000 1.000000 15.059731 -33.728252 1364.390503
7.120000 7.120000 1.040000 28.540596 -20.381775 1229.982422
7.120000 7.120000 1.080000 31.236921 -3.910837 991.039917
7.120000 7.120000 1.120000 25.702770 7.768255 720.978149
7.120000 7.120000 1.160000 18.735735 12.545572 508.419159
7.120000 7.120000 1.200000 14.549039 14.161113 412.211639
7.120000 7.160000 0.800000 -15.521903 -14.570878 453.239960
7.120000 7.160000 0.840000 -10.975739 -23.931458 693.181519
7.120000 7.160000 0.880000 2.366727 -32.491280 1061.284668
7.120000 7.160000 0.920000 22.618599 -31.198105 1484.922729
7.120000 7.160000 0.960000 39.611324 -16.140848 1829.583984
7.120000 7.160000 1.000000 43.600464 6.028315 1937.341064
7.120000 7.160000 1.040000 34.463844 23.469864 1738.591064
7.120000 7.160000 1.080000 21.308788 29.959599 1351.641968
7.120000 7.160000 1.120000 12.848286 29.521641 1036.605713
7.120000 7.160000 1.160000 9.186105 30.123055 991.782959
7.120000 7.160000 1.200000 3.872646 33.934029 1166.515747
7.120000 7.200000 0.800000 -0.012264 -14.878677 221.375198
7.120000 7.200000 0.840000 9.138851 -22.707542 599.151123
7.120000 7.200000 0.880000 29.094158 -21.771381 1320.463135
7.120000 7.200000 0.920000 47.481964 -3.092545 2264.100586
7.120000 7.200000 0.960000 48.581856 26.461769 3060.421875
7.120000 7.200000 1.000000 29.683418 48.890877 3271.423340
7.120000 7.200000 1.040000 4.525578 52.250465 2750.592041
7.120000 7.200000 1.080000 -10.455315 41.747814 1852.193604
7.120000 7.200000 1.120000 -12.192671 32.700256 1217.968018
7.120000 7.200000 1.160000 -11.900059 33.336967 1252.964844
7.120000 7.200000 1.200000 -20.329557 36.693527 1759.705811
7.160000 6.800000 0.800000 -7.541212 -34.703228 1261.183960
7.160000 6.800000 0.840000 11.564640 -28.675095 956.001953
7.160000 6.800000 0.880000 22.706879 -8.269958 583.994568
7.160000 6.800000 0.920000 15.710322 15.534545 488.136292
7.160000 6.800000 0.960000 -6.028431 27.010216 765.893738
7.160000 6.800000 1.000000 -27.371828 19.862938 1143.753296
7.160000 6.800000 1.040000 -35.115318 2.914997 1241.582764
7.160000 6.800000 1.080000 -29.843321 -9.085452 973.169189
7.160000 6.800000 1.120000 -23.610813 -10.332687 664.234924
7.160000 6.800000 1.160000 -25.821800 -8.839481 744.901794
7.160000 6.800000 1.200000 -32.395508 -16.195463 1311.761963
7.160000 6.840000 0.800000 16.201866 -39.926075 1856.591919
7.160000 6.840000 0.840000 32.582970 -24.991810 1686.240479
7.160000 6.840000 0.880000 34.785061 -1.289316 1211.662842
7.160000 6.840000 0.920000 20.401299 17.533125 723.623413
7.160000 6.840000 0.960000 -1.211542 21.234966 452.391632
7.160000 6.840000 1.000000 -16.945665 11.014146 408.466980
7.160000 6.840000 1.040000 -20.803246 -2.998572 441.766449
7.160000 6.840000 1.080000 -17.151081 -11.914795 436.121918
7.160000 6.840000 1.120000 -13.888382 -15.505583 433.310242
7.160000 6.840000 1.160000 -13.241567 -19.782047 566.668457
7.160000 6.840000 1.200000 -9.907188 -28.053661 885.160339
7.160000 6.880000 0.800000 40.026306 -25.947067 2275.355469
7.160000 6.880000 0.840000 47.482773 -5.246370 2282.138184
7.160000 6.880000 0.880000 40.412979 15.544717 1874.847046
7.160000 6.880000 0.920000 23.243515 26.908165 1264.310303
7.160000 6.880000 0.960000 5.039901 25.891779 695.784790
7.160000 6.880000 1.000000 -7.007287 16.332108 315.839813
7.160000 6.880000 1.040000 -10.994661 4.458633 140.761993
7.160000 6.880000 1.080000 -9.033610 -5.494698 111.797821
7.160000 6.880000 1.120000 -3.837549 -12.358181 167.451416
7.160000 6.880000 1.160000 3.257275 -16.252399 274.750336
7.160000 6.880000 1.200000 11.722805 -16.708172 416.587158
7.160000 6.920000 0.800000 49.218697 2.417610 2428.324707
7.160000 6.920000 0.840000 45.417259 22.150696 2553.380859
7.160000 6.920000 0.880000 32.383644 35.719032 2324.549805
7.160000 6.920000 0.920000 15.817314 40.479382 1888.767700
7.160000 6.920000 0.960000 0.295643 37.042213 1372.213013
7.160000 6.920000 1.000000 -10.868704 27.083921 851.667542
7.160000 6.920000 1.040000 -14.769915 13.468456 399.549683
7.160000 6.920000 1.080000 -10.166469 1.130595 104.635330
7.160000 6.920000 1.120000 0.204248 -4.564483 20.876225
7.160000 6.920000 1.160000 10.062761 -1.799844 104.498604
7.160000 6.920000 1.200000 14.029711 5.747706 229.868912
7.160000 6.960000 0.800000 37.137741 30.643476 2318.234375
7.160000 6.960000 0.840000 24.736454 42.905434 2452.768311
7.160000 6.960000 0.880000 9.965033 47.713749 2375.903564
7.160000 6.960000 0.920000 -4.662142 46.627792 2195.886719
7.160000 6.960000 0.960000 -17.994370 39.522987 1885.863892
7.160000 6.960000 1.000000 -26.454489 26.052500 1378.572754
7.160000 6.960000 1.040000 -25.287262 10.099057 741.436584
7.160000 6.960000 1.080000 -14.469774 -0.166342 209.402023
7.160000 6.960000 1.120000 -1.625349 1.015903 3.673817
7.160000 6.960000 1.160000 3.461392 10.440176 120.978508
7.160000 6.960000 1.200000 -1.833209 17.942326 325.287689
7.160000 7.000000 0.800000 9.891245 43.719440 2009.226196
7.160000 7.000000 0.840000 -5.210876 45.303261 2079.538818
7.160000 7.000000 0.880000 -17.790943 41.465389 2035.896240
7.160000 7.000000 0.920000 -28.301651 34.040684 1959.751709
7.160000 7.000000 0.960000 -35.714096 21.985025 1758.838013
7.160000 7.000000 1.000000 -35.700260 6.522128 1317.046631
7.160000 7.000000 1.040000 -25.909819 -5.628549 702.999268
7.160000 7.000000 1.080000 -11.693291 -7.054819 186.503510
7.160000 7.000000 1.120000 -3.601501 1.888604 16.537638
7.160000 7.000000 1.160000 -7.432249 11.357725 184.236237
7.160000 7.000000 1.200000 -17.453733 10.898132 423.402100
7.160000 7.040000 0.800000 -17.414913 35.786312 1583.939331
7.160000 7.040000 0.840000 -29.020540 27.695168 1609.214111
7.160000 7.040000 0.880000 -35.396671 16.688652 1531.435425
7.160000 7.040000 0.920000 -37.164738 4.293081 1399.648315
7.160000 7.040000 0.960000 -33.113503 -8.410151 1167.234619
7.160000 7.040000 1.000000 -22.251871 -17.385189 797.390625
7.160000 7.040000 1.040000 -8.331448 -17.406029 372.382874
7.160000 7.040000 1.080000 0.402552 -8.268318 68.527130
7.160000 7.040000 1.120000 -1.759813 2.344466 8.593465
7.160000 7.040000 1.160000 -11.225367 4.567597 146.871796
7.160000 7.040000 1.200000 -17.081268 -3.902489 306.999146
7.160000 7.080000 0.800000 -30.404530 13.821528 1115.470093
7.160000 7.080000 0.840000 -34.545673 0.247015 1193.464600
7.160000 7.080000 0.880000 -31.153095 -14.026309 1167.252686
7.160000 7.080000 0.920000 -20.443104 -25.029186 1044.380615
7.160000 7.080000 0.960000 -4.910286 -28.475519 834.966064
7.160000 7.080000 1.000000 9.592358 -21.977877 575.040405
7.160000 7.080000 1.040000 16.014744 -8.413465 327.258423
7.160000 7.080000 1.080000 11.448832 4.088635 147.792679
7.160000 7.080000 1.120000 0.730873 7.554867 57.610188
7.160000 7.080000 1.160000 -6.477484 1.011325 42.980572
7.160000 7.080000 1.200000 -3.672280 -8.081036 78.788780
7.160000 7.120000 0.800000 -24.770538 -7.236240 665.942749
7.160000 7.120000 0.840000 -20.968903 -21.125973 886.001587
7.160000 7.120000 0.880000 -7.129343 -32.334812 1096.367554
7.160000 7.120000 0.920000 13.464387 -32.822628 1258.614624
7.160000 7.120000 0.960000 30.963909 -19.207592 1327.695312
7.160000 7.120000 1.000000 35.312317 2.495201 1253.185791
7.160000 7.120000 1.040000 24.703644 19.946869 1008.147583
7.160000 7.120000 1.080000 7.851836 23.946606 635.091248
7.160000 7.120000 1.120000 -2.975131 15.892344 261.418030
7.160000 7.120000 1.160000 -2.113370 5.951947 39.892002
7.160000 7.120000 1.200000 5.619410 3.676084 45.091354
7.160000 7.160000 0.800000 -8.716889 -14.869839 297.096252
7.160000 7.160000 0.840000 0.441031 -25.410275 645.876587
7.160000 7.160000 0.880000 20.614922 -27.786274 1197.052002
7.160000 7.160000 0.920000 41.298851 -12.899811 1872.000244
7.160000 7.160000 0.960000 47.030617 15.076927 2439.192627
7.160000 7.160000 1.000000 31.854729 39.734497 2593.553955
7.160000 7.160000 1.040000 6.102500 46.250149 2176.316650
7.160000 7.160000 1.080000 -12.410140 34.651672 1354.750000
7.160000 7.160000 1.120000 -14.360821 18.978512 566.417053
7.160000 7.160000 1.160000 -6.110349 13.225583 212.252411
7.160000 7.160000 1.200000 -1.265675 18.684273 350.703979
7.160000 7.200000 0.800000 3.536470 -7.656559 71.129524
7.160000 7.200000 0.840000 14.478759 -14.199746 411.267273
7.160000 7.200000 0.880000 33.841236 -6.549437 1188.124390
7.160000 7.200000 0.920000 43.908165 19.271128 2299.303467
7.160000 7.200000 0.960000 30.831865 48.539787 3306.714844
7.160000 7.200000 1.000000 0.038673 60.348213 3641.908203
7.160000 7.200000 1.040000 -27.510635 47.785706 3040.308594
7.160000 7.200000 1.080000 -35.080421 24.502384 1831.002808
7.160000 7.200000 1.120000 -25.416998 10.620811 758.825439
7.160000 7.200000 1.160000 -15.717596 13.038085 417.034485
7.160000 7.200000 1.200000 -18.557949 20.826754 778.151123
7.200000 6.800000 0.800000 -12.060564 -30.261150 1061.194458
7.200000 6.800000 0.840000 2.155128 -26.300941 696.384094
7.200000 6.800000 0.880000 8.645026 -10.016565 175.068054
7.200000 6.800000 0.920000 -1.148431 6.627293 45.239902
7.200000 6.800000 0.960000 -20.978638 9.272692 526.086060
7.200000 6.800000 1.000000 -34.940639 -4.229955 1238.740723
7.200000 6.800000 1.040000 -33.202473 -21.440376 1562.093872
7.200000 6.800000 1.080000 -21.610502 -28.338245 1270.069946
7.200000 6.800000 1.120000 -14.498496 -23.962450 784.405396
7.200000 6.800000 1.160000 -18.224236 -20.606672 756.757690
7.200000 6.800000 1.200000 -23.577183 -28.966972 1394.968994
7.200000 6.840000 0.800000 11.709092 -36.196922 1447.320068
7.200000 6.840000 0.840000 23.132051 -21.552414 999.598389
7.200000 6.840000 0.880000 19.033180 -2.742702 369.784363
7.200000 6.840000 0.920000 2.223814 5.903420 39.795715
7.200000 6.840000 0.960000 -13.974366 -1.143222 196.589874
7.200000 6.840000 1.000000 -18.224716 -16.139414 592.620972
7.200000 6.840000 1.040000 -11.098782 -26.512558 826.098633
7.200000 6.840000 1.080000 -2.588065 -27.273914 750.564453
7.200000 6.840000 1.120000 -0.385533 -24.534765 602.103333
7.200000 6.840000 1.160000 -1.652426 -26.925568 727.716736
7.200000 6.840000 1.200000 3.001806 -34.511642 1200.064331
7.200000 6.880000 0.800000 35.006138 -21.350821 1681.287231
7.200000 6.880000 0.840000 34.637783 -0.784830 1200.391968
7.200000 6.880000 0.880000 20.140005 11.584135 539.812012
7.200000 6.880000 0.920000 3.667036 9.120587 96.632263
7.200000 6.880000 0.960000 -3.616054 -2.553025 19.593784
7.200000 6.880000 1.000000 -0.384168 -12.714722 161.811737
7.200000 6.880000 1.040000 6.416739 -15.770571 289.885437
7.200000 6.880000 1.080000 10.314619 -14.513606 317.036133
7.200000 6.880000 1.120000 11.544737 -14.480076 342.953552
7.200000 6.880000 1.160000 14.934577 -16.618456 499.214661
7.200000 6.880000 1.200000 22.845623 -16.113249 781.559265
7.200000 6.920000 0.800000 41.261978 7.823886 1763.764038
7.200000 6.920000 0.840000 26.763126 23.624502 1274.382080
7.200000 6.920000 0.880000 8.594440 23.419491 622.336914
7.200000 6.920000 0.920000 -0.675535 12.599758 159.210251
7.200000 6.920000 0.960000 0.986231 2.453835 6.993956
7.200000 6.920000 1.000000 6.812862 -0.922393 47.265900
7.200000 6.920000 1.040000 10.432530 0.240005 108.895294
7.200000 6.920000 1.080000 11.602179 1.239814 136.147690
7.200000 6.920000 1.120000 13.596333 1.330360 186.630112
7.200000 6.920000 1.160000 17.240860 3.569217 309.986572
7.200000 6.920000 1.200000 19.261030 9.721333 465.491577
7.200000 6.960000 0.800000 24.622665 33.769096 1746.627563
7.200000 6.960000 0.840000 2.607230 35.581642 1272.850830
7.200000 6.960000 0.880000 -10.323932 23.025513 636.757812
7.200000 6.960000 0.920000 -9.344764 9.545053 178.432648
7.200000 6.960000 0.960000 -1.622783 4.381071 21.827209
7.200000 6.960000 1.000000 3.896604 6.423527 56.445221
7.200000 6.960000 1.040000 4.982868 9.667922 118.297691
7.200000 6.960000 1.080000 4.767356 11.459485 154.047470
7.200000 6.960000 1.120000 4.947538 13.744703 213.395004
7.200000 6.960000 1.160000 3.195337 17.728018 324.492798
7.200000 6.960000 1.200000 -2.564690 20.417780 423.463379
7.200000 7.000000 0.800000 -5.022556 40.440277 1660.642090
7.200000 7.000000 0.840000 -23.347992 26.748121 1260.590698
7.200000 7.000000 0.880000 -24.813457 7.581414 673.185547
7.200000 7.000000 0.920000 -14.052232 -3.131158 207.269379
7.200000 7.000000 0.960000 -2.699994 -2.050897 11.496147
7.200000 7.000000 1.000000 2.075820 4.824980 27.589460
7.200000 7.000000 1.040000 0.982049 11.024317 122.499985
7.200000 7.000000 1.080000 -2.674527 14.853510 227.779846
7.200000 7.000000 1.120000 -7.990840 16.865105 348.285278
7.200000 7.000000 1.160000 -15.144749 15.644927 474.127167
7.200000 7.000000 1.200000 -21.279650 8.923985 532.460999
7.200000 7.040000 0.800000 -29.089115 25.180073 1480.212646
7.200000 7.040000 0.840000 -35.250694 2.646814 1249.617065
7.200000 7.040000 0.880000 -24.059765 -15.365731 814.978027
7.200000 7.040000 0.920000 -5.901096 -19.054352 397.891266
7.200000 7.040000 0.960000 7.096126 -10.083122 152.024353
7.200000 7.040000 1.000000 9.516405 3.139977 100.421417
7.200000 7.040000 1.040000 3.142577 13.071844 180.748901
7.200000 7.040000 1.080000 -7.414561 16.245329 318.886414
7.200000 7.040000 1.120000 -17.681194 12.064849 458.185211
7.200000 7.040000 1.160000 -23.334047 1.755370 547.559082
7.200000 7.040000 1.200000 -20.677088 -10.585745 539.599976
7.200000 7.080000 0.800000 -34.105766 0.344172 1163.321655
7.200000 7.080000 0.840000 -27.015293 -21.297951 1183.428711
7.200000 7.080000 0.880000 -6.552622 -31.743332 1050.575928
7.200000 7.080000 0.920000 14.945314 -25.155828 856.178162
7.200000 7.080000 0.960000 25.431932 -6.423393 688.043213
7.200000 7.080000 1.000000 20.383036 13.092559 586.883240
7.200000 7.080000 1.040000 4.356413 22.896868 543.244873
7.200000 7.080000 1.080000 -12.728207 18.925888 520.196472
7.200000 7.080000 1.120000 -21.451767 4.898366 484.172302
7.200000 7.080000 1.160000 -17.756477 -10.390796 423.261108
7.200000 7.080000 1.200000 -4.755960 -18.071793 349.208832
7.200000 7.120000 0.800000 -21.262962 -16.660339 729.680420
7.200000 7.120000 0.840000 -6.262168 -30.876520 992.574219
7.200000 7.120000 0.880000 17.459030 -30.739819 1249.754150
7.200000 7.120000 0.920000 36.167439 -12.812373 1472.240479
7.200000 7.120000 0.960000 37.400200 14.114038 1597.980957
7.200000 7.120000 1.000000 19.653715 34.115364 1550.126587
7.200000 7.120000 1.040000 -5.671004 35.511948 1293.258667
7.200000 7.120000 1.080000 -22.407234 19.547619 884.193542
7.200000 7.120000 1.120000 -21.553705 -0.930038 465.427155
7.200000 7.120000 1.160000 -7.194219 -11.706431 188.797333
7.200000 7.120000 1.200000 8.117805 -7.583463 123.407669
7.200000 7.160000 0.800000 -4.193571 -16.757360 298.395172
7.200000 7.160000 0.840000 11.876314 -23.065210 673.050781
7.200000 7.160000 0.880000 32.666046 -13.374557 1245.949341
7.200000 7.160000 0.920000 42.012337 12.577114 1923.220215
7.200000 7.160000 0.960000 29.084267 40.175327 2459.951416
7.200000 7.160000 1.000000 -0.273970 50.640800 2564.565674
7.200000 7.160000 1.040000 -26.732700 37.320839 2107.482178
7.200000 7.160000 1.080000 -33.511520 11.927668 1265.291260
7.200000 7.160000 1.120000 -20.381880 -5.754547 448.535828
7.200000 7.160000 1.160000 -2.400922 -4.968051 30.445955
7.200000 7.160000 1.200000 4.701519 8.419672 92.995155
7.200000 7.200000 0.800000 2.837561 -5.150448 34.578869
7.200000 7.200000 0.840000 16.308846 -7.233491 318.301849
7.200000 7.200000 0.880000 30.227568 7.702195 973.029663
7.200000 7.200000 0.920000 27.216969 34.040184 1899.497559
7.200000 7.200000 0.960000 2.545550 52.142883 2725.360107
7.200000 7.200000 1.000000 -28.832272 46.375595 2981.995605
7.200000 7.200000 1.040000 -44.933617 20.772465 2450.525146
7.200000 7.200000 1.080000 -37.065445 -4.161767 1391.167480
7.200000 7.200000 1.120000 -17.262766 -10.670504 411.862732
7.200000 7.200000 1.160000 -5.541413 0.511741 30.969135
7.200000 7.200000 1.200000 -10.678159 13.415208 293.990875
