#kx 	ky 	kz 	real 	imag 	intensity
1.800000 -4.200000 -8.200000 -50.724800 6.534801 2615.708984
1.800000 -4.200000 -8.160000 -39.352505 -27.486740 2304.140625
1.800000 -4.200000 -8.120000 -5.629679 -34.827274 1244.632324
1.800000 -4.200000 -8.080000 16.273815 -10.303440 370.997955
1.800000 -4.200000 -8.040000 5.686076 19.545795 414.369568
1.800000 -4.200000 -8.000000 -24.773504 24.840368 1230.770386
1.800000 -4.200000 -7.960000 -44.354263 2.308290 1972.628906
1.800000 -4.200000 -7.920000 -36.487343 -24.112318 1912.729980
1.800000 -4.200000 -7.880000 -13.622499 -30.349447 1106.661377
1.800000 -4.200000 -7.840000 -0.760338 -16.537868 274.079224
1.800000 -4.200000 -7.800000 -7.863340 -3.440981 73.672470
1.800000 -4.160000 -8.200000 -38.749924 -29.000406 2342.580078
1.800000 -4.160000 -8.160000 -9.381136 -46.670830 2266.171875
1.800000 -4.160000 -8.120000 20.489185 -32.716415 1490.170654
1.800000 -4.160000 -8.080000 24.282581 -2.387748 595.345093
1.800000 -4.160000 -8.040000 1.877805 14.524021 214.473343
1.800000 -4.160000 -8.000000 -22.018745 3.721956 498.678131
1.800000 -4.160000 -7.960000 -24.150444 -21.086193 1027.871460
1.800000 -4.160000 -7.920000 -5.218410 -34.694630 1230.949097
1.800000 -4.160000 -7.880000 13.970319 -26.664696 906.175781
1.800000 -4.160000 -7.840000 16.184435 -9.483891 351.880127
1.800000 -4.160000 -7.800000 4.639910 -2.205275 26.391998
1.800000 -4.120000 -8.200000 -5.245414 -40.956406 1704.941528
1.800000 -4.120000 -8.160000 23.319176 -35.268646 1787.661377
1.800000 -4.120000 -8.120000 35.295280 -10.518301 1356.391479
1.800000 -4.120000 -8.080000 23.360237 10.706782 660.335876
1.800000 -4.120000 -8.040000 2.633292 11.290694 134.414001
1.800000 -4.120000 -8.000000 -5.735979 -4.449427 52.698853
1.800000 -4.120000 -7.960000 4.291244 -17.292995 317.462463
1.800000 -4.120000 -7.920000 19.644567 -13.934074 580.067444
1.800000 -4.120000 -7.880000 23.889839 0.552297 571.029480
1.800000 -4.120000 -7.840000 14.423853 10.567907 319.728210
1.800000 -4.120000 -7.800000 3.032062 7.726926 68.898781
1.800000 -4.080000 -8.200000 21.724043 -23.826704 1039.645874
1.800000 -4.080000 -8.160000 33.901752 -4.962120 1173.951538
1.800000 -4.080000 -8.120000 27.918358 14.374435 986.059082
1.800000 -4.080000 -8.080000 12.392002 20.019800 554.354126
1.800000 -4.080000 -8.040000 2.979696 12.293371 160.005554
1.800000 -4.080000 -8.000000 6.363323 4.139464 57.627048
1.800000 -4.080000 -7.960000 14.566784 6.527306 254.796906
1.800000 -4.080000 -7.920000 14.995541 17.096642 517.161377
1.800000 -4.080000 -7.880000 4.521572 23.913494 592.299866
1.800000 -4.080000 -7.840000 -7.735537 19.188192 428.025269
1.800000 -4.080000 -7.800000 -11.141926 7.434486 179.414093
1.800000 -4.040000 -8.200000 23.876518 3.259980 580.715576
1.800000 -4.040000 -8.160000 18.822235 19.037952 716.720154
1.800000 -4.040000 -8.120000 6.004950 24.523140 637.443848
1.800000 -4.040000 -8.080000 -2.691188 19.480947 386.749817
1.800000 -4.040000 -8.040000 -1.754630 13.733845 191.697205
1.800000 -4.040000 -8.000000 2.618890 16.105844 266.256805
1.800000 -4.040000 -7.960000 -0.109008 24.591930 604.774963
1.800000 -4.040000 -7.920000 -12.643276 28.442326 968.818298
1.800000 -4.040000 -7.880000 -26.233732 19.998201 1088.136719
1.800000 -4.040000 -7.840000 -29.534885 3.322849 883.350769
1.800000 -4.040000 -7.800000 -20.322107 -9.705608 507.186890
1.800000 -4.000000 -8.200000 7.168471 17.309927 351.020569
1.800000 -4.000000 -8.160000 -4.685181 21.873819 500.414886
1.800000 -4.000000 -8.120000 -13.894120 16.694265 471.745056
1.800000 -4.000000 -8.080000 -14.351903 9.351108 293.420319
1.800000 -4.000000 -8.040000 -9.947483 8.664400 174.024261
1.800000 -4.000000 -8.000000 -10.518023 14.951277 334.169495
1.800000 -4.000000 -7.960000 -20.933836 18.939693 796.937500
1.800000 -4.000000 -7.920000 -34.742638 11.218731 1332.910889
1.800000 -4.000000 -7.880000 -39.617531 -7.320957 1623.145142
1.800000 -4.000000 -7.840000 -29.419125 -25.178768 1499.455200
1.800000 -4.000000 -7.800000 -10.459712 -30.773294 1056.401245
1.800000 -3.960000 -8.200000 -8.471571 12.697052 232.982651
1.800000 -3.960000 -8.160000 -18.054489 9.442236 415.120392
1.800000 -3.960000 -8.120000 -21.736446 0.678365 472.933289
1.800000 -3.960000 -8.080000 -18.043886 -5.961129 361.116882
1.800000 -3.960000 -8.040000 -13.212898 -5.417582 203.930862
1.800000 -3.960000 -8.000000 -14.955265 -1.186928 225.068756
1.800000 -3.960000 -7.960000 -23.607855 -2.501349 563.587585
1.800000 -3.960000 -7.920000 -30.294388 -14.563103 1129.833862
1.800000 -3.960000 -7.880000 -25.001759 -31.826206 1637.995361
1.800000 -3.960000 -7.840000 -6.906615 -41.909775 1804.130493
1.800000 -3.960000 -7.800000 13.784403 -36.823662 1545.991821
1.800000 -3.920000 -8.200000 -10.884624 2.198006 123.306282
1.800000 -3.920000 -8.160000 -18.071598 -2.648457 333.596954
1.800000 -3.920000 -8.120000 -19.508186 -13.030556 550.364746
1.800000 -3.920000 -8.080000 -12.685835 -21.386272 618.303040
1.800000 -3.920000 -8.040000 -3.419508 -21.670397 481.299133
1.800000 -3.920000 -8.000000 -0.004230 -16.451664 270.657288
1.800000 -3.920000 -7.960000 -3.738337 -14.682047 229.537659
1.800000 -3.920000 -7.920000 -6.549898 -21.681139 512.972961
1.800000 -3.920000 -7.880000 0.701162 -32.136429 1033.241577
1.800000 -3.920000 -7.840000 17.739754 -34.400307 1498.079956
1.800000 -3.920000 -7.800000 33.596390 -22.207899 1621.908203
1.800000 -3.880000 -8.200000 -5.716646 -0.272872 32.754501
1.800000 -3.880000 -8.160000 -14.867975 -6.963746 269.550446
1.800000 -3.880000 -8.120000 -13.897765 -22.143591 683.486511
1.800000 -3.880000 -8.080000 0.739827 -32.354950 1047.390137
1.800000 -3.880000 -8.040000 18.479460 -27.672035 1107.231934
1.800000 -3.880000 -8.000000 25.311764 -12.663596 801.052002
1.800000 -3.880000 -7.960000 18.625938 -1.754910 350.005280
1.800000 -3.880000 -7.920000 9.847406 -3.745729 111.001900
1.800000 -3.880000 -7.880000 11.800032 -12.363317 292.092377
1.800000 -3.880000 -7.840000 24.452349 -13.222664 772.756226
1.800000 -3.880000 -7.800000 34.599567 0.296862 1197.218140
1.800000 -3.840000 -8.200000 -6.308547 4.943516 64.236115
1.800000 -3.840000 -8.160000 -16.615223 -9.483287 365.998383
1.800000 -3.840000 -8.120000 -6.977388 -29.856653 940.103699
1.800000 -3.840000 -8.080000 19.186172 -34.628212 1567.222290
1.800000 -3.840000 -8.040000 40.686962 -15.841145 1906.370728
1.800000 -3.840000 -8.000000 39.697727 11.996711 1719.830566
1.800000 -3.840000 -7.960000 19.656397 26.396206 1083.133667
1.800000 -3.840000 -7.920000 1.064280 19.372465 376.425110
1.800000 -3.840000 -7.880000 -0.013242 4.292362 18.424549
1.800000 -3.840000 -7.840000 12.298650 0.474606 151.482040
1.800000 -3.840000 -7.800000 19.764946 12.674991 551.308472
1.800000 -3.800000 -8.200000 -16.630157 5.543537 307.292938
1.800000 -3.800000 -8.160000 -19.457741 -18.794369 731.831970
1.800000 -3.800000 -8.120000 4.283948 -36.491188 1349.958984
1.800000 -3.800000 -8.080000 36.696747 -25.812847 2012.954346
1.800000 -3.800000 -8.040000 48.965416 8.776985 2474.647461
1.800000 -3.800000 -8.000000 29.726946 39.990589 2482.938477
1.800000 -3.800000 -7.960000 -4.004339 44.105446 1961.325195
1.800000 -3.800000 -7.920000 -24.253254 23.133955 1123.400146
1.800000 -3.800000 -7.880000 -19.226320 0.533825 369.936371
1.800000 -3.800000 -7.840000 -2.324685 -3.643034 18.675858
1.800000 -3.800000 -7.800000 4.569498 8.393393 91.329346
1.840000 -4.200000 -8.200000 -37.764809 -29.955818 2323.531738
1.840000 -4.200000 -8.160000 -5.360137 -43.757641 1943.462158
1.840000 -4.200000 -8.120000 22.709055 -23.253164 1056.410889
1.840000 -4.200000 -8.080000 19.141054 10.179572 470.003632
1.840000 -4.200000 -8.040000 -10.601957 22.895550 636.607666
1.840000 -4.200000 -8.000000 -35.222786 3.819014 1255.229492
1.840000 -4.200000 -7.960000 -30.947721 -25.606911 1613.475342
1.840000 -4.200000 -7.920000 -5.184515 -35.684166 1300.238892
1.840000 -4.200000 -7.880000 13.798926 -19.629484 575.727051
1.840000 -4.200000 -7.840000 8.187389 1.579751 69.528961
1.840000 -4.200000 -7.800000 -11.665839 4.015363 152.214935
1.840000 -4.160000 -8.200000 -8.063282 -46.919456 2266.451904
1.840000 -4.160000 -8.160000 25.701199 -39.370098 2210.556152
1.840000 -4.160000 -8.120000 38.960373 -8.512938 1590.380737
1.840000 -4.160000 -8.080000 22.702297 17.506952 821.887695
1.840000 -4.160000 -8.040000 -3.996058 17.616823 326.320923
1.840000 -4.160000 -8.000000 -14.938116 -2.293558 228.407715
1.840000 -4.160000 -7.960000 -3.290905 -18.137774 339.808868
1.840000 -4.160000 -7.920000 14.064966 -14.051696 395.273438
1.840000 -4.160000 -7.880000 17.052206 2.465466 296.856262
1.840000 -4.160000 -7.840000 3.963485 11.543825 148.969116
1.840000 -4.160000 -7.800000 -8.942620 3.919184 95.330460
1.840000 -4.120000 -8.200000 22.995724 -34.709229 1733.533936
1.840000 -4.120000 -8.160000 43.341286 -12.574457 2036.583984
1.840000 -4.120000 -8.120000 40.736084 16.025866 1916.256958
1.840000 -4.120000 -8.080000 20.902760 31.103764 1404.369385
1.840000 -4.120000 -8.040000 2.112341 27.431873 756.969666
1.840000 -4.120000 -8.000000 -3.577267 16.575249 287.535706
1.840000 -4.120000 -7.960000 -0.188805 12.206749 149.040359
1.840000 -4.120000 -7.920000 0.256853 15.839190 250.945908
1.840000 -4.120000 -7.880000 -7.108252 17.933603 372.141388
1.840000 -4.120000 -7.840000 -15.175943 11.251545 356.906525
1.840000 -4.120000 -7.800000 -14.704151 -0.003104 216.212082
1.840000 -4.080000 -8.200000 31.882650 -5.638937 1048.301025
1.840000 -4.080000 -8.160000 35.655235 17.035645 1561.509033
1.840000 -4.080000 -8.120000 24.850117 36.229149 1930.079590
1.840000 -4.080000 -8.080000 7.261357 44.617245 2043.425781
1.840000 -4.080000 -8.040000 -8.832434 43.571289 1976.469116
1.840000 -4.080000 -8.000000 -21.032131 38.095707 1893.633423
1.840000 -4.080000 -7.960000 -30.992363 30.067131 1864.558838
1.840000 -4.080000 -7.920000 -38.343597 17.959496 1792.774902
1.840000 -4.080000 -7.880000 -39.042557 2.328609 1529.743652
1.840000 -4.080000 -7.840000 -30.546913 -11.008102 1054.292236
1.840000 -4.080000 -7.800000 -17.117395 -15.337845 528.254700
1.840000 -4.040000 -8.200000 16.667400 15.248499 510.318970
1.840000 -4.040000 -8.160000 11.626611 29.659050 1014.837280
1.840000 -4.040000 -8.120000 0.038468 40.887672 1671.803223
1.840000 -4.040000 -8.080000 -16.622120 46.862793 2472.416260
1.840000 -4.040000 -8.040000 -36.751801 44.993969 3375.152100
1.840000 -4.040000 -8.000000 -56.270439 32.282913 4208.548828
1.840000 -4.040000 -7.960000 -67.722786 8.857040 4664.823242
1.840000 -4.040000 -7.920000 -64.147354 -18.559401 4459.333984
1.840000 -4.040000 -7.880000 -45.536594 -38.552715 3559.893555
1.840000 -4.040000 -7.840000 -21.142338 -42.764080 2275.765137
1.840000 -4.040000 -7.800000 -3.628624 -32.943802 1098.460938
1.840000 -4.000000 -8.200000 -3.841681 14.497211 224.927658
1.840000 -4.000000 -8.160000 -9.220686 22.041693 570.857239
1.840000 -4.000000 -8.120000 -20.430698 29.449913 1284.710815
1.840000 -4.000000 -8.080000 -39.272404 31.124449 2511.052979
1.840000 -4.000000 -8.040000 -61.264065 19.815056 4145.921875
1.840000 -4.000000 -8.000000 -75.515823 -6.484372 5744.686523
1.840000 -4.000000 -7.960000 -71.406158 -39.809715 6683.652832
1.840000 -4.000000 -7.920000 -47.398529 -65.309540 6511.956543
1.840000 -4.000000 -7.880000 -14.055942 -71.140442 5258.531738
1.840000 -4.000000 -7.840000 12.627184 -57.323559 3445.436279
1.840000 -4.000000 -7.800000 22.715546 -35.524826 1778.009277
1.840000 -3.960000 -8.200000 -10.721348 0.791870 115.574356
1.840000 -3.960000 -8.160000 -15.339600 6.968076 283.857391
1.840000 -3.960000 -8.120000 -28.503860 10.384702 920.312073
1.840000 -3.960000 -8.080000 -46.744400 2.425421 2190.921387
1.840000 -3.960000 -8.040000 -59.291420 -20.199438 3923.489746
1.840000 -3.960000 -8.000000 -55.100586 -50.648872 5601.382812
1.840000 -3.960000 -7.960000 -31.488049 -74.868721 6596.822266
1.840000 -3.960000 -7.920000 2.703723 -80.662964 6513.823730
1.840000 -3.960000 -7.880000 32.436260 -66.033028 5412.471680
1.840000 -3.960000 -7.840000 46.375160 -40.190540 3765.935059
1.840000 -3.960000 -7.800000 43.664646 -16.523663 2179.632812
1.840000 -3.920000 -8.200000 -3.002068 -7.339665 62.883102
1.840000 -3.920000 -8.160000 -11.111305 -1.902977 127.082428
1.840000 -3.920000 -8.120000 -24.913090 -6.777382 666.594971
1.840000 -3.920000 -8.080000 -33.447811 -24.541042 1721.018799
1.840000 -3.920000 -8.040000 -27.311199 -47.742222 3025.221436
1.840000 -3.920000 -8.000000 -5.968377 -64.079964 4141.863281
1.840000 -3.920000 -7.960000 22.067108 -64.912346 4700.570312
1.840000 -3.920000 -7.920000 45.326714 -50.197540 4574.303711
1.840000 -3.920000 -7.880000 56.249638 -27.058910 3896.206299
1.840000 -3.920000 -7.840000 54.055210 -4.495926 2942.179199
1.840000 -3.920000 -7.800000 43.076149 11.302381 1983.298340
1.840000 -3.880000 -8.200000 4.624225 -2.011910 25.431234
1.840000 -3.880000 -8.160000 -8.035313 -2.988428 73.496948
1.840000 -3.880000 -8.120000 -15.147246 -17.636005 540.467773
1.840000 -3.880000 -8.080000 -6.865729 -35.766487 1326.379761
1.840000 -3.880000 -8.040000 13.978298 -43.662460 2101.803223
1.840000 -3.880000 -8.000000 35.261745 -35.914261 2533.224854
1.840000 -3.880000 -7.960000 46.637867 -18.293192 2509.731445
1.840000 -3.880000 -7.920000 46.705250 -0.506580 2181.636963
1.840000 -3.880000 -7.880000 40.569321 12.303865 1797.254883
1.840000 -3.880000 -7.840000 32.581303 20.938616 1499.966919
1.840000 -3.880000 -7.800000 22.933376 27.116795 1261.260254
1.840000 -3.840000 -8.200000 -0.015590 7.154884 51.192608
1.840000 -3.840000 -8.160000 -10.508865 -4.875493 134.206680
1.840000 -3.840000 -8.120000 -3.506005 -22.604401 523.250977
1.840000 -3.840000 -8.080000 18.128389 -27.766014 1099.590088
1.840000 -3.840000 -8.040000 37.344433 -13.420078 1574.705200
1.840000 -3.840000 -8.000000 39.737865 9.922132 1677.546631
1.840000 -3.840000 -7.960000 26.544556 25.643040 1362.178955
1.840000 -3.840000 -7.920000 11.072835 26.989603 851.046326
1.840000 -3.840000 -7.880000 3.973676 21.109818 461.414490
1.840000 -3.840000 -7.840000 3.700567 18.606472 359.894989
1.840000 -3.840000 -7.800000 1.349482 21.432972 461.193390
1.840000 -3.800000 -8.200000 -12.986650 5.519588 199.118912
1.840000 -3.800000 -8.160000 -11.803754 -13.661917 325.976562
1.840000 -3.800000 -8.120000 8.666467 -22.698811 590.343689
1.840000 -3.800000 -8.080000 30.150291 -8.643065 983.742676
1.840000 -3.800000 -8.040000 31.865536 19.126678 1381.242188
1.840000 -3.800000 -8.000000 11.082204 38.003548 1567.084839
1.840000 -3.800000 -7.960000 -14.862203 34.201233 1390.609375
1.840000 -3.800000 -7.920000 -26.298830 14.859978 912.447388
1.840000 -3.800000 -7.880000 -19.631695 -1.209499 386.866333
1.840000 -3.800000 -7.840000 -7.891506 -2.986217 71.193367
1.840000 -3.800000 -7.800000 -4.921076 3.759104 38.347847
1.880000 -4.200000 -8.200000 -2.527956 -43.879520 1931.802979
1.880000 -4.200000 -8.160000 28.696220 -27.381931 1573.243164
1.880000 -4.200000 -8.120000 30.776022 8.512838 1019.631958
1.880000 -4.200000 -8.080000 1.409097 28.433434 810.445679
1.880000 -4.200000 -8.040000 -29.468893 13.409790 1048.238159
1.880000 -4.200000 -8.000000 -31.174427 -19.521032 1352.915649
1.880000 -4.200000 -7.960000 -4.110924 -35.901600 1305.824585
1.880000 -4.200000 -7.920000 21.896671 -20.260172 889.938782
1.880000 -4.200000 -7.880000 20.074673 8.770703 479.917725
1.880000 -4.200000 -7.840000 -5.529433 19.893303 426.318146
1.880000 -4.200000 -7.800000 -26.243065 2.755562 696.291565
1.880000 -4.160000 -8.200000 24.934238 -36.615074 1962.379883
1.880000 -4.160000 -8.160000 43.471390 -7.923373 1952.541504
1.880000 -4.160000 -8.120000 32.118279 23.431877 1580.636719
1.880000 -4.160000 -8.080000 3.360357 32.036983 1037.660278
1.880000 -4.160000 -8.040000 -15.771334 16.220089 511.826233
1.880000 -4.160000 -8.000000 -11.746979 -2.464854 144.067017
1.880000 -4.160000 -7.960000 3.313652 -3.667019 24.427317
1.880000 -4.160000 -7.920000 7.332842 10.607769 166.295334
1.880000 -4.160000 -7.880000 -6.682449 20.462856 463.383606
1.880000 -4.160000 -7.840000 -23.935333 11.734440 710.597290
1.880000 -4.160000 -7.800000 -25.656376 -8.217235 725.772583
1.880000 -4.120000 -8.200000 37.400517 -11.378736 1528.274170
1.880000 -4.120000 -8.160000 41.318588 17.942593 2029.162354
1.880000 -4.120000 -8.120000 24.401701 41.359905 2306.084717
1.880000 -4.120000 -8.080000 -0.468975 47.251350 2232.910156
1.880000 -4.120000 -8.040000 -18.883793 39.239960 1896.372070
1.880000 -4.120000 -8.000000 -27.387779 28.485649 1561.522705
1.880000 -4.120000 -7.960000 -32.184040 20.585869 1459.590332
1.880000 -4.120000 -7.920000 -37.885727 11.924732 1577.527466
1.880000 -4.120000 -7.880000 -40.760048 -1.841703 1664.773315
1.880000 -4.120000 -7.840000 -34.274086 -16.995338 1463.554565
1.880000 -4.120000 -7.800000 -19.421730 -24.103382 958.176636
1.880000 -4.080000 -8.200000 27.276703 11.950957 886.843872
1.880000 -4.080000 -8.160000 23.037439 35.298958 1776.740112
1.880000 -4.080000 -8.120000 4.744680 54.538635 2996.974609
1.880000 -4.080000 -8.080000 -23.262543 62.010315 4386.424805
1.880000 -4.080000 -8.040000 -53.264526 53.599110 5709.974609
1.880000 -4.080000 -8.000000 -76.036911 29.732327 6665.623047
1.880000 -4.080000 -7.960000 -83.163589 -3.625153 6929.324219
1.880000 -4.080000 -7.920000 -71.005074 -35.340313 6290.658203
1.880000 -4.080000 -7.880000 -44.532539 -53.384129 4833.012207
1.880000 -4.080000 -7.840000 -16.501524 -52.182949 2995.360352
1.880000 -4.080000 -7.800000 0.005097 -37.386768 1397.770508
1.880000 -4.040000 -8.200000 6.993052 17.015036 338.414215
1.880000 -4.040000 -8.160000 0.716269 36.009235 1297.178101
1.880000 -4.040000 -8.120000 -21.803205 53.846092 3374.781250
1.880000 -4.040000 -8.080000 -59.647446 55.644051 6654.078125
1.880000 -4.040000 -8.040000 -97.925552 29.764866 10475.361328
1.880000 -4.040000 -8.000000 -114.551559 -19.920822 13518.898438
1.880000 -4.040000 -7.960000 -96.135612 -72.157547 14448.767578
1.880000 -4.040000 -7.920000 -49.986977 -101.195572 12739.242188
1.880000 -4.040000 -7.880000 -0.640467 -95.278168 9078.339844
1.880000 -4.040000 -7.840000 27.696587 -65.085396 5003.209961
1.880000 -4.040000 -7.800000 28.420588 -34.409706 1991.757568
1.880000 -4.000000 -8.200000 -4.239048 5.956877 53.453915
1.880000 -4.000000 -8.160000 -12.929133 24.647432 774.658386
1.880000 -4.000000 -8.120000 -43.537079 36.763664 3247.044434
1.880000 -4.000000 -8.080000 -86.130013 20.837013 7852.560059
1.880000 -4.000000 -8.040000 -112.955368 -29.001831 13600.021484
1.880000 -4.000000 -8.000000 -99.114975 -92.134109 18312.472656
1.880000 -4.000000 -7.960000 -44.810799 -133.480530 19825.060547
1.880000 -4.000000 -7.920000 21.862469 -130.001770 17378.427734
1.880000 -4.000000 -7.880000 65.605553 -88.594475 12153.069336
1.880000 -4.000000 -7.840000 70.420563 -39.335217 6506.314941
1.880000 -4.000000 -7.800000 48.871841 -10.464100 2497.954102
1.880000 -3.960000 -8.200000 0.584536 -4.741756 22.825937
1.880000 -3.960000 -8.160000 -14.857119 12.687645 381.710327
1.880000 -3.960000 -8.120000 -50.263435 10.873167 2644.638672
1.880000 -3.960000 -8.080000 -81.568604 -25.659929 7311.869141
1.880000 -3.960000 -8.040000 -78.145584 -84.844025 13305.240234
1.880000 -3.960000 -8.000000 -30.050314 -131.720535 18253.320312
1.880000 -3.960000 -7.960000 40.261105 -135.050507 19859.595703
1.880000 -3.960000 -7.920000 93.836510 -92.647018 17388.761719
1.880000 -3.960000 -7.880000 105.234543 -32.564995 12134.787109
1.880000 -3.960000 -7.840000 80.085510 10.468184 6523.271973
1.880000 -3.960000 -7.800000 45.877327 21.564770 2569.768555
1.880000 -3.920000 -8.200000 10.971161 -2.274270 125.538673
1.880000 -3.920000 -8.160000 -11.916903 7.294870 195.227722
1.880000 -3.920000 -8.120000 -41.004845 -11.323617 1809.621582
1.880000 -3.920000 -8.080000 -47.291275 -55.848141 5355.479492
1.880000 -3.920000 -8.040000 -14.168911 -98.643600 9931.317383
1.880000 -3.920000 -8.000000 45.440483 -107.683739 13660.625000
1.880000 -3.920000 -7.960000 97.299263 -73.119057 14813.542969
1.880000 -3.920000 -7.920000 112.612862 -15.363850 12917.704102
1.880000 -3.920000 -7.880000 89.369904 32.114750 9018.336914
1.880000 -3.920000 -7.840000 50.225067 48.974720 4921.080566
1.880000 -3.920000 -7.800000 21.125975 40.000072 2046.312622
1.880000 -3.880000 -8.200000 11.777178 9.822589 235.185181
1.880000 -3.880000 -8.160000 -11.780869 6.025496 175.095459
1.880000 -3.880000 -8.120000 -23.829084 -21.667759 1037.317017
1.880000 -3.880000 -8.080000 -6.296696 -54.483299 3008.078369
1.880000 -3.880000 -8.040000 35.566372 -65.190758 5514.801758
1.880000 -3.880000 -8.000000 75.916862 -41.377991 7475.508301
1.880000 -3.880000 -7.960000 89.208649 4.010426 7974.266602
1.880000 -3.880000 -7.920000 70.064499 44.001228 6845.142578
1.880000 -3.880000 -7.880000 34.883995 59.286522 4731.784668
1.880000 -3.880000 -7.840000 5.891039 50.703655 2605.564941
1.880000 -3.880000 -7.800000 -6.214178 33.383629 1153.082642
1.880000 -3.840000 -8.200000 -0.240856 16.931549 286.735382
1.880000 -3.840000 -8.160000 -14.584728 2.045238 216.897293
1.880000 -3.840000 -8.120000 -8.357418 -20.887653 506.140503
1.880000 -3.840000 -8.080000 17.303627 -30.447170 1226.445679
1.880000 -3.840000 -8.040000 43.620979 -15.378723 2139.294922
1.880000 -3.840000 -8.000000 50.724106 15.438183 2811.272217
1.880000 -3.840000 -7.960000 34.333088 41.485298 2899.791016
1.880000 -3.840000 -7.920000 7.423103 48.293159 2387.331787
1.880000 -3.840000 -7.880000 -12.860847 37.480453 1570.185791
1.880000 -3.840000 -7.840000 -19.120409 21.499771 827.830200
1.880000 -3.840000 -7.800000 -16.072813 10.778308 374.507263
1.880000 -3.800000 -8.200000 -13.573774 9.824027 280.758850
1.880000 -3.800000 -8.160000 -13.887938 -6.552552 235.810776
1.880000 -3.800000 -8.120000 1.260374 -14.928233 224.440689
1.880000 -3.800000 -8.080000 17.531355 -5.489803 337.486359
1.880000 -3.800000 -8.040000 19.119669 14.614849 579.155518
1.880000 -3.800000 -8.000000 3.742915 28.506102 826.607239
1.880000 -3.800000 -7.960000 -16.138531 25.610950 916.372925
1.880000 -3.800000 -7.920000 -25.961718 10.296640 780.031616
1.880000 -3.800000 -7.880000 -21.918240 -4.345787 499.295105
1.880000 -3.800000 -7.840000 -11.766674 -9.560938 229.866150
1.880000 -3.800000 -7.800000 -4.907822 -7.166904 75.451233
1.920000 -4.200000 -8.200000 28.705296 -26.716705 1537.776367
1.920000 -4.200000 -8.160000 36.138443 8.341166 1375.562134
1.920000 -4.200000 -8.120000 9.078079 34.538651 1275.329834
1.920000 -4.200000 -8.080000 -27.762589 25.394802 1415.657227
1.920000 -4.200000 -8.040000 -38.592731 -10.095184 1591.311646
1.920000 -4.200000 -8.000000 -13.887852 -35.978901 1487.353760
1.920000 -4.200000 -7.960000 19.512009 -26.640030 1090.409668
1.920000 -4.200000 -7.920000 26.607519 6.762146 753.686707
1.920000 -4.200000 -7.880000 0.648384 28.718918 825.196655
1.920000 -4.200000 -7.840000 -30.913841 16.941460 1242.678711
1.920000 -4.200000 -7.800000 -36.371117 -15.272326 1556.102051
1.920000 -4.160000 -8.200000 37.751366 -7.444270 1480.582764
1.920000 -4.160000 -8.160000 31.498297 24.319450 1583.578369
1.920000 -4.160000 -8.120000 3.031452 38.790939 1513.926636
1.920000 -4.160000 -8.080000 -22.759621 26.536510 1222.186768
1.920000 -4.160000 -8.040000 -26.340973 4.062257 710.348816
1.920000 -4.160000 -8.000000 -12.959839 -5.016804 193.125748
1.920000 -4.160000 -7.960000 -4.857817 4.599953 44.757950
1.920000 -4.160000 -7.920000 -15.549934 15.583191 484.636292
1.920000 -4.160000 -7.880000 -34.868633 8.739717 1292.204224
1.920000 -4.160000 -7.840000 -40.918606 -14.757326 1892.110962
1.920000 -4.160000 -7.800000 -25.002398 -34.408859 1809.089478
1.920000 -4.120000 -8.200000 31.047569 11.922976 1106.108887
1.920000 -4.120000 -8.160000 19.530058 36.533558 1716.124023
1.920000 -4.120000 -8.120000 -5.598776 48.123604 2347.227539
1.920000 -4.120000 -8.080000 -31.006493 43.038643 2813.727539
1.920000 -4.120000 -8.040000 -47.868618 27.978283 3074.188965
1.920000 -4.120000 -8.000000 -56.262558 10.458160 3274.848389
1.920000 -4.120000 -7.960000 -59.196472 -7.786804 3564.856689
1.920000 -4.120000 -7.920000 -55.657158 -27.635321 3861.430176
1.920000 -4.120000 -7.880000 -42.055527 -45.532005 3841.831055
1.920000 -4.120000 -7.840000 -20.000010 -53.170181 3227.068604
1.920000 -4.120000 -7.800000 0.504033 -45.939205 2110.664795
1.920000 -4.080000 -8.200000 15.202790 19.153694 597.988831
1.920000 -4.080000 -8.160000 3.393281 41.307800 1717.848755
1.920000 -4.080000 -8.120000 -25.516653 55.957481 3782.339355
1.920000 -4.080000 -8.080000 -64.685371 50.360718 6720.399414
1.920000 -4.080000 -8.040000 -97.997307 18.972763 9963.437500
1.920000 -4.080000 -8.000000 -107.765297 -30.226147 12526.979492
1.920000 -4.080000 -7.960000 -86.073433 -77.454041 13407.763672
1.920000 -4.080000 -7.920000 -41.680634 -101.934433 12127.904297
1.920000 -4.080000 -7.880000 4.031334 -95.239075 9086.733398
1.920000 -4.080000 -7.840000 30.649479 -67.006760 5429.296387
1.920000 -4.080000 -7.800000 32.131001 -37.775856 2459.416504
1.920000 -4.040000 -8.200000 3.819365 13.286659 191.122849
1.920000 -4.040000 -8.160000 -11.791126 37.739956 1563.334961
1.920000 -4.040000 -8.120000 -53.471237 48.989452 5259.139648
1.920000 -4.040000 -8.080000 -104.802597 23.608414 11540.941406
1.920000 -4.040000 -8.040000 -131.764557 -40.299393 18985.939453
1.920000 -4.040000 -8.000000 -108.277557 -114.291565 24786.589844
1.920000 -4.040000 -7.960000 -39.886799 -157.062912 26259.714844
1.920000 -4.040000 -7.920000 37.087425 -145.608810 22577.402344
1.920000 -4.040000 -7.880000 82.214401 -92.990265 15406.397461
1.920000 -4.040000 -7.840000 80.946327 -36.729706 7901.379395
1.920000 -4.040000 -7.800000 52.064087 -8.293348 2779.448730
1.920000 -4.000000 -8.200000 4.421141 5.030109 44.848484
1.920000 -4.000000 -8.160000 -21.642792 28.691097 1291.589478
1.920000 -4.000000 -8.120000 -73.794502 22.591227 5955.992188
1.920000 -4.000000 -8.080000 -116.579056 -32.709473 14660.584961
1.920000 -4.000000 -8.040000 -107.560318 -117.095016 25280.464844
1.920000 -4.000000 -8.000000 -35.963631 -179.487595 33509.179688
1.920000 -4.000000 -7.960000 62.494869 -177.335083 35353.339844
1.920000 -4.000000 -7.920000 131.190247 -112.235748 29807.744141
1.920000 -4.000000 -7.880000 137.080673 -28.595367 19608.806641
1.920000 -4.000000 -7.840000 94.139450 23.630703 9420.646484
1.920000 -4.000000 -7.800000 45.981930 27.682745 2880.672363
1.920000 -3.960000 -8.200000 11.641438 5.636836 167.297012
1.920000 -3.960000 -8.160000 -25.294849 18.945303 998.753906
1.920000 -3.960000 -8.120000 -72.589867 -11.595617 5403.747070
1.920000 -3.960000 -8.080000 -84.015282 -84.428337 14186.710938
1.920000 -3.960000 -8.040000 -30.843693 -155.460693 25119.361328
1.920000 -3.960000 -8.000000 66.746857 -170.724487 33601.992188
1.920000 -3.960000 -7.960000 150.723541 -112.740707 35428.054688
1.920000 -3.960000 -7.920000 171.312790 -17.145348 29642.035156
1.920000 -3.960000 -7.880000 126.461700 56.755981 19213.802734
1.920000 -3.960000 -7.840000 59.054138 74.176193 8989.499023
1.920000 -3.960000 -7.800000 16.796320 47.831158 2569.936035
1.920000 -3.920000 -8.200000 13.506003 15.665274 427.812927
1.920000 -3.920000 -8.160000 -25.427723 11.608538 781.327271
1.920000 -3.920000 -8.120000 -51.419827 -34.937759 3864.645508
1.920000 -3.920000 -8.080000 -27.051285 -98.438667 10421.943359
1.920000 -3.920000 -8.040000 47.912315 -128.334503 18765.333984
1.920000 -3.920000 -8.000000 129.443726 -92.434937 25299.894531
1.920000 -3.920000 -7.960000 163.338715 -7.404053 26734.355469
1.920000 -3.920000 -7.920000 130.132629 73.462875 22331.296875
1.920000 -3.920000 -7.880000 59.390938 104.297554 14405.262695
1.920000 -3.920000 -7.840000 1.425114 81.695610 6676.203613
1.920000 -3.920000 -7.800000 -15.243795 40.191460 1847.726685
1.920000 -3.880000 -8.200000 4.054577 25.021126 642.496338
1.920000 -3.880000 -8.160000 -25.105410 6.162548 668.258606
1.920000 -3.880000 -8.120000 -25.745024 -38.266399 2127.123535
1.920000 -3.880000 -8.080000 16.792694 -72.557671 5546.610352
1.920000 -3.880000 -8.040000 79.264587 -61.535797 10069.529297
1.920000 -3.880000 -8.000000 117.017418 -3.654213 13706.429688
1.920000 -3.880000 -7.960000 101.694695 65.096039 14579.304688
1.920000 -3.880000 -7.920000 45.110737 100.943626 12224.593750
1.920000 -3.880000 -7.880000 -12.547848 87.968918 7895.978516
1.920000 -3.880000 -7.840000 -37.680126 47.234940 3650.931152
1.920000 -3.880000 -7.800000 -28.248892 13.670288 984.876648
1.920000 -3.840000 -8.200000 -10.750868 23.781441 681.138123
1.920000 -3.840000 -8.160000 -24.556271 0.354942 603.136414
1.920000 -3.840000 -8.120000 -10.191294 -28.260258 902.504639
1.920000 -3.840000 -8.080000 26.447660 -34.295647 1875.670166
1.920000 -3.840000 -8.040000 57.393940 -6.596436 3337.577393
1.920000 -3.840000 -8.000000 56.676365 37.630840 4628.290527
1.920000 -3.840000 -7.960000 23.238564 67.048584 5035.543457
1.920000 -3.840000 -7.920000 -18.745777 62.905014 4308.444824
1.920000 -3.840000 -7.880000 -41.561077 33.249207 2832.833008
1.920000 -3.840000 -7.840000 -36.390221 2.843767 1332.335205
1.920000 -3.840000 -7.800000 -16.565594 -9.456553 363.845276
1.920000 -3.800000 -8.200000 -19.538168 12.257704 531.991333
1.920000 -3.800000 -8.160000 -21.532116 -6.073626 500.520935
1.920000 -3.800000 -8.120000 -6.716261 -18.111855 373.147430
1.920000 -3.800000 -8.080000 12.036345 -12.136620 292.171143
1.920000 -3.800000 -8.040000 17.730747 7.243599 366.849121
1.920000 -3.800000 -8.000000 4.996368 23.324829 569.011353
1.920000 -3.800000 -7.960000 -15.417038 22.685120 752.299683
1.920000 -3.800000 -7.920000 -27.073990 6.697405 777.856140
1.920000 -3.800000 -7.880000 -22.328712 -11.208466 624.201111
1.920000 -3.800000 -7.840000 -7.297258 -18.316740 388.752930
1.920000 -3.800000 -7.800000 5.729948 -12.655224 192.987000
1.960000 -4.200000 -8.200000 33.848015 5.315505 1173.942749
1.960000 -4.200000 -8.160000 13.039680 33.623821 1300.594727
1.960000 -4.200000 -8.120000 -24.962969 31.790939 1633.813721
1.960000 -4.200000 -8.080000 -44.961128 -1.841642 2024.894653
1.960000 -4.200000 -8.040000 -27.441360 -36.333946 2073.183838
1.960000 -4.200000 -8.000000 9.974388 -38.681751 1595.766235
1.960000 -4.200000 -7.960000 29.527767 -7.907494 934.417480
1.960000 -4.200000 -7.920000 11.848732 23.638062 699.150391
1.960000 -4.200000 -7.880000 -24.492847 23.572487 1155.561768
1.960000 -4.200000 -7.840000 -42.867687 -7.600809 1895.410889
1.960000 -4.200000 -7.800000 -26.489616 -38.429657 2178.538330
1.960000 -4.160000 -8.200000 24.985971 17.347744 925.242981
1.960000 -4.160000 -8.160000 1.949486 33.857964 1150.162231
1.960000 -4.160000 -8.120000 -25.625401 26.179619 1342.033569
1.960000 -4.160000 -8.080000 -35.687675 2.405865 1279.398438
1.960000 -4.160000 -8.040000 -24.904274 -14.802197 839.327881
1.960000 -4.160000 -8.000000 -11.234816 -12.653984 286.344391
1.960000 -4.160000 -7.960000 -13.293539 -1.510315 178.999237
1.960000 -4.160000 -7.920000 -29.356430 -2.365211 867.394226
1.960000 -4.160000 -7.880000 -39.275799 -22.484159 2048.125732
1.960000 -4.160000 -7.840000 -27.240181 -46.367985 2892.017578
1.960000 -4.160000 -7.800000 -0.041149 -52.178120 2722.557861
1.960000 -4.120000 -8.200000 13.385866 20.355106 593.511780
1.960000 -4.120000 -8.160000 -4.970663 33.684090 1159.325439
1.960000 -4.120000 -8.120000 -29.871552 32.674721 1959.946899
1.960000 -4.120000 -8.080000 -50.407928 17.575619 2849.861572
1.960000 -4.120000 -8.040000 -60.642193 -5.179726 3704.305176
1.960000 -4.120000 -8.000000 -60.204590 -29.580345 4499.589355
1.960000 -4.120000 -7.960000 -49.914433 -52.189926 5215.239258
1.960000 -4.120000 -7.920000 -29.925850 -69.113899 5672.287598
1.960000 -4.120000 -7.880000 -3.117123 -74.350151 5537.661133
1.960000 -4.120000 -7.840000 21.802364 -64.171860 4593.370605
1.960000 -4.120000 -7.800000 34.165806 -43.321281 3044.035645
1.960000 -4.080000 -8.200000 6.571036 16.678366 321.346405
1.960000 -4.080000 -8.160000 -12.829106 35.392563 1417.219482
1.960000 -4.080000 -8.120000 -50.190216 37.477753 3923.639648
1.960000 -4.080000 -8.080000 -88.569695 9.389053 7932.745117
1.960000 -4.080000 -8.040000 -103.220894 -44.713898 12653.885742
1.960000 -4.080000 -8.000000 -79.004959 -101.438560 16531.564453
1.960000 -4.080000 -7.960000 -23.317825 -131.994461 17966.257812
1.960000 -4.080000 -7.920000 36.997498 -121.957047 16242.335938
1.960000 -4.080000 -7.880000 73.610092 -81.306175 12029.140625
1.960000 -4.080000 -7.840000 75.708740 -36.427753 7058.794922
1.960000 -4.080000 -7.800000 55.187408 -10.557874 3157.118896
1.960000 -4.040000 -8.200000 6.700248 13.498497 227.102753
1.960000 -4.040000 -8.160000 -24.695229 34.627766 1808.936523
1.960000 -4.040000 -8.120000 -77.801781 21.949289 6534.888672
1.960000 -4.040000 -8.080000 -115.539658 -38.404911 14824.349609
1.960000 -4.040000 -8.040000 -99.286392 -121.979156 24736.703125
1.960000 -4.040000 -8.000000 -23.843124 -178.450363 32413.025391
1.960000 -4.040000 -7.960000 72.688156 -170.069611 34207.238281
1.960000 -4.040000 -7.920000 136.103943 -102.755188 29082.912109
1.960000 -4.040000 -7.880000 137.741043 -21.304356 19426.470703
1.960000 -4.040000 -7.840000 93.940956 27.238178 9566.821289
1.960000 -4.040000 -7.800000 47.367287 28.999290 3084.618652
1.960000 -4.000000 -8.200000 9.077776 16.199692 344.836029
1.960000 -4.000000 -8.160000 -36.960171 26.652679 2076.419434
1.960000 -4.000000 -8.120000 -89.808807 -14.667696 8280.763672
1.960000 -4.000000 -8.080000 -97.046661 -101.327423 19685.300781
1.960000 -4.000000 -8.040000 -29.796925 -180.323883 33404.558594
1.960000 -4.000000 -8.000000 84.315094 -191.391449 43739.722656
1.960000 -4.000000 -7.960000 177.136887 -118.996086 45537.546875
1.960000 -4.000000 -7.920000 193.989838 -8.068525 37697.160156
1.960000 -4.000000 -7.880000 137.075409 72.611816 24062.144531
1.960000 -4.000000 -7.840000 58.966679 86.010490 10874.874023
1.960000 -4.000000 -7.800000 14.389278 50.899620 2797.822510
1.960000 -3.960000 -8.200000 6.879908 23.572380 602.990234
1.960000 -3.960000 -8.160000 -43.087635 12.763868 2019.460693
1.960000 -3.960000 -8.120000 -73.051445 -51.571136 7996.095703
1.960000 -3.960000 -8.080000 -36.149326 -134.690887 19448.408203
1.960000 -3.960000 -8.040000 65.556084 -170.576324 33393.882812
1.960000 -3.960000 -8.000000 172.471619 -118.728241 43842.855469
1.960000 -3.960000 -7.960000 213.134521 -3.856062 45441.195312
1.960000 -3.960000 -7.920000 164.026703 101.441010 37195.039062
1.960000 -3.960000 -7.880000 67.788582 136.612595 23258.292969
1.960000 -3.960000 -7.840000 -6.455154 100.234558 10088.635742
1.960000 -3.960000 -7.800000 -21.746307 42.334068 2265.075195
1.960000 -3.920000 -8.200000 -2.375185 29.271135 862.440857
1.960000 -3.920000 -8.160000 -40.774681 -0.523482 1662.848633
1.960000 -3.920000 -8.120000 -38.324883 -66.053650 5831.880859
1.960000 -3.920000 -8.080000 27.329296 -116.384674 14292.283203
1.960000 -3.920000 -8.040000 122.993042 -98.731606 24875.218750
1.960000 -3.920000 -8.000000 181.248444 -9.307083 32937.621094
1.960000 -3.920000 -7.960000 157.392761 97.364532 34252.332031
1.960000 -3.920000 -7.920000 68.809746 152.520248 27997.207031
1.960000 -3.920000 -7.880000 -20.874323 130.203827 17388.775391
1.960000 -3.920000 -7.840000 -57.249847 64.343307 7417.605957
1.960000 -3.920000 -7.800000 -37.372810 12.581179 1555.012939
1.960000 -3.880000 -8.200000 -14.771108 27.869522 994.895874
1.960000 -3.880000 -8.160000 -34.134056 -8.057582 1230.058472
1.960000 -3.880000 -8.120000 -9.748882 -54.988449 3118.770264
1.960000 -3.880000 -8.080000 54.258148 -66.847801 7412.575195
1.960000 -3.880000 -8.040000 112.894997 -19.315712 13118.376953
1.960000 -3.880000 -8.000000 117.261536 62.796486 17693.666016
1.960000 -3.880000 -7.960000 58.874786 123.249268 18656.623047
1.960000 -3.880000 -7.920000 -21.554459 122.160965 15387.896484
1.960000 -3.880000 -7.880000 -69.702042 68.896988 9605.169922
1.960000 -3.880000 -7.840000 -63.324127 9.862835 4107.220703
1.960000 -3.880000 -7.800000 -25.543638 -14.683475 868.081909
1.960000 -3.840000 -8.200000 -23.922897 19.561981 954.976074
1.960000 -3.840000 -8.160000 -28.874722 -10.642620 947.014954
1.960000 -3.840000 -8.120000 -1.528034 -35.530998 1264.786621
1.960000 -3.840000 -8.080000 40.821861 -26.608883 2374.457031
1.960000 -3.840000 -8.040000 62.195763 17.031082 4158.370605
1.960000 -3.840000 -8.000000 40.740044 64.404648 5807.709473
1.960000 -3.840000 -7.960000 -10.020050 79.067856 6352.126953
1.960000 -3.840000 -7.920000 -52.620232 51.357143 5406.444824
1.960000 -3.840000 -7.880000 -58.702057 5.595261 3477.238281
1.960000 -3.840000 -7.840000 -31.892097 -23.425575 1565.863525
1.960000 -3.840000 -7.800000 -0.204636 -20.715971 429.193329
1.960000 -3.800000 -8.200000 -26.700043 9.218159 797.866699
1.960000 -3.800000 -8.160000 -26.541561 -12.749991 867.016724
1.960000 -3.800000 -8.120000 -7.085732 -25.922092 722.162476
1.960000 -3.800000 -8.080000 15.568832 -17.195194 538.063232
1.960000 -3.800000 -8.040000 21.295948 6.509283 495.888153
1.960000 -3.800000 -8.000000 5.157883 24.293446 616.775269
1.960000 -3.800000 -7.960000 -17.977249 20.869022 758.697571
1.960000 -3.800000 -7.920000 -27.677149 0.387184 766.174500
1.960000 -3.800000 -7.880000 -16.627686 -18.470779 617.649597
1.960000 -3.800000 -7.840000 4.131676 -20.264427 427.717743
1.960000 -3.800000 -7.800000 17.012583 -5.728456 322.243195
2.000000 -4.200000 -8.200000 13.506982 25.694786 842.660583
2.000000 -4.200000 -8.160000 -18.219416 29.016685 1173.915161
2.000000 -4.200000 -8.120000 -41.845924 2.470005 1757.182373
2.000000 -4.200000 -8.080000 -33.566238 -33.883041 2274.752930
2.000000 -4.200000 -8.040000 1.153912 -47.539238 2261.310791
2.000000 -4.200000 -8.000000 30.452345 -26.150551 1611.196655
2.000000 -4.200000 -7.960000 26.977905 8.764816 804.629395
2.000000 -4.200000 -7.920000 -4.521500 22.624155 532.296326
2.000000 -4.200000 -7.880000 -32.033600 2.320507 1031.536255
2.000000 -4.200000 -7.840000 -28.836206 -31.244127 1807.722290
2.000000 -4.200000 -7.800000 0.075737 -45.498589 2070.127197
2.000000 -4.160000 -8.200000 1.912117 20.874043 439.381836
2.000000 -4.160000 -8.160000 -19.538092 17.745285 696.632202
2.000000 -4.160000 -8.120000 -31.665707 -1.705219 1005.624756
2.000000 -4.160000 -8.080000 -25.050583 -21.919971 1108.016846
2.000000 -4.160000 -8.040000 -8.965178 -27.206593 820.573059
2.000000 -4.160000 -8.000000 -1.365566 -18.706547 351.799683
2.000000 -4.160000 -7.960000 -8.900066 -12.963028 247.251282
2.000000 -4.160000 -7.920000 -19.156097 -23.081867 899.728638
2.000000 -4.160000 -7.880000 -14.351353 -43.156418 2068.437744
2.000000 -4.160000 -7.840000 8.252045 -53.663094 2947.823730
2.000000 -4.160000 -7.800000 31.901733 -42.539276 2827.310547
2.000000 -4.120000 -8.200000 0.660344 13.441752 181.116760
2.000000 -4.120000 -8.160000 -15.521236 17.534702 548.374573
2.000000 -4.120000 -8.120000 -34.383545 8.584865 1255.928101
2.000000 -4.120000 -8.080000 -46.050865 -12.305088 2272.097412
2.000000 -4.120000 -8.040000 -44.664059 -38.116577 3447.751465
2.000000 -4.120000 -8.000000 -30.000736 -60.766193 4592.574219
2.000000 -4.120000 -7.960000 -5.640869 -74.002701 5508.219238
2.000000 -4.120000 -7.920000 22.522224 -73.880867 5965.632812
2.000000 -4.120000 -7.880000 46.582245 -59.671741 5730.622070
2.000000 -4.120000 -7.840000 58.472565 -36.037907 4717.771484
2.000000 -4.120000 -7.800000 54.813904 -13.067574 3175.325439
2.000000 -4.080000 -8.200000 5.609540 13.046389 201.675186
2.000000 -4.080000 -8.160000 -20.261461 24.919376 1031.502197
2.000000 -4.080000 -8.120000 -56.991638 9.649616 3341.161865
2.000000 -4.080000 -8.080000 -77.587952 -36.853054 7378.037598
2.000000 -4.080000 -8.040000 -59.364738 -94.025154 12364.901367
2.000000 -4.080000 -8.000000 -3.490395 -128.768311 16593.460938
2.000000 -4.080000 -7.960000 63.130947 -119.466354 18257.726562
2.000000 -4.080000 -7.920000 106.427742 -72.219162 16542.472656
2.000000 -4.080000 -7.880000 109.271149 -15.683361 12186.151367
2.000000 -4.080000 -7.840000 81.511429 20.742897 7074.380371
2.000000 -4.080000 -7.800000 48.989098 27.005106 3129.207520
2.000000 -4.040000 -8.200000 6.992022 20.795374 481.335938
2.000000 -4.040000 -8.160000 -36.184837 25.845318 1977.322876
2.000000 -4.040000 -8.120000 -79.603699 -15.733410 6584.289062
2.000000 -4.040000 -8.080000 -78.971062 -92.436661 14780.964844
2.000000 -4.040000 -8.040000 -14.857994 -156.354874 24667.605469
2.000000 -4.040000 -8.000000 84.366394 -158.913345 32371.140625
2.000000 -4.040000 -7.960000 160.376968 -91.982880 34181.621094
2.000000 -4.040000 -7.920000 170.281891 3.547199 29008.503906
2.000000 -4.040000 -7.880000 119.446472 70.598907 19251.666016
2.000000 -4.040000 -7.840000 52.944706 80.662354 9309.556641
2.000000 -4.040000 -7.800000 15.367437 50.895630 2826.523438
2.000000 -4.000000 -8.200000 -0.626396 29.201006 853.091125
2.000000 -4.000000 -8.160000 -51.437675 12.038158 2790.751709
2.000000 -4.000000 -8.120000 -76.043777 -57.060593 9038.567383
2.000000 -4.000000 -8.080000 -31.568533 -138.724487 20241.054688
2.000000 -4.000000 -8.040000 73.930771 -167.658234 33575.042969
2.000000 -4.000000 -8.000000 178.099030 -108.553291 43503.082031
2.000000 -4.000000 -7.960000 211.968887 8.855184 45009.222656
2.000000 -4.000000 -7.920000 157.160522 111.098755 37042.363281
2.000000 -4.000000 -7.880000 59.692951 140.900558 23416.214844
2.000000 -4.000000 -7.840000 -11.868328 100.903076 10322.288086
2.000000 -4.000000 -7.800000 -23.597359 42.783569 2387.269043
2.000000 -3.960000 -8.200000 -13.709812 30.342140 1108.604370
2.000000 -3.960000 -8.160000 -53.050659 -9.655553 2907.602295
2.000000 -3.960000 -8.120000 -42.323841 -84.981117 9013.097656
2.000000 -3.960000 -8.080000 38.408325 -136.795044 20188.083984
2.000000 -3.960000 -8.040000 147.367462 -108.721970 33537.632812
2.000000 -3.960000 -8.000000 208.157867 -1.702753 43332.597656
2.000000 -3.960000 -7.960000 173.941330 119.249237 44475.968750
2.000000 -3.960000 -7.920000 69.092674 176.960266 36088.734375
2.000000 -3.960000 -7.880000 -31.962357 145.813644 22283.210938
2.000000 -3.960000 -7.840000 -68.853561 68.201859 9392.306641
2.000000 -3.960000 -7.800000 -41.806328 10.886009 1866.274292
2.000000 -3.920000 -8.200000 -24.374273 23.357428 1139.674561
2.000000 -3.920000 -8.160000 -40.789261 -24.703320 2274.017822
2.000000 -3.920000 -8.120000 -1.824480 -80.700073 6515.830566
2.000000 -3.920000 -8.080000 83.346085 -87.934128 14678.980469
2.000000 -3.920000 -8.040000 155.986694 -19.284657 24703.748047
2.000000 -3.920000 -8.000000 155.217545 89.981026 32189.070312
2.000000 -3.920000 -7.960000 73.653671 166.444946 33128.781250
2.000000 -3.920000 -7.920000 -33.105938 160.341919 26805.535156
2.000000 -3.920000 -7.880000 -93.958832 87.047226 16405.480469
2.000000 -3.920000 -7.840000 -81.927238 9.451986 6801.412109
2.000000 -3.920000 -7.800000 -30.300632 -19.845720 1311.980957
2.000000 -3.880000 -8.200000 -28.561361 13.878527 1008.364868
2.000000 -3.880000 -8.160000 -26.734198 -26.146606 1398.362305
2.000000 -3.880000 -8.120000 17.996655 -54.076736 3248.173096
2.000000 -3.880000 -8.080000 79.289185 -31.725349 7293.272461
2.000000 -3.880000 -8.040000 105.334755 39.430923 12650.208008
2.000000 -3.880000 -8.000000 65.929276 112.118668 16917.265625
2.000000 -3.880000 -7.960000 -16.489227 132.071960 17714.896484
2.000000 -3.880000 -7.920000 -83.993881 86.089241 14466.330078
2.000000 -3.880000 -7.880000 -93.361107 12.966732 8884.431641
2.000000 -3.880000 -7.840000 -51.357117 -32.809914 3714.043945
2.000000 -3.880000 -7.800000 -2.820282 -28.478092 818.955688
2.000000 -3.840000 -8.200000 -29.000381 7.015976 890.246094
2.000000 -3.840000 -8.160000 -21.911861 -20.880474 916.123901
2.000000 -3.840000 -8.120000 11.873635 -31.842987 1154.958984
2.000000 -3.840000 -8.080000 45.480251 -6.638809 2112.527100
2.000000 -3.840000 -8.040000 45.702312 40.768143 3750.742920
2.000000 -3.840000 -8.000000 5.920059 72.616440 5308.194336
2.000000 -3.840000 -7.960000 -45.023201 61.580463 5819.242188
2.000000 -3.840000 -7.920000 -68.050812 16.413902 4900.329102
2.000000 -3.840000 -7.880000 -48.868279 -26.358021 3082.854004
2.000000 -3.840000 -7.840000 -8.802444 -36.088436 1379.858276
2.000000 -3.840000 -7.800000 17.580112 -13.717732 497.236542
2.000000 -3.800000 -8.200000 -30.469612 2.000507 932.399292
2.000000 -3.800000 -8.160000 -25.133762 -20.877636 1067.581665
2.000000 -3.800000 -8.120000 -1.506466 -30.054523 905.543762
2.000000 -3.800000 -8.080000 20.194782 -15.572428 650.329712
2.000000 -3.800000 -8.040000 20.633476 10.135191 528.462463
2.000000 -3.800000 -8.000000 0.389507 24.007046 576.489990
2.000000 -3.800000 -7.960000 -20.731480 14.655602 644.580933
2.000000 -3.800000 -7.920000 -23.170830 -7.145668 587.947876
2.000000 -3.800000 -7.880000 -6.030640 -19.828634 429.543365
2.000000 -3.800000 -7.840000 13.503361 -11.947935 325.093903
2.000000 -3.800000 -7.800000 17.740276 8.293770 383.504028
2.040000 -4.200000 -8.200000 -11.167745 20.848703 559.386963
2.040000 -4.200000 -8.160000 -30.011326 2.523054 907.045471
2.040000 -4.200000 -8.120000 -27.377317 -27.272984 1493.333130
2.040000 -4.200000 -8.080000 -0.727772 -44.860867 2013.026978
2.040000 -4.200000 -8.040000 29.769291 -34.125404 2050.753906
2.040000 -4.200000 -8.000000 38.408703 -3.856682 1490.102539
2.040000 -4.200000 -7.960000 18.763714 18.817350 706.169678
2.040000 -4.200000 -7.920000 -9.373951 14.063538 285.654053
2.040000 -4.200000 -7.880000 -19.104836 -11.502951 497.312622
2.040000 -4.200000 -7.840000 -2.702478 -31.968830 1029.309448
2.040000 -4.200000 -7.800000 21.755714 -28.415035 1280.725342
2.040000 -4.160000 -8.200000 -10.435858 6.287283 148.437057
2.040000 -4.160000 -8.160000 -17.238464 -5.001104 322.175690
2.040000 -4.160000 -8.120000 -13.640934 -19.710789 574.590271
2.040000 -4.160000 -8.080000 -0.772840 -27.112980 735.710999
2.040000 -4.160000 -8.040000 10.754829 -22.880623 639.189270
2.040000 -4.160000 -8.000000 11.930428 -14.703682 358.533356
2.040000 -4.160000 -7.960000 5.786369 -14.332882 238.913574
2.040000 -4.160000 -7.920000 4.730598 -24.109903 603.665955
2.040000 -4.160000 -7.880000 16.656557 -33.189072 1378.955444
2.040000 -4.160000 -7.840000 34.927834 -28.754814 2046.792969
2.040000 -4.160000 -7.800000 44.078091 -10.642813 2056.147461
2.040000 -4.120000 -8.200000 1.138888 3.340113 12.453420
2.040000 -4.120000 -8.160000 -9.927086 5.081031 124.363907
2.040000 -4.120000 -8.120000 -22.256298 -5.750931 528.416016
2.040000 -4.120000 -8.080000 -24.702969 -26.767838 1326.753784
2.040000 -4.120000 -8.040000 -11.845146 -47.883171 2433.105469
2.040000 -4.120000 -8.000000 12.800682 -58.470200 3582.621582
2.040000 -4.120000 -7.960000 39.852875 -53.539261 4454.704102
2.040000 -4.120000 -7.920000 59.648106 -35.244148 4800.046387
2.040000 -4.120000 -7.880000 66.313400 -10.728672 4512.571777
2.040000 -4.120000 -7.840000 59.426437 11.149681 3655.816895
2.040000 -4.120000 -7.800000 44.012997 23.172499 2474.108643
2.040000 -4.080000 -8.200000 7.345581 14.847107 274.394135
2.040000 -4.080000 -8.160000 -21.218578 16.975960 738.411255
2.040000 -4.080000 -8.120000 -46.572166 -11.980896 2312.508789
2.040000 -4.080000 -8.080000 -41.208111 -60.286423 5332.561523
2.040000 -4.080000 -8.040000 2.933281 -96.384979 9298.668945
2.040000 -4.080000 -8.000000 65.062706 -92.816803 12848.115234
2.040000 -4.080000 -7.960000 109.982445 -48.244720 14423.690430
2.040000 -4.080000 -7.920000 114.470444 11.502121 13235.781250
2.040000 -4.080000 -7.880000 83.218262 53.749290 9814.265625
2.040000 -4.080000 -7.840000 41.961468 62.747509 5698.014648
2.040000 -4.080000 -7.800000 15.735134 47.365753 2491.109131
2.040000 -4.040000 -8.200000 -1.791374 28.234371 800.388733
2.040000 -4.040000 -8.160000 -42.736080 11.722652 1963.793091
2.040000 -4.040000 -8.120000 -58.264320 -44.523323 5377.057129
2.040000 -4.040000 -8.080000 -18.578814 -105.466827 11468.423828
2.040000 -4.040000 -8.040000 64.598518 -121.507179 18936.962891
2.040000 -4.040000 -8.000000 141.293396 -70.453850 24927.570312
2.040000 -4.040000 -7.960000 161.617935 20.866501 26555.767578
2.040000 -4.040000 -7.920000 115.995422 96.700943 22806.011719
2.040000 -4.040000 -7.880000 41.126781 116.841080 15343.250000
2.040000 -4.040000 -7.840000 -12.739752 85.748276 7515.067871
2.040000 -4.040000 -7.800000 -22.180222 41.958138 2252.447510
2.040000 -4.000000 -8.200000 -20.180954 29.163937 1257.806152
2.040000 -4.000000 -8.160000 -53.510460 -11.936345 3005.845703
2.040000 -4.000000 -8.120000 -37.553581 -79.992813 7809.121582
2.040000 -4.000000 -8.080000 39.134766 -120.669006 16092.539062
2.040000 -4.000000 -8.040000 134.587219 -88.094269 25874.318359
2.040000 -4.000000 -8.000000 181.907928 10.788679 33206.890625
2.040000 -4.000000 -7.960000 144.822601 115.881844 34402.187500
2.040000 -4.000000 -7.920000 49.431019 161.556610 28543.964844
2.040000 -4.000000 -7.880000 -38.190567 129.751007 18293.843750
2.040000 -4.000000 -7.840000 -67.781357 60.200474 8218.409180
2.040000 -4.000000 -7.800000 -42.385956 10.733067 1911.767944
2.040000 -3.960000 -8.200000 -32.962757 16.206764 1349.202515
2.040000 -3.960000 -8.160000 -42.461380 -35.999580 3098.938477
2.040000 -3.960000 -8.120000 4.580118 -88.516693 7856.182617
2.040000 -3.960000 -8.080000 92.212799 -86.890259 16053.117188
2.040000 -3.960000 -8.040000 159.777267 -10.619890 25641.556641
2.040000 -3.960000 -8.000000 150.436005 99.894196 32609.843750
2.040000 -3.960000 -7.960000 62.852806 171.447311 33344.656250
2.040000 -3.960000 -7.920000 -44.285110 158.757278 27165.044922
2.040000 -3.960000 -7.880000 -101.400414 81.733734 16962.447266
2.040000 -3.960000 -7.840000 -85.381561 4.533840 7310.566895
2.040000 -3.960000 -7.800000 -32.301079 -22.194321 1535.947632
2.040000 -3.920000 -8.200000 -32.414917 1.075075 1051.882568
2.040000 -3.920000 -8.160000 -19.966831 -42.328022 2190.335938
2.040000 -3.920000 -8.120000 36.466335 -64.325760 5467.596680
2.040000 -3.920000 -8.080000 102.843094 -28.110504 11366.902344
2.040000 -3.920000 -8.040000 122.904808 57.744923 18440.068359
2.040000 -3.920000 -8.000000 68.852257 137.468033 23638.093750
2.040000 -3.920000 -7.960000 -28.678146 152.825180 24177.970703
2.040000 -3.920000 -7.920000 -103.357529 94.248444 19565.546875
2.040000 -3.920000 -7.880000 -109.438965 9.121372 12060.085938
2.040000 -3.920000 -7.840000 -58.633003 -41.116661 5128.409180
2.040000 -3.920000 -7.800000 -3.692238 -33.561852 1140.030396
2.040000 -3.880000 -8.200000 -25.094130 -5.019813 654.913879
2.040000 -3.880000 -8.160000 -6.319826 -31.437109 1028.232056
2.040000 -3.880000 -8.120000 37.389801 -31.263821 2375.423584
2.040000 -3.880000 -8.080000 71.127121 11.828732 5198.986328
2.040000 -3.880000 -8.040000 57.967224 74.479301 8907.365234
2.040000 -3.880000 -8.000000 -3.374245 108.795631 11847.875000
2.040000 -3.880000 -7.960000 -71.915619 84.801376 12363.129883
2.040000 -3.880000 -7.920000 -98.457466 19.319542 10067.118164
2.040000 -3.880000 -7.880000 -68.786171 -38.179665 6189.223633
2.040000 -3.880000 -7.840000 -14.288355 -49.629745 2667.268555
2.040000 -3.880000 -7.800000 19.412542 -19.705132 765.139038
2.040000 -3.840000 -8.200000 -23.044622 -3.483839 543.191772
2.040000 -3.840000 -8.160000 -10.062408 -20.876411 537.076599
2.040000 -3.840000 -8.120000 17.116966 -17.867781 612.248169
2.040000 -3.840000 -8.080000 32.304901 11.225136 1169.610352
2.040000 -3.840000 -8.040000 15.593426 44.730503 2243.972900
2.040000 -3.840000 -8.000000 -24.390217 52.197369 3319.447754
2.040000 -3.840000 -7.960000 -55.816917 24.125847 3697.584717
2.040000 -3.840000 -7.920000 -52.868736 -17.474888 3100.475098
2.040000 -3.840000 -7.880000 -19.853500 -39.128113 1925.170654
2.040000 -3.840000 -7.840000 13.749006 -26.702860 902.077881
2.040000 -3.840000 -7.800000 21.728006 3.511747 484.438629
2.040000 -3.800000 -8.200000 -29.318632 -5.775318 892.936523
2.040000 -3.800000 -8.160000 -19.672173 -25.608219 1042.775269
2.040000 -3.800000 -8.120000 3.474831 -29.133965 860.862366
2.040000 -3.800000 -8.080000 19.872604 -12.247897 544.931396
2.040000 -3.800000 -8.040000 15.645088 9.700565 338.869751
2.040000 -3.800000 -8.000000 -3.106030 17.237076 306.764221
2.040000 -3.800000 -7.960000 -17.006439 5.994171 325.149048
2.040000 -3.800000 -7.920000 -13.135979 -9.854385 269.662842
2.040000 -3.800000 -7.880000 2.685993 -12.801769 171.099854
2.040000 -3.800000 -7.840000 13.053509 0.477379 170.621979
2.040000 -3.800000 -7.800000 7.014915 17.034853 339.395264
2.080000 -4.200000 -8.200000 -18.851639 0.445747 355.582977
2.080000 -4.200000 -8.160000 -14.771622 -19.384476 593.958740
2.080000 -4.200000 -8.120000 4.172590 -31.692844 1021.846924
2.080000 -4.200000 -8.080000 27.548397 -26.002697 1435.054443
2.080000 -4.200000 -8.040000 39.108433 -4.491169 1549.640137
2.080000 -4.200000 -8.000000 30.456638 17.518717 1234.512207
2.080000 -4.200000 -7.960000 9.445816 23.818186 656.529419
2.080000 -4.200000 -7.920000 -6.069874 11.747696 174.851730
2.080000 -4.200000 -7.880000 -4.351509 -5.452511 48.665504
2.080000 -4.200000 -7.840000 9.666076 -11.421078 223.874023
2.080000 -4.200000 -7.800000 20.030590 -2.366606 406.825378
2.080000 -4.160000 -8.200000 -4.178888 -8.479845 89.370880
2.080000 -4.160000 -8.160000 1.476301 -12.287552 153.163391
2.080000 -4.160000 -8.120000 8.610500 -13.584555 258.680847
2.080000 -4.160000 -8.080000 15.492379 -10.900623 358.837402
2.080000 -4.160000 -8.040000 18.815090 -5.294884 382.043427
2.080000 -4.160000 -8.000000 17.622887 -0.980220 311.526978
2.080000 -4.160000 -7.960000 15.655266 -1.199265 246.525574
2.080000 -4.160000 -7.920000 18.006977 -3.775517 338.505737
2.080000 -4.160000 -7.880000 24.895664 -2.446152 625.777710
2.080000 -4.160000 -7.840000 29.970985 6.167763 936.301270
2.080000 -4.160000 -7.800000 26.416441 17.402903 1000.689392
2.080000 -4.120000 -8.200000 9.207052 1.995346 88.751221
2.080000 -4.120000 -8.160000 -0.310942 6.142302 37.824551
2.080000 -4.120000 -8.120000 -9.441918 -3.429451 100.910957
2.080000 -4.120000 -8.080000 -5.894863 -20.676575 462.270172
2.080000 -4.120000 -8.040000 12.464046 -31.998562 1179.260376
2.080000 -4.120000 -8.000000 36.184647 -27.591242 2070.605225
2.080000 -4.120000 -7.960000 52.232113 -8.536629 2801.067627
2.080000 -4.120000 -7.920000 53.392784 15.422623 3088.646484
2.080000 -4.120000 -7.880000 41.569504 33.638382 2859.564453
2.080000 -4.120000 -7.840000 24.346592 40.684895 2248.017090
2.080000 -4.120000 -7.800000 9.569771 37.383186 1489.083130
2.080000 -4.080000 -8.200000 4.529510 20.367619 435.356354
2.080000 -4.080000 -8.160000 -21.283419 12.926576 620.080261
2.080000 -4.080000 -8.120000 -30.617832 -19.279354 1309.145142
2.080000 -4.080000 -8.080000 -6.698097 -52.786774 2831.307861
2.080000 -4.080000 -8.040000 40.802498 -58.569183 5095.192871
2.080000 -4.080000 -8.000000 81.823364 -26.465561 7395.488770
2.080000 -4.080000 -7.960000 89.670441 25.936062 8713.467773
2.080000 -4.080000 -7.920000 61.534836 67.581596 8353.808594
2.080000 -4.080000 -7.880000 18.549316 78.104416 6444.376953
2.080000 -4.080000 -7.840000 -12.887479 60.899349 3874.817871
2.080000 -4.080000 -7.800000 -20.806763 35.882343 1720.463989
2.080000 -4.040000 -8.200000 -15.990316 26.383656 951.787476
2.080000 -4.040000 -8.160000 -41.017281 -4.085964 1699.112427
2.080000 -4.040000 -8.120000 -28.259712 -51.980328 3500.565674
2.080000 -4.040000 -8.080000 26.323210 -77.274200 6664.213867
2.080000 -4.040000 -8.040000 90.163513 -50.708012 10700.761719
2.080000 -4.040000 -8.000000 117.768524 18.788116 14222.417969
2.080000 -4.040000 -7.960000 87.963547 88.577362 15583.535156
2.080000 -4.040000 -7.920000 21.374050 116.090691 13933.898438
2.080000 -4.040000 -7.880000 -37.558243 92.050476 9883.912109
2.080000 -4.040000 -7.840000 -57.091949 44.061287 5200.887695
2.080000 -4.040000 -7.800000 -40.295235 9.666477 1717.146729
2.080000 -4.000000 -8.200000 -33.607666 12.464972 1284.850708
2.080000 -4.000000 -8.160000 -38.577042 -32.404591 2538.245605
2.080000 -4.000000 -8.120000 2.862103 -72.283127 5233.041992
2.080000 -4.000000 -8.080000 72.447731 -65.648117 9558.349609
2.080000 -4.000000 -8.040000 120.991333 -1.732039 14641.902344
2.080000 -4.000000 -8.000000 107.521866 84.007309 18618.179688
2.080000 -4.000000 -7.960000 35.684166 135.268372 19570.892578
2.080000 -4.000000 -7.920000 -47.203407 120.649643 16784.498047
2.080000 -4.000000 -7.880000 -89.052971 58.483963 11350.805664
2.080000 -4.000000 -7.840000 -74.637161 -1.612658 5573.306641
2.080000 -4.000000 -7.800000 -32.695271 -22.158882 1559.996826
2.080000 -3.960000 -8.200000 -33.137478 -8.683158 1173.489624
2.080000 -3.960000 -8.160000 -14.870496 -47.358551 2463.963867
2.080000 -3.960000 -8.120000 39.166199 -60.367119 5178.180176
2.080000 -3.960000 -8.080000 94.787895 -21.022636 9426.696289
2.080000 -3.960000 -8.040000 104.894745 56.922592 14243.088867
2.080000 -3.960000 -8.000000 51.034687 123.137711 17767.435547
2.080000 -3.960000 -7.960000 -35.924065 130.227798 18249.818359
2.080000 -3.960000 -7.920000 -98.489006 74.436073 15240.812500
2.080000 -3.960000 -7.880000 -100.001190 -0.989117 10001.216797
2.080000 -3.960000 -7.840000 -53.341778 -43.669548 4752.374512
2.080000 -3.960000 -7.800000 -4.933329 -35.727989 1300.827026
2.080000 -3.920000 -8.200000 -18.733727 -18.379318 688.751831
2.080000 -3.920000 -8.160000 8.082780 -37.953747 1505.818237
2.080000 -3.920000 -8.120000 51.204010 -26.774792 3338.739990
2.080000 -3.920000 -8.080000 76.161720 22.875593 6323.900391
2.080000 -3.920000 -8.040000 52.923550 83.424667 9760.577148
2.080000 -3.920000 -8.000000 -13.078365 109.905823 12250.333984
2.080000 -3.920000 -7.960000 -79.519035 78.662247 12511.025391
2.080000 -3.920000 -7.920000 -100.905182 10.557274 10293.311523
2.080000 -3.920000 -7.880000 -67.486000 -45.488926 6623.602539
2.080000 -3.920000 -7.840000 -12.321112 -54.552681 3127.804932
2.080000 -3.920000 -7.800000 20.202225 -23.759983 972.666687
2.080000 -3.880000 -8.200000 -8.306633 -12.306089 220.439987
2.080000 -3.880000 -8.160000 10.474186 -18.236443 442.276428
2.080000 -3.880000 -8.120000 33.328644 -2.089777 1115.165649
2.080000 -3.880000 -8.080000 36.024429 33.889313 2446.245117
2.080000 -3.880000 -8.040000 5.546631 64.318718 4167.662598
2.080000 -3.880000 -8.000000 -42.459915 61.072163 5532.653320
2.080000 -3.880000 -7.960000 -73.177231 20.848957 5789.586426
2.080000 -3.880000 -7.920000 -62.943657 -28.369656 4766.741211
2.080000 -3.880000 -7.880000 -21.389782 -50.758636 3033.961914
2.080000 -3.880000 -7.840000 17.154936 -34.348209 1474.091309
2.080000 -3.880000 -7.800000 25.194368 -0.091607 634.764587
2.080000 -3.840000 -8.200000 -12.966694 -4.583826 189.146606
2.080000 -3.840000 -8.160000 -4.370884 -11.891752 160.518402
2.080000 -3.840000 -8.120000 8.839165 -5.910603 113.066055
2.080000 -3.840000 -8.080000 10.706482 11.894084 256.097992
2.080000 -3.840000 -8.040000 -5.622433 25.123602 662.807129
2.080000 -3.840000 -8.000000 -28.190504 18.411476 1133.687012
2.080000 -3.840000 -7.960000 -36.268692 -5.568970 1346.431396
2.080000 -3.840000 -7.920000 -20.957769 -26.779348 1156.361572
2.080000 -3.840000 -7.880000 5.079071 -26.697624 738.560059
2.080000 -3.840000 -7.840000 19.469049 -6.339302 419.230652
2.080000 -3.840000 -7.800000 11.677335 15.220091 368.011322
2.080000 -3.800000 -8.200000 -24.267120 -11.221208 714.808594
2.080000 -3.800000 -8.160000 -13.926959 -26.587822 900.872498
2.080000 -3.800000 -8.120000 5.332365 -27.627018 791.686279
2.080000 -3.800000 -8.080000 17.742718 -13.511984 497.377747
2.080000 -3.800000 -8.040000 14.638855 3.081814 223.793655
2.080000 -3.800000 -8.000000 2.188710 8.957458 85.026512
2.080000 -3.800000 -7.960000 -6.088888 3.117880 46.795734
2.080000 -3.800000 -7.920000 -3.596859 -3.804797 27.413876
2.080000 -3.800000 -7.880000 3.468142 -1.958014 15.861822
2.080000 -3.800000 -7.840000 4.140125 7.305851 70.516098
2.080000 -3.800000 -7.800000 -4.965324 13.851555 216.520020
2.120000 -4.200000 -8.200000 -6.808896 -14.130978 246.045593
2.120000 -4.200000 -8.160000 9.791869 -17.537312 403.437988
2.120000 -4.200000 -8.120000 24.175097 -9.202988 669.130310
2.120000 -4.200000 -8.080000 29.524963 6.058054 908.423462
2.120000 -4.200000 -8.040000 24.092817 20.502558 1000.818726
2.120000 -4.200000 -8.000000 11.684685 27.553074 895.703735
2.120000 -4.200000 -7.960000 -0.665810 25.217321 636.356567
2.120000 -4.200000 -7.920000 -6.970930 17.080368 340.332855
2.120000 -4.200000 -7.880000 -6.140785 9.612930 130.117676
2.120000 -4.200000 -7.840000 -2.398918 7.213972 57.796204
2.120000 -4.200000 -7.800000 -1.302275 8.734583 77.988861
2.120000 -4.160000 -8.200000 10.286889 -8.807571 183.393402
2.120000 -4.160000 -8.160000 15.281070 0.613696 233.887711
2.120000 -4.160000 -8.120000 13.468859 7.672117 240.271545
2.120000 -4.160000 -8.080000 10.329771 10.011524 206.934784
2.120000 -4.160000 -8.040000 9.387344 10.317892 194.581131
2.120000 -4.160000 -8.000000 9.984901 11.740667 237.541534
2.120000 -4.160000 -7.960000 9.779914 14.707039 311.943726
2.120000 -4.160000 -7.920000 7.786175 17.751217 375.730225
2.120000 -4.160000 -7.880000 4.510864 19.794455 412.168335
2.120000 -4.160000 -7.840000 0.384102 20.545115 422.249268
2.120000 -4.160000 -7.800000 -4.376043 19.238396 389.265625
2.120000 -4.120000 -8.200000 12.927795 10.177710 270.713684
2.120000 -4.120000 -8.160000 0.085613 15.602438 243.443390
2.120000 -4.120000 -8.120000 -9.011666 6.306850 120.986496
2.120000 -4.120000 -8.080000 -3.525204 -6.991546 61.308769
2.120000 -4.120000 -8.040000 13.273932 -9.711245 270.505524
2.120000 -4.120000 -8.000000 27.712551 3.261618 778.623596
2.120000 -4.120000 -7.960000 28.255104 23.890720 1369.117432
2.120000 -4.120000 -7.920000 14.625114 38.991135 1734.202515
2.120000 -4.120000 -7.880000 -3.870785 41.096016 1703.865601
2.120000 -4.120000 -7.840000 -17.144936 32.407055 1344.166016
2.120000 -4.120000 -7.800000 -21.145805 20.367378 861.975220
2.120000 -4.080000 -8.200000 -4.110907 22.559818 525.844971
2.120000 -4.080000 -8.160000 -23.213512 9.396227 627.156250
2.120000 -4.080000 -8.120000 -20.897247 -16.497667 708.867981
2.120000 -4.080000 -8.080000 5.569529 -31.019352 993.219849
2.120000 -4.080000 -8.040000 37.321354 -17.627403 1703.608765
2.120000 -4.080000 -8.000000 49.454880 17.936188 2767.491943
2.120000 -4.080000 -7.960000 31.760490 52.331692 3747.334717
2.120000 -4.080000 -7.920000 -3.767366 63.953430 4104.234375
2.120000 -4.080000 -7.880000 -34.169678 49.275856 3595.677002
2.120000 -4.080000 -7.840000 -44.090256 22.765280 2462.208496
2.120000 -4.080000 -7.800000 -35.251663 2.827888 1250.676758
2.120000 -4.040000 -8.200000 -25.001709 13.857580 817.117981
2.120000 -4.040000 -8.160000 -31.440065 -15.648104 1233.340820
2.120000 -4.040000 -8.120000 -7.036791 -41.619987 1781.739868
2.120000 -4.040000 -8.080000 34.534416 -37.789658 2620.684082
2.120000 -4.040000 -8.040000 62.012428 0.672098 3845.992920
2.120000 -4.040000 -8.000000 51.693428 50.658573 5238.501465
2.120000 -4.040000 -7.960000 7.591080 78.621925 6239.031738
2.120000 -4.040000 -7.920000 -41.527374 67.332260 6258.156250
2.120000 -4.040000 -7.880000 -65.584694 28.547373 5116.304688
2.120000 -4.040000 -7.840000 -56.227661 -8.786293 3238.748779
2.120000 -4.040000 -7.800000 -29.893276 -22.924498 1419.140625
2.120000 -4.000000 -8.200000 -29.254564 -8.714358 931.769592
2.120000 -4.000000 -8.160000 -14.919242 -37.294228 1613.443115
2.120000 -4.000000 -8.120000 23.231327 -44.967300 2561.752686
2.120000 -4.000000 -8.080000 59.460770 -16.549610 3809.472656
2.120000 -4.000000 -8.040000 63.289909 35.539146 5268.643555
2.120000 -4.000000 -8.000000 25.275368 77.244370 6605.536621
2.120000 -4.000000 -7.960000 -32.565319 78.948685 7293.395020
2.120000 -4.000000 -7.920000 -72.831543 39.841312 6891.763672
2.120000 -4.000000 -7.880000 -72.463150 -11.425016 5381.439453
2.120000 -4.000000 -7.840000 -40.026199 -40.854893 3271.218994
2.120000 -4.000000 -7.800000 -5.633657 -36.307415 1349.966431
2.120000 -3.960000 -8.200000 -13.657917 -23.690632 747.784729
2.120000 -3.960000 -8.160000 11.332376 -35.785431 1409.019775
2.120000 -3.960000 -8.120000 43.413361 -22.210722 2378.036133
2.120000 -3.960000 -8.080000 57.556320 17.218496 3609.206543
2.120000 -3.960000 -8.040000 35.956161 60.088188 4903.436035
2.120000 -3.960000 -8.000000 -14.015224 75.542381 5903.078125
2.120000 -3.960000 -7.960000 -61.418518 49.412605 6213.839844
2.120000 -3.960000 -7.920000 -74.941109 -1.914923 5619.836914
2.120000 -3.960000 -7.880000 -48.610649 -43.436085 4249.688477
2.120000 -3.960000 -7.840000 -6.344891 -50.172989 2557.586426
2.120000 -3.960000 -7.800000 19.477434 -26.831057 1099.276001
2.120000 -3.920000 -8.200000 4.404100 -18.494019 361.424805
2.120000 -3.920000 -8.160000 22.534679 -14.788622 726.515137
2.120000 -3.920000 -8.120000 36.032059 5.450655 1328.018799
2.120000 -3.920000 -8.080000 30.100914 35.115181 2139.140869
2.120000 -3.920000 -8.040000 0.375652 54.668442 2988.779541
2.120000 -3.920000 -8.000000 -38.323101 46.115360 3595.286621
2.120000 -3.920000 -7.960000 -60.006592 10.290146 3706.678223
2.120000 -3.920000 -7.920000 -48.497910 -30.068939 3256.188232
2.120000 -3.920000 -7.880000 -12.678247 -47.492249 2416.251709
2.120000 -3.920000 -7.840000 19.989395 -33.109367 1495.806152
2.120000 -3.920000 -7.800000 27.275663 -3.898988 759.163879
2.120000 -3.880000 -8.200000 6.176153 -2.960210 46.907707
2.120000 -3.880000 -8.160000 10.197397 2.063948 108.246788
2.120000 -3.880000 -8.120000 10.921416 12.052721 264.545410
2.120000 -3.880000 -8.080000 2.352571 23.259998 546.562134
2.120000 -3.880000 -8.040000 -15.610739 25.707605 904.576172
2.120000 -3.880000 -8.000000 -32.440437 12.142738 1199.828003
2.120000 -3.880000 -7.960000 -33.830120 -12.012394 1288.774658
2.120000 -3.880000 -7.920000 -15.565811 -29.928108 1137.986084
2.120000 -3.880000 -7.880000 9.942467 -27.506411 855.455261
2.120000 -3.880000 -7.840000 23.327501 -7.224740 596.369141
2.120000 -3.880000 -7.800000 16.018829 13.283768 433.061401
2.120000 -3.840000 -8.200000 -7.580605 1.819827 60.777344
2.120000 -3.840000 -8.160000 -8.565618 -3.756687 87.482506
2.120000 -3.840000 -8.120000 -4.330372 -6.536453 61.477337
2.120000 -3.840000 -8.080000 -0.792566 -3.833596 15.324621
2.120000 -3.840000 -8.040000 -2.517578 -0.211851 6.383080
2.120000 -3.840000 -8.000000 -6.665927 -1.669022 47.220215
2.120000 -3.840000 -7.960000 -6.134722 -7.586574 95.190910
2.120000 -3.840000 -7.920000 1.428997 -10.447112 111.184181
2.120000 -3.840000 -7.880000 9.548050 -4.388287 110.422318
2.120000 -3.840000 -7.840000 9.340376 7.158210 138.482590
2.120000 -3.840000 -7.800000 -0.392932 14.170507 200.957672
2.120000 -3.800000 -8.200000 -17.140358 -12.628408 453.268555
2.120000 -3.800000 -8.160000 -9.093408 -25.413599 728.541077
2.120000 -3.800000 -8.120000 7.299459 -28.032160 839.084106
2.120000 -3.800000 -8.080000 20.752829 -17.610798 740.820068
2.120000 -3.800000 -8.040000 22.679592 -1.638191 517.047546
2.120000 -3.800000 -8.000000 14.300411 9.360847 292.127228
2.120000 -3.800000 -7.960000 3.942078 11.154028 139.952316
2.120000 -3.800000 -7.920000 -1.768513 7.772241 63.535362
2.120000 -3.800000 -7.880000 -3.164875 5.280040 37.895256
2.120000 -3.800000 -7.840000 -4.566977 5.171803 47.604816
2.120000 -3.800000 -7.800000 -7.931828 4.458483 82.791969
2.160000 -4.200000 -8.200000 9.341264 -10.834238 204.639923
2.160000 -4.200000 -8.160000 19.654306 2.879127 394.581116
2.160000 -4.200000 -8.120000 16.856583 17.599945 593.902466
2.160000 -4.200000 -8.080000 6.994943 24.688953 658.473633
2.160000 -4.200000 -8.040000 -1.717354 24.545362 605.424072
2.160000 -4.200000 -8.000000 -6.742371 22.539572 553.491821
2.160000 -4.200000 -7.960000 -11.021230 21.495817 583.537659
2.160000 -4.200000 -7.920000 -16.935541 19.311007 659.727539
2.160000 -4.200000 -7.880000 -22.508430 13.159827 679.810486
2.160000 -4.200000 -7.840000 -23.837566 4.081764 584.890381
2.160000 -4.200000 -7.800000 -19.937479 -3.720479 411.345062
2.160000 -4.160000 -8.200000 16.570295 3.627384 287.732574
2.160000 -4.160000 -8.160000 10.292439 18.620850 452.670349
2.160000 -4.160000 -8.120000 -2.367118 21.973110 488.420807
2.160000 -4.160000 -8.080000 -9.499387 15.963293 345.065063
2.160000 -4.160000 -8.040000 -7.934780 10.632767 176.016464
2.160000 -4.160000 -8.000000 -4.341225 12.335037 170.999374
2.160000 -4.160000 -7.960000 -6.428608 18.014177 365.837585
2.160000 -4.160000 -7.920000 -14.669575 19.971844 614.070984
2.160000 -4.160000 -7.880000 -22.816685 14.513242 731.235229
2.160000 -4.160000 -7.840000 -25.080515 4.974377 653.776672
2.160000 -4.160000 -7.800000 -21.306767 -2.852821 462.116882
2.160000 -4.120000 -8.200000 6.498966 18.458231 382.942871
2.160000 -4.120000 -8.160000 -10.475592 20.435886 527.363464
2.160000 -4.120000 -8.120000 -19.529987 8.716925 457.405182
2.160000 -4.120000 -8.080000 -13.814017 -2.996474 199.805923
2.160000 -4.120000 -8.040000 -1.214136 -2.398212 7.225550
2.160000 -4.120000 -8.000000 4.282148 10.069766 119.736977
2.160000 -4.120000 -7.960000 -3.956251 22.778036 534.490845
2.160000 -4.120000 -7.920000 -20.021309 24.501328 1001.167847
2.160000 -4.120000 -7.880000 -32.207260 13.998039 1233.252686
2.160000 -4.120000 -7.840000 -33.561771 -0.771077 1126.987061
2.160000 -4.120000 -7.800000 -26.042917 -10.943529 797.994324
2.160000 -4.080000 -8.200000 -12.803551 17.189777 459.419342
2.160000 -4.080000 -8.160000 -25.078297 3.291820 639.757019
2.160000 -4.080000 -8.120000 -19.678692 -14.105715 586.222107
2.160000 -4.080000 -8.080000 -1.513190 -18.480288 343.810760
2.160000 -4.080000 -8.040000 12.881527 -4.614670 187.228912
2.160000 -4.080000 -8.000000 9.827259 16.838390 380.106415
2.160000 -4.080000 -7.960000 -9.909893 28.768961 925.859131
2.160000 -4.080000 -7.920000 -32.461845 21.955368 1535.809570
2.160000 -4.080000 -7.880000 -42.902939 1.681038 1843.488037
2.160000 -4.080000 -7.840000 -36.694885 -18.117043 1674.741943
2.160000 -4.080000 -7.800000 -21.196583 -26.508722 1152.007446
2.160000 -4.040000 -8.200000 -22.074741 -0.780880 487.903992
2.160000 -4.040000 -8.160000 -19.102327 -19.137367 731.137695
2.160000 -4.040000 -8.120000 -1.243938 -27.887802 779.276855
2.160000 -4.040000 -8.080000 18.029213 -17.853186 643.788757
2.160000 -4.040000 -8.040000 22.470093 5.611512 536.394104
2.160000 -4.040000 -8.000000 6.118231 25.747253 700.353821
2.160000 -4.040000 -7.960000 -21.272869 27.121029 1188.085205
2.160000 -4.040000 -7.920000 -41.405941 7.785308 1775.062866
2.160000 -4.040000 -7.880000 -41.521103 -19.310070 2096.880859
2.160000 -4.040000 -7.840000 -23.793518 -36.741692 1916.083496
2.160000 -4.040000 -7.800000 -2.442495 -36.026878 1303.901733
2.160000 -4.000000 -8.200000 -11.354889 -18.176655 459.324280
2.160000 -4.000000 -8.160000 2.676031 -26.369831 702.529114
2.160000 -4.000000 -8.120000 19.872906 -20.598061 819.212463
2.160000 -4.000000 -8.080000 28.048454 -1.885066 790.269226
2.160000 -4.000000 -8.040000 18.946815 19.065052 722.458008
2.160000 -4.000000 -8.000000 -4.641423 27.640991 785.567200
2.160000 -4.000000 -7.960000 -28.713587 15.777258 1073.391968
2.160000 -4.000000 -7.920000 -37.121277 -10.607659 1490.511597
2.160000 -4.000000 -7.880000 -24.037455 -34.616055 1776.070435
2.160000 -4.000000 -7.840000 0.747638 -41.027985 1683.854492
2.160000 -4.000000 -7.800000 19.423777 -28.473881 1188.045044
2.160000 -3.960000 -8.200000 8.575797 -17.753639 388.736023
2.160000 -3.960000 -8.160000 19.401035 -12.118687 523.262756
2.160000 -3.960000 -8.120000 24.311058 0.106032 591.038757
2.160000 -3.960000 -8.080000 19.744480 14.128174 589.449768
2.160000 -3.960000 -8.040000 5.353873 22.792425 548.158569
2.160000 -3.960000 -8.000000 -13.295059 18.980181 537.005859
2.160000 -3.960000 -7.960000 -25.152336 1.545887 635.029785
2.160000 -3.960000 -7.920000 -20.702145 -20.575052 851.911560
2.160000 -3.960000 -7.880000 -1.080676 -32.769184 1074.987305
2.160000 -3.960000 -7.840000 20.448074 -26.495289 1120.124023
2.160000 -3.960000 -7.800000 28.661695 -7.782807 882.064880
2.160000 -3.920000 -8.200000 17.280239 -1.063093 299.736816
2.160000 -3.920000 -8.160000 15.068603 8.145468 293.411438
2.160000 -3.920000 -8.120000 8.792590 12.996562 246.220276
2.160000 -3.920000 -8.080000 1.971923 14.033978 200.841003
2.160000 -3.920000 -8.040000 -5.014212 12.080631 171.083969
2.160000 -3.920000 -8.000000 -11.183613 5.558431 155.969360
2.160000 -3.920000 -7.960000 -11.956338 -5.690240 175.332840
2.160000 -3.920000 -7.920000 -3.168866 -15.914493 263.312775
2.160000 -3.920000 -7.880000 11.955565 -16.419550 412.537170
2.160000 -3.920000 -7.840000 22.694319 -4.752453 537.617920
2.160000 -3.920000 -7.800000 20.382683 10.494419 525.586609
2.160000 -3.880000 -8.200000 6.823129 12.919045 213.456818
2.160000 -3.880000 -8.160000 -4.249637 12.646541 177.994415
2.160000 -3.880000 -8.120000 -9.347849 4.399159 106.734879
2.160000 -3.880000 -8.080000 -6.048908 -2.776635 44.298996
2.160000 -3.880000 -8.040000 -0.369669 -3.764894 14.311086
2.160000 -3.880000 -8.000000 2.043788 -1.523766 6.498931
2.160000 -3.880000 -7.960000 2.258206 -0.968216 6.036939
2.160000 -3.880000 -7.920000 4.606704 -1.708153 24.139507
2.160000 -3.880000 -7.880000 9.123747 0.888649 84.032455
2.160000 -3.880000 -7.840000 10.424414 8.147110 175.043808
2.160000 -3.880000 -7.800000 4.827064 14.602758 236.541092
2.160000 -3.840000 -8.200000 -9.247492 8.539658 158.441864
2.160000 -3.840000 -8.160000 -16.035824 -3.499514 269.394257
2.160000 -3.840000 -8.120000 -9.124035 -16.840347 366.845306
2.160000 -3.840000 -8.080000 6.329396 -19.205772 408.922943
2.160000 -3.840000 -8.040000 17.571976 -8.833236 386.800385
2.160000 -3.840000 -8.000000 17.078897 4.979000 316.479187
2.160000 -3.840000 -7.960000 8.481236 12.262028 222.288696
2.160000 -3.840000 -7.920000 0.569933 11.452497 131.484512
2.160000 -3.840000 -7.880000 -2.295682 8.130383 71.373276
2.160000 -3.840000 -7.840000 -2.595379 6.953929 55.093121
2.160000 -3.840000 -7.800000 -4.031281 7.186784 67.901085
2.160000 -3.800000 -8.200000 -10.541493 -8.842230 189.308105
2.160000 -3.800000 -8.160000 -5.127676 -22.106031 514.969727
2.160000 -3.800000 -8.120000 11.897408 -27.212322 882.058838
2.160000 -3.800000 -8.080000 29.170427 -16.566238 1125.354004
2.160000 -3.800000 -8.040000 33.544144 4.357825 1144.200195
2.160000 -3.800000 -8.000000 22.016485 21.674158 954.494751
2.160000 -3.800000 -7.960000 3.727508 25.381668 658.123352
2.160000 -3.800000 -7.920000 -9.070326 16.939447 369.215698
2.160000 -3.800000 -7.880000 -11.233010 5.767292 159.442169
2.160000 -3.800000 -7.840000 -6.716690 -0.163968 45.140812
2.160000 -3.800000 -7.800000 -2.509547 0.145650 6.319039
2.200000 -4.200000 -8.200000 13.038633 3.189744 180.180435
2.200000 -4.200000 -8.160000 7.829946 19.879417 456.499268
2.200000 -4.200000 -8.120000 -7.188079 24.752060 664.332947
2.200000 -4.200000 -8.080000 -17.751699 17.463133 620.083862
2.200000 -4.200000 -8.040000 -17.970430 9.041078 404.677460
2.200000 -4.200000 -8.000000 -14.662239 8.161892 281.597748
2.200000 -4.200000 -7.960000 -17.534466 11.828813 447.378296
2.200000 -4.200000 -7.920000 -27.191051 10.081413 840.988159
2.200000 -4.200000 -7.880000 -34.425053 -1.654463 1187.821533
2.200000 -4.200000 -7.840000 -30.788792 -16.910040 1233.899170
2.200000 -4.200000 -7.800000 -17.927538 -25.117744 952.297668
2.200000 -4.160000 -8.200000 8.740271 14.742666 293.738525
2.200000 -4.160000 -8.160000 -7.589950 23.336815 602.214294
2.200000 -4.160000 -8.120000 -22.434870 15.910385 756.463745
2.200000 -4.160000 -8.080000 -24.504143 2.499616 606.701111
2.200000 -4.160000 -8.040000 -16.945192 -3.547873 299.726959
2.200000 -4.160000 -8.000000 -11.917161 0.682458 142.484467
2.200000 -4.160000 -7.960000 -16.736465 6.179878 318.300171
2.200000 -4.160000 -7.920000 -26.682827 2.959878 720.734131
2.200000 -4.160000 -7.880000 -31.105423 -9.251022 1053.128784
2.200000 -4.160000 -7.840000 -24.917866 -21.608166 1087.812866
2.200000 -4.160000 -7.800000 -12.891632 -25.935101 838.823608
2.200000 -4.120000 -8.200000 -4.786798 17.757437 338.240021
2.200000 -4.120000 -8.160000 -21.922657 13.313498 657.852112
2.200000 -4.120000 -8.120000 -28.164940 -1.714079 796.201904
2.200000 -4.120000 -8.080000 -20.882256 -13.508976 618.561035
2.200000 -4.120000 -8.040000 -9.899434 -13.270818 274.113403
2.200000 -4.120000 -8.000000 -6.957747 -4.789463 71.349197
2.200000 -4.120000 -7.960000 -14.480435 0.610053 210.055176
2.200000 -4.120000 -7.920000 -24.388264 -4.433118 614.439941
2.200000 -4.120000 -7.880000 -26.814939 -16.989145 1007.671997
2.200000 -4.120000 -7.840000 -19.137735 -27.888504 1144.021606
2.200000 -4.120000 -7.800000 -6.879172 -30.545177 980.330872
2.200000 -4.080000 -8.200000 -15.042362 7.176460 277.774231
2.200000 -4.080000 -8.160000 -23.346359 -4.663083 566.796814
2.200000 -4.080000 -8.120000 -19.910416 -18.098351 723.974976
2.200000 -4.080000 -8.080000 -8.517612 -23.305758 615.708008
2.200000 -4.080000 -8.040000 0.774935 -17.759140 315.987579
2.200000 -4.080000 -8.000000 0.314943 -8.156986 66.635612
2.200000 -4.080000 -7.960000 -8.738073 -4.420818 95.897560
2.200000 -4.080000 -7.920000 -17.702707 -11.166710 438.081238
2.200000 -4.080000 -7.880000 -17.948092 -24.040920 900.099854
2.200000 -4.080000 -7.840000 -7.955393 -33.707626 1199.492432
2.200000 -4.080000 -7.800000 5.931131 -33.578651 1162.704224
2.200000 -4.040000 -8.200000 -10.801641 -7.583245 174.181061
2.200000 -4.040000 -8.160000 -9.968601 -16.149986 360.195068
2.200000 -4.040000 -8.120000 -3.538186 -22.428450 515.554077
2.200000 -4.040000 -8.080000 5.539026 -22.507719 537.278198
2.200000 -4.040000 -8.040000 11.379123 -15.887094 381.884216
2.200000 -4.040000 -8.000000 9.248902 -7.576952 142.952393
2.200000 -4.040000 -7.960000 0.549698 -5.296773 28.357971
2.200000 -4.040000 -7.920000 -6.794549 -12.709667 207.701538
2.200000 -4.040000 -7.880000 -4.577401 -24.936527 642.782959
2.200000 -4.040000 -7.840000 7.807306 -31.758089 1069.530273
2.200000 -4.040000 -7.800000 21.789768 -26.635397 1184.238403
2.200000 -4.000000 -8.200000 4.831023 -11.259579 150.116898
2.200000 -4.000000 -8.160000 6.097134 -11.220820 163.081848
2.200000 -4.000000 -8.120000 7.790816 -13.188869 234.643082
2.200000 -4.000000 -8.080000 12.759203 -14.022360 359.423828
2.200000 -4.000000 -8.040000 17.801491 -9.642166 409.864441
2.200000 -4.000000 -8.000000 16.807449 -2.228856 287.458160
2.200000 -4.000000 -7.960000 9.275494 0.410806 86.203545
2.200000 -4.000000 -7.920000 3.115964 -6.198533 48.131046
2.200000 -4.000000 -7.880000 6.887207 -16.431906 317.441162
2.200000 -4.000000 -7.840000 19.551411 -19.083466 746.436279
2.200000 -4.000000 -7.800000 30.000919 -9.393629 988.295410
2.200000 -3.960000 -8.200000 16.346214 0.914617 268.035248
2.200000 -3.960000 -8.160000 9.420971 4.589323 109.816574
2.200000 -3.960000 -8.120000 5.261462 -1.102788 28.899126
2.200000 -3.960000 -8.080000 10.513563 -6.998932 159.520050
2.200000 -3.960000 -8.040000 19.066990 -3.984127 379.423370
2.200000 -3.960000 -8.000000 20.314489 5.440246 442.274750
2.200000 -3.960000 -7.960000 12.741405 10.390852 270.313232
2.200000 -3.960000 -7.920000 6.055219 5.311325 64.875854
2.200000 -3.960000 -7.880000 9.308083 -2.755766 94.234650
2.200000 -3.960000 -7.840000 19.444813 -2.412101 383.918976
2.200000 -3.960000 -7.800000 24.425508 8.130451 662.709717
2.200000 -3.920000 -8.200000 11.901789 17.305141 441.120483
2.200000 -3.920000 -8.160000 -2.988929 14.678404 224.389236
2.200000 -3.920000 -8.120000 -6.252471 0.291709 39.178493
2.200000 -3.920000 -8.080000 5.638264 -8.750813 108.366760
2.200000 -3.920000 -8.040000 19.333618 -2.366721 379.390167
2.200000 -3.920000 -8.000000 20.701126 12.109071 575.166199
2.200000 -3.920000 -7.960000 10.330152 19.708555 495.139191
2.200000 -3.920000 -7.920000 1.110991 15.158916 231.027054
2.200000 -3.920000 -7.880000 2.224227 7.464106 60.660057
2.200000 -3.920000 -7.840000 9.107393 7.610070 140.857773
2.200000 -3.920000 -7.800000 10.608139 15.206776 343.778656
2.200000 -3.880000 -8.200000 -3.714646 21.826859 490.210327
2.200000 -3.880000 -8.160000 -17.757538 8.159183 381.902405
2.200000 -3.880000 -8.120000 -12.011086 -11.425033 274.797546
2.200000 -3.880000 -8.080000 8.475177 -16.518953 344.704437
2.200000 -3.880000 -8.040000 23.907303 -2.029993 575.679993
2.200000 -3.880000 -8.000000 20.966101 17.847250 758.101685
2.200000 -3.880000 -7.960000 5.246664 25.933935 700.096436
2.200000 -3.880000 -7.920000 -7.209835 19.326763 425.505493
2.200000 -3.880000 -7.880000 -7.715681 9.369376 147.316940
2.200000 -3.880000 -7.840000 -1.854920 6.912095 51.217789
2.200000 -3.880000 -7.800000 0.172132 11.170164 124.802200
2.200000 -3.840000 -8.200000 -13.929166 11.382021 323.572083
2.200000 -3.840000 -8.160000 -18.617104 -8.147284 412.974792
2.200000 -3.840000 -8.120000 -2.415143 -23.812632 572.874329
2.200000 -3.840000 -8.080000 21.525833 -18.756535 815.169067
2.200000 -3.840000 -8.040000 32.090431 4.149914 1047.017578
2.200000 -3.840000 -8.000000 21.085274 25.904499 1115.631836
2.200000 -3.840000 -7.960000 -0.284232 30.577293 935.051697
2.200000 -3.840000 -7.920000 -14.334244 19.282457 577.283691
2.200000 -3.840000 -7.880000 -13.879504 5.807456 226.367188
2.200000 -3.840000 -7.840000 -5.954149 1.285416 37.104187
2.200000 -3.840000 -7.800000 -1.281186 5.100089 27.652346
2.200000 -3.800000 -8.200000 -8.499139 -0.448993 72.436951
2.200000 -3.800000 -8.160000 -3.995882 -16.123348 275.929443
2.200000 -3.800000 -8.120000 15.676386 -21.562630 710.696045
2.200000 -3.800000 -8.080000 34.581375 -6.862559 1242.966187
2.200000 -3.800000 -8.040000 35.437408 19.158075 1622.841797
2.200000 -3.800000 -8.000000 16.384947 37.081059 1643.471436
2.200000 -3.800000 -7.960000 -7.789418 35.031929 1287.911133
2.200000 -3.800000 -7.920000 -20.098501 18.378912 741.734131
2.200000 -3.800000 -7.880000 -16.064014 2.678200 265.225311
2.200000 -3.800000 -7.840000 -4.992939 -1.254332 26.502787
2.200000 -3.800000 -7.800000 0.942403 4.868884 24.594156
