#kx 	ky 	kz 	real 	imag 	intensity
8.800000 0.800000 2.800000 -32.890717 22.110258 1570.662720
8.800000 0.800000 2.840000 -37.743191 7.364094 1478.778320
8.800000 0.800000 2.880000 -35.529709 -7.544851 1319.285034
8.800000 0.800000 2.920000 -26.590042 -20.103670 1111.187866
8.800000 0.800000 2.960000 -11.645194 -26.732737 850.249756
8.800000 0.800000 3.000000 5.316597 -23.327404 572.434021
8.800000 0.800000 3.040000 16.612080 -9.574375 367.629852
8.800000 0.800000 3.080000 15.792468 8.015717 313.653748
8.800000 0.800000 3.120000 3.756668 19.508307 394.686584
8.800000 0.800000 3.160000 -11.071156 19.427595 500.001953
8.800000 0.800000 3.200000 -19.908630 11.160437 520.908936
8.800000 0.840000 2.800000 -36.638561 -8.162205 1409.005737
8.800000 0.840000 2.840000 -30.621788 -19.534256 1319.281006
8.800000 0.840000 2.880000 -20.576849 -27.524448 1181.001953
8.800000 0.840000 2.920000 -7.461254 -29.874760 948.171570
8.800000 0.840000 2.960000 4.879508 -24.228941 610.851135
8.800000 0.840000 3.000000 10.315775 -12.331482 258.480652
8.800000 0.840000 3.040000 5.837463 -1.382460 35.987171
8.800000 0.840000 3.080000 -3.991499 1.179817 17.324032
8.800000 0.840000 3.120000 -9.957062 -4.907263 123.224312
8.800000 0.840000 3.160000 -7.072512 -11.630566 185.290466
8.800000 0.840000 3.200000 -0.235569 -10.698212 114.507233
8.800000 0.880000 2.800000 -16.722738 -31.485384 1270.979370
8.800000 0.880000 2.840000 -5.192896 -32.635826 1092.063354
8.800000 0.880000 2.880000 5.396910 -29.293495 887.235535
8.800000 0.880000 2.920000 12.785791 -20.708820 592.331726
8.800000 0.880000 2.960000 12.385384 -9.368756 241.171326
8.800000 0.880000 3.000000 3.100305 -3.031521 18.802011
8.800000 0.880000 3.040000 -7.527358 -8.540136 129.595047
8.800000 0.880000 3.080000 -7.602057 -22.748604 575.290222
8.800000 0.880000 3.120000 7.157597 -32.008583 1075.780640
8.800000 0.880000 3.160000 26.180834 -24.020512 1262.421021
8.800000 0.880000 3.200000 31.630722 -1.473026 1002.672363
8.800000 0.920000 2.800000 12.588482 -31.807825 1170.207642
8.800000 0.920000 2.840000 20.365816 -21.941963 896.216187
8.800000 0.920000 2.880000 22.419014 -10.520231 613.287476
8.800000 0.920000 2.920000 17.006088 0.267425 289.278534
8.800000 0.920000 2.960000 3.977637 3.886412 30.925793
8.800000 0.920000 3.000000 -8.717986 -6.360974 116.465271
8.800000 0.920000 3.040000 -7.308759 -27.052689 785.265930
8.800000 0.920000 3.080000 14.620179 -41.507740 1936.642090
8.800000 0.920000 3.120000 45.044361 -32.053574 3056.426270
8.800000 0.920000 3.160000 59.404140 1.541935 3531.229492
8.800000 0.920000 3.200000 41.858322 37.076382 3126.777344
8.800000 0.960000 2.800000 29.891537 -11.074915 1016.157715
8.800000 0.960000 2.840000 26.804941 3.045851 727.782104
8.800000 0.960000 2.880000 17.047070 12.517956 447.301788
8.800000 0.960000 2.920000 2.316612 13.753181 194.516693
8.800000 0.960000 2.960000 -11.067938 1.921471 126.191292
8.800000 0.960000 3.000000 -10.642611 -20.896664 549.935730
8.800000 0.960000 3.040000 12.071462 -39.424877 1700.041138
8.800000 0.960000 3.080000 48.073364 -33.352768 3423.455566
8.800000 0.960000 3.120000 71.331024 3.197181 5098.337402
8.800000 0.960000 3.160000 58.651592 50.220715 5962.129395
8.800000 0.960000 3.200000 12.559132 74.046066 5640.551758
8.800000 1.000000 2.800000 24.366766 12.830196 758.353210
8.800000 1.000000 2.840000 10.945047 20.971136 559.582581
8.800000 1.000000 2.880000 -4.159145 19.281511 389.075165
8.800000 1.000000 2.920000 -15.765903 7.002006 297.591797
8.800000 1.000000 2.960000 -15.571256 -13.817974 433.400391
8.800000 1.000000 3.000000 3.853699 -32.171371 1049.848145
8.800000 1.000000 3.040000 37.842262 -30.251472 2347.188477
8.800000 1.000000 3.080000 64.927307 1.661198 4218.314941
8.800000 1.000000 3.120000 59.915398 50.475609 6137.642090
8.800000 1.000000 3.160000 16.922539 84.159653 7369.219727
8.800000 1.000000 3.200000 -40.156868 76.083206 7401.228516
8.800000 1.040000 2.800000 3.599108 21.629082 480.770752
8.800000 1.040000 2.840000 -11.718211 17.432587 441.211548
8.800000 1.040000 2.880000 -20.396788 4.272058 434.279449
8.800000 1.040000 2.920000 -18.164005 -13.107784 501.745117
8.800000 1.040000 2.960000 -2.044577 -27.109798 739.121460
8.800000 1.040000 3.000000 24.977093 -26.163763 1308.397705
8.800000 1.040000 3.040000 48.698566 -1.776591 2374.706543
8.800000 1.040000 3.080000 48.730286 39.661442 3947.670410
8.800000 1.040000 3.120000 15.050671 74.209587 5733.585449
8.800000 1.040000 3.160000 -38.345242 75.438545 7161.331543
8.800000 1.040000 3.200000 -79.191124 37.036797 7642.958008
8.800000 1.080000 2.800000 -14.686770 11.032803 337.423950
8.800000 1.080000 2.840000 -21.490261 -3.066324 471.233673
8.800000 1.080000 2.880000 -16.307682 -18.212379 597.631226
8.800000 1.080000 2.920000 -1.089136 -26.799648 719.407349
8.800000 1.080000 2.960000 18.924559 -23.038074 888.891785
8.800000 1.080000 3.000000 34.612587 -3.938160 1213.540283
8.800000 1.080000 3.040000 33.993866 26.256880 1845.006592
8.800000 1.080000 3.080000 9.601144 52.937370 2894.547119
8.800000 1.080000 3.120000 -31.864849 57.130810 4279.297852
8.800000 1.080000 3.160000 -68.774399 29.926693 5625.524902
8.800000 1.080000 3.200000 -78.038857 -17.006990 6379.300781
8.800000 1.120000 2.800000 -18.095238 -8.408775 398.145142
8.800000 1.120000 2.840000 -11.658484 -23.005697 665.182312
8.800000 1.120000 2.880000 4.290091 -28.577309 835.067505
8.800000 1.120000 2.920000 20.733322 -21.142498 876.875854
8.800000 1.120000 2.960000 29.007160 -3.309525 852.368286
8.800000 1.120000 3.000000 23.720493 18.002974 886.768860
8.800000 1.120000 3.040000 4.087918 33.418243 1133.490112
8.800000 1.120000 3.080000 -24.300686 33.535896 1715.179688
8.800000 1.120000 3.120000 -49.243900 14.001570 2621.005615
8.800000 1.120000 3.160000 -56.992920 -19.234568 3618.161377
8.800000 1.120000 3.200000 -41.570351 -50.690174 4297.587891
8.800000 1.160000 2.800000 -7.767088 -22.740990 577.480225
8.800000 1.160000 2.840000 7.927126 -28.710644 887.140442
8.800000 1.160000 2.880000 24.099480 -20.426010 998.006836
8.800000 1.160000 2.920000 29.658012 -2.106318 884.034302
8.800000 1.160000 2.960000 20.609444 15.584130 667.614258
8.800000 1.160000 3.000000 1.522285 23.008762 531.720459
8.800000 1.160000 3.040000 -18.474401 16.513403 613.995972
8.800000 1.160000 3.080000 -30.770760 -1.107801 948.066895
8.800000 1.160000 3.120000 -30.537212 -22.858799 1455.046143
8.800000 1.160000 3.160000 -18.078781 -40.494576 1966.652954
8.800000 1.160000 3.200000 1.296255 -47.774757 2284.107666
8.800000 1.200000 2.800000 6.399822 -26.159695 725.287354
8.800000 1.200000 2.840000 22.764980 -21.118057 964.216675
8.800000 1.200000 2.880000 30.404888 -4.272349 942.710205
8.800000 1.200000 2.920000 22.593227 13.317972 687.822266
8.800000 1.200000 2.960000 3.976553 19.420578 392.971802
8.800000 1.200000 3.000000 -13.233440 10.035382 275.832855
8.800000 1.200000 3.040000 -18.670511 -8.340630 418.154083
8.800000 1.200000 3.080000 -10.694099 -24.540173 716.583862
8.800000 1.200000 3.120000 4.103191 -30.944349 974.388916
8.800000 1.200000 3.160000 16.990429 -27.549274 1047.637207
8.800000 1.200000 3.200000 23.199518 -20.006977 938.496826
8.840000 0.800000 2.800000 -45.201271 16.947031 2330.356689
8.840000 0.800000 2.840000 -49.844666 -3.484173 2496.630127
8.840000 0.800000 2.880000 -41.391701 -24.653999 2321.092773
8.840000 0.800000 2.920000 -21.337503 -37.281425 1845.193726
8.840000 0.800000 2.960000 2.143661 -34.972328 1227.659058
8.840000 0.800000 3.000000 17.949051 -18.925419 680.339905
8.840000 0.800000 3.040000 18.917786 1.700174 360.773193
8.840000 0.800000 3.080000 6.939548 15.438034 286.490234
8.840000 0.800000 3.120000 -8.493965 16.470882 343.437439
8.840000 0.800000 3.160000 -17.831017 8.239962 385.842133
8.840000 0.800000 3.200000 -18.675947 -0.800068 349.431122
8.840000 0.840000 2.800000 -38.665512 -16.758144 1775.857178
8.840000 0.840000 2.840000 -28.141117 -30.613686 1729.120239
8.840000 0.840000 2.880000 -10.120741 -35.999432 1398.388550
8.840000 0.840000 2.920000 7.304966 -28.652168 874.309265
8.840000 0.840000 2.960000 14.515371 -12.406845 364.625793
8.840000 0.840000 3.000000 8.162040 2.046892 70.808662
8.840000 0.840000 3.040000 -5.088150 5.165501 52.571663
8.840000 0.840000 3.080000 -13.493958 -3.219676 192.453201
8.840000 0.840000 3.120000 -10.488071 -13.564679 294.000153
8.840000 0.840000 3.160000 -0.686750 -15.498102 240.662796
8.840000 0.840000 3.200000 4.722630 -7.946348 85.447678
8.840000 0.880000 2.800000 -9.153120 -32.743088 1155.889404
8.840000 0.880000 2.840000 6.692242 -29.377932 907.848938
8.840000 0.880000 2.880000 17.486746 -15.299747 539.868530
8.840000 0.880000 2.920000 14.620583 3.158668 223.738617
8.840000 0.880000 2.960000 -2.265232 12.886431 171.191376
8.840000 0.880000 3.000000 -21.198898 4.347504 468.294067
8.840000 0.880000 3.040000 -25.586994 -17.915743 975.668091
8.840000 0.880000 3.080000 -8.931612 -36.262600 1394.749878
8.840000 0.880000 3.120000 17.274086 -34.177490 1466.494873
8.840000 0.880000 3.160000 31.893204 -11.796772 1156.340332
8.840000 0.880000 3.200000 22.774796 12.696556 679.893799
8.840000 0.920000 2.800000 19.503918 -19.964493 778.983765
8.840000 0.920000 2.840000 24.843121 -0.751024 617.744690
8.840000 0.920000 2.880000 14.202248 20.015846 602.337952
8.840000 0.920000 2.920000 -11.863668 27.685057 907.208984
8.840000 0.920000 2.960000 -38.513027 10.952015 1603.199951
8.840000 0.920000 3.000000 -43.965950 -24.632080 2539.744141
8.840000 0.920000 3.040000 -17.912092 -55.292419 3378.094727
8.840000 0.920000 3.080000 25.548445 -55.846798 3771.587891
8.840000 0.920000 3.120000 55.535767 -22.148277 3574.767578
8.840000 0.920000 3.160000 49.240021 22.344322 2923.848389
8.840000 0.920000 3.200000 12.273911 44.596954 2139.537109
8.840000 0.960000 2.800000 24.926594 8.202147 688.610291
8.840000 0.960000 2.840000 10.718893 29.013514 956.678650
8.840000 0.960000 2.880000 -19.144917 36.080105 1668.301758
8.840000 0.960000 2.920000 -50.767822 16.868362 2861.913574
8.840000 0.960000 2.960000 -60.476280 -25.688189 4317.263672
8.840000 0.960000 3.000000 -32.751701 -67.278931 5599.128418
8.840000 0.960000 3.040000 21.778881 -76.256104 6289.312988
8.840000 0.960000 3.080000 68.110046 -40.009892 6239.770020
8.840000 0.960000 3.120000 72.320450 20.078424 5633.390625
8.840000 0.960000 3.160000 30.520599 62.296360 4812.343262
8.840000 0.960000 3.200000 -25.932304 57.964508 4032.368652
8.840000 1.000000 2.800000 5.646749 26.476837 732.908691
8.840000 1.000000 2.840000 -21.949022 32.534771 1540.270996
8.840000 1.000000 2.880000 -52.461739 15.353070 2987.950928
8.840000 1.000000 2.920000 -65.226120 -25.356968 4897.422852
8.840000 1.000000 2.960000 -42.400276 -70.348816 6746.739258
8.840000 1.000000 3.000000 12.357400 -88.073769 7909.694336
8.840000 1.000000 3.040000 68.209137 -58.430431 8066.601562
8.840000 1.000000 3.080000 86.021698 6.039563 7436.208984
8.840000 1.000000 3.120000 50.016457 63.981430 6595.269531
8.840000 1.000000 3.160000 -16.140636 75.784729 6003.845215
8.840000 1.000000 3.200000 -66.185486 35.822063 5663.738770
8.840000 1.040000 2.800000 -19.168522 20.192989 775.189026
8.840000 1.040000 2.840000 -43.203995 6.601692 1910.167603
8.840000 1.040000 2.880000 -54.725372 -25.835861 3662.358154
8.840000 1.040000 2.920000 -38.716927 -64.725426 5688.381348
8.840000 1.040000 2.960000 6.513605 -85.414330 7338.035156
8.840000 1.040000 3.000000 59.949104 -66.471725 8012.385254
8.840000 1.040000 3.040000 86.659546 -10.238631 7614.706543
8.840000 1.040000 3.080000 63.533649 51.522621 6691.105469
8.840000 1.040000 3.120000 1.279134 77.678940 6035.653809
8.840000 1.040000 3.160000 -59.613304 49.946060 6048.354980
8.840000 1.040000 3.200000 -79.237762 -11.103255 6401.905273
8.840000 1.080000 2.800000 -28.132826 -3.532559 803.934875
8.840000 1.080000 2.840000 -34.809780 -26.238163 1900.162109
8.840000 1.080000 2.880000 -23.246128 -53.154556 3365.789062
8.840000 1.080000 2.920000 8.604561 -69.041374 4840.750000
8.840000 1.080000 2.960000 49.186939 -58.190025 5805.434082
8.840000 1.080000 3.000000 74.732796 -17.605097 5894.930176
8.840000 1.080000 3.040000 63.816902 34.196224 5241.978516
8.840000 1.080000 3.080000 16.363194 65.020126 4495.370605
8.840000 1.080000 3.120000 -40.810169 52.016254 4371.160645
8.840000 1.080000 3.160000 -71.079964 1.547386 5054.755859
8.840000 1.080000 3.200000 -55.934090 -53.434937 5983.915039
8.840000 1.120000 2.800000 -15.639059 -24.899981 864.589233
8.840000 1.120000 2.840000 -5.264580 -40.161964 1640.699219
8.840000 1.120000 2.880000 15.623250 -46.959488 2449.279541
8.840000 1.120000 2.920000 39.977379 -38.250278 3061.274658
8.840000 1.120000 2.960000 55.584961 -12.597661 3248.389160
8.840000 1.120000 3.000000 49.972496 21.136030 2943.981934
8.840000 1.120000 3.040000 20.016323 44.669441 2396.012207
8.840000 1.120000 3.080000 -21.212437 40.729424 2108.853516
8.840000 1.120000 3.120000 -49.526321 7.271671 2505.733643
8.840000 1.120000 3.160000 -46.180740 -37.533871 3541.452393
8.840000 1.120000 3.200000 -12.959261 -66.806274 4631.020508
8.840000 1.160000 2.800000 6.634804 -29.935776 940.171326
8.840000 1.160000 2.840000 21.514153 -29.067173 1307.759277
8.840000 1.160000 2.880000 33.659634 -18.420431 1472.283203
8.840000 1.160000 2.920000 37.354378 -1.628963 1398.003052
8.840000 1.160000 2.960000 29.899746 15.228794 1125.911011
8.840000 1.160000 3.000000 12.285959 24.919123 771.907471
8.840000 1.160000 3.040000 -9.589779 21.033232 534.360718
8.840000 1.160000 3.080000 -25.289734 2.149115 644.189331
8.840000 1.160000 3.120000 -24.756283 -24.572659 1216.689087
8.840000 1.160000 3.160000 -5.842510 -45.477566 2102.343994
8.840000 1.160000 3.200000 22.318262 -49.033962 2902.434082
8.840000 1.200000 2.800000 23.253490 -20.195274 948.573914
8.840000 1.200000 2.840000 30.021111 -7.978326 964.920776
8.840000 1.200000 2.880000 26.673775 5.733184 744.359619
8.840000 1.200000 2.920000 15.403337 13.334787 415.079346
8.840000 1.200000 2.960000 2.673170 11.656057 143.009521
8.840000 1.200000 3.000000 -5.596874 2.674498 38.477940
8.840000 1.200000 3.040000 -6.702465 -9.173847 129.082504
8.840000 1.200000 3.080000 -0.863032 -19.607313 385.191528
8.840000 1.200000 3.120000 9.936470 -25.411539 744.479797
8.840000 1.200000 3.160000 22.434788 -24.729261 1114.856079
8.840000 1.200000 3.200000 32.720905 -17.892536 1390.800415
8.880000 0.800000 2.800000 -52.714607 1.465438 2780.977295
8.880000 0.800000 2.840000 -51.168430 -24.400757 3213.605225
8.880000 0.800000 2.880000 -31.509264 -45.144703 3030.877930
8.880000 0.800000 2.920000 -2.345875 -48.198097 2328.559814
8.880000 0.800000 2.960000 20.572414 -31.796040 1434.212402
8.880000 0.800000 3.000000 25.580208 -6.812445 700.756470
8.880000 0.800000 3.040000 13.472671 11.265881 308.432922
8.880000 0.800000 3.080000 -3.975815 13.837513 207.283859
8.880000 0.800000 3.120000 -14.056963 4.621129 218.953033
8.880000 0.800000 3.160000 -12.982618 -5.399561 197.703644
8.880000 0.800000 3.200000 -6.985270 -8.487246 120.827339
8.880000 0.840000 2.800000 -33.268204 -27.364183 1855.572021
8.880000 0.840000 2.840000 -16.386631 -38.247833 1731.418457
8.880000 0.840000 2.880000 4.686264 -34.143028 1187.707397
8.880000 0.840000 2.920000 16.142151 -16.459846 531.495605
8.880000 0.840000 2.960000 10.619680 2.130619 117.317146
8.880000 0.840000 3.000000 -5.732264 7.909904 95.425430
8.880000 0.840000 3.040000 -18.105831 -2.000553 331.823364
8.880000 0.840000 3.080000 -15.956646 -17.123693 547.835449
8.880000 0.840000 3.120000 -2.206383 -23.288837 547.238037
8.880000 0.840000 3.160000 9.991988 -15.613874 343.632904
8.880000 0.840000 3.200000 9.999884 -2.632540 106.927940
8.880000 0.880000 2.800000 -0.777618 -28.844912 832.633606
8.880000 0.880000 2.840000 13.096367 -16.373640 439.610931
8.880000 0.880000 2.880000 12.133648 5.394001 176.320663
8.880000 0.880000 2.920000 -8.081074 19.601482 449.521851
8.880000 0.880000 2.960000 -34.573765 11.154343 1319.764526
8.880000 0.880000 3.000000 -45.381264 -17.883179 2379.267090
8.880000 0.880000 3.040000 -28.516544 -46.977409 3020.070312
8.880000 0.880000 3.080000 5.876999 -53.322662 2877.845459
8.880000 0.880000 3.120000 32.741722 -31.754448 2080.365234
8.880000 0.880000 3.160000 33.350544 0.229101 1112.311279
8.880000 0.880000 3.200000 11.329451 17.706142 441.863922
8.880000 0.920000 2.800000 16.594341 -5.107540 301.459137
8.880000 0.920000 2.840000 8.531521 19.843685 466.558716
8.880000 0.920000 2.880000 -22.590324 33.512024 1633.378540
8.880000 0.920000 2.920000 -60.739933 16.224510 3952.574219
8.880000 0.920000 2.960000 -76.052605 -30.530060 6716.083008
8.880000 0.920000 3.000000 -49.524525 -78.739914 8652.652344
8.880000 0.920000 3.040000 7.077881 -93.352737 8764.830078
8.880000 0.920000 3.080000 56.790802 -61.802315 7044.721680
8.880000 0.920000 3.120000 66.522430 -6.479256 4467.214844
8.880000 0.920000 3.160000 34.436142 32.939922 2270.886230
8.880000 0.920000 3.200000 -9.486900 32.380112 1138.472900
8.880000 0.960000 2.800000 5.744944 19.377487 408.491364
8.880000 0.960000 2.840000 -26.565762 33.966759 1859.480469
8.880000 0.960000 2.880000 -70.346741 16.613724 5224.679688
8.880000 0.960000 2.920000 -93.094589 -37.345062 10061.255859
8.880000 0.960000 2.960000 -66.987312 -100.717239 14631.261719
8.880000 0.960000 3.000000 3.055325 -129.566162 16796.726562
8.880000 0.960000 3.040000 75.924026 -98.482437 15463.248047
8.880000 0.960000 3.080000 103.781403 -25.066986 11398.932617
8.880000 0.960000 3.120000 70.892365 41.119293 6716.523926
8.880000 0.960000 3.160000 6.759922 57.990025 3408.539551
8.880000 0.960000 3.200000 -39.295700 24.112858 2125.582031
8.880000 1.000000 2.800000 -20.019154 21.180742 849.390381
8.880000 1.000000 2.840000 -59.005592 9.847370 3578.630615
8.880000 1.000000 2.880000 -85.637001 -37.598591 8747.349609
8.880000 1.000000 2.920000 -68.273064 -103.136230 15298.292969
8.880000 1.000000 2.960000 -0.479519 -143.949829 20721.783203
8.880000 1.000000 3.000000 84.163406 -123.912674 22437.830078
8.880000 1.000000 3.040000 131.758392 -47.054996 19574.445312
8.880000 1.000000 3.080000 110.173698 39.431831 13693.113281
8.880000 1.000000 3.120000 36.943916 79.981323 7761.865234
8.880000 1.000000 3.160000 -33.936920 54.665070 4139.984375
8.880000 1.000000 3.200000 -56.055687 -6.805546 3188.555420
8.880000 1.040000 2.800000 -34.863197 -0.890061 1216.234741
8.880000 1.040000 2.840000 -57.780396 -32.993610 4427.152344
8.880000 1.040000 2.880000 -50.565613 -85.851685 9927.392578
8.880000 1.040000 2.920000 1.219105 -128.026123 16392.173828
8.880000 1.040000 2.960000 79.123756 -122.440407 21252.222656
8.880000 1.040000 3.000000 136.774536 -58.738304 22157.460938
8.880000 1.040000 3.040000 133.075165 30.566862 18643.333984
8.880000 1.040000 3.080000 67.479759 89.809143 12619.200195
8.880000 1.040000 3.120000 -15.751577 82.897186 7120.055664
8.880000 1.040000 3.160000 -61.352783 22.225311 4258.128418
8.880000 1.040000 3.200000 -46.411358 -42.903603 3994.733398
8.880000 1.080000 2.800000 -24.681356 -26.782150 1326.452881
8.880000 1.080000 2.840000 -22.836386 -58.944351 3995.937012
8.880000 1.080000 2.880000 8.363318 -90.256210 8216.128906
8.880000 1.080000 2.920000 64.172852 -93.551468 12870.031250
8.880000 1.080000 2.960000 115.459885 -52.157543 16051.394531
8.880000 1.080000 3.000000 125.619049 20.172815 16187.087891
8.880000 1.080000 3.040000 80.452751 82.084641 13210.533203
8.880000 1.080000 3.080000 4.676876 93.549759 8773.430664
8.880000 1.080000 3.120000 -53.293091 48.307846 5173.801758
8.880000 1.080000 3.160000 -58.279903 -19.663465 3783.198975
8.880000 1.080000 3.200000 -15.170644 -63.278671 4234.338867
8.880000 1.120000 2.800000 1.985325 -35.335899 1252.567261
8.880000 1.120000 2.840000 17.440535 -49.844055 2788.602051
8.880000 1.120000 2.880000 47.015808 -52.607777 4978.064453
8.880000 1.120000 2.920000 78.830093 -31.317007 7194.938477
8.880000 1.120000 2.960000 91.209213 12.912579 8485.854492
8.880000 1.120000 3.000000 68.162712 59.318314 8164.817383
8.880000 1.120000 3.040000 16.088425 78.364655 6399.856445
8.880000 1.120000 3.080000 -35.444885 54.542580 4231.232910
8.880000 1.120000 3.120000 -53.749092 1.568430 2891.424805
8.880000 1.120000 3.160000 -28.584841 -45.817123 2916.301758
8.880000 1.120000 3.200000 19.658566 -58.379936 3794.676270
8.880000 1.160000 2.800000 24.870087 -22.504433 1124.970703
8.880000 1.160000 2.840000 35.120506 -18.739281 1584.610596
8.880000 1.160000 2.880000 45.133797 -8.171787 2103.837646
8.880000 1.160000 2.920000 49.179718 10.343769 2525.638428
8.880000 1.160000 2.960000 39.854271 31.923306 2607.460449
8.880000 1.160000 3.000000 15.303757 44.596848 2223.083740
8.880000 1.160000 3.040000 -14.626343 36.697243 1560.617554
8.880000 1.160000 3.080000 -31.890902 8.152119 1083.486694
8.880000 1.160000 3.120000 -23.423878 -25.634941 1205.828247
8.880000 1.160000 3.160000 7.014757 -43.473141 1939.120728
8.880000 1.160000 3.200000 40.354691 -34.674431 2830.817383
8.880000 1.200000 2.800000 31.289669 -1.115793 980.288391
8.880000 1.200000 2.840000 27.113689 7.417900 790.177368
8.880000 1.200000 2.880000 20.288376 11.569081 545.461853
8.880000 1.200000 2.920000 14.023954 12.272141 347.276733
8.880000 1.200000 2.960000 8.433487 11.397909 201.036041
8.880000 1.200000 3.000000 2.489998 8.258356 74.400536
8.880000 1.200000 3.040000 -2.041960 0.616516 4.549692
8.880000 1.200000 3.080000 -0.399135 -10.760723 115.952469
8.880000 1.200000 3.120000 10.392788 -19.935024 505.415222
8.880000 1.200000 3.160000 26.855324 -19.647415 1107.229370
8.880000 1.200000 3.200000 40.325687 -7.871551 1688.122314
8.920000 0.800000 2.800000 -47.029182 -16.824551 2494.809326
8.920000 0.800000 2.840000 -35.830669 -41.885475 3038.229980
8.920000 0.800000 2.880000 -8.170250 -53.478664 2926.720459
8.920000 0.800000 2.920000 20.321701 -42.911171 2254.340088
8.920000 0.800000 2.960000 32.797279 -17.118202 1368.694336
8.920000 0.800000 3.000000 24.319443 6.573929 634.651855
8.920000 0.800000 3.040000 5.178585 14.257000 230.079803
8.920000 0.800000 3.080000 -8.463013 5.928041 106.764244
8.920000 0.800000 3.120000 -8.156487 -6.305979 106.293640
8.920000 0.800000 3.160000 1.086194 -10.178843 104.788651
8.920000 0.800000 3.200000 7.524325 -3.992142 72.552666
8.920000 0.840000 2.800000 -20.886681 -31.585058 1433.869385
8.920000 0.840000 2.840000 -2.258430 -34.610382 1202.979004
8.920000 0.840000 2.880000 12.506054 -21.989449 639.937256
8.920000 0.840000 2.920000 11.728695 -3.326870 148.630356
8.920000 0.840000 2.960000 -3.050680 5.903740 44.160793
8.920000 0.840000 3.000000 -17.887865 -1.758041 323.066406
8.920000 0.840000 3.040000 -18.748207 -18.818363 705.626099
8.920000 0.840000 3.080000 -4.115917 -29.500696 887.231873
8.920000 0.840000 3.120000 13.843218 -23.980812 766.713989
8.920000 0.840000 3.160000 20.590942 -6.968126 472.541687
8.920000 0.840000 3.200000 12.349386 7.235210 204.855606
8.920000 0.880000 2.800000 2.439371 -19.441366 383.917236
8.920000 0.880000 2.840000 5.672291 -2.022661 36.266045
8.920000 0.880000 2.880000 -10.968906 13.487530 302.230347
8.920000 0.880000 2.920000 -38.777466 7.987495 1567.491943
8.920000 0.880000 2.960000 -54.483833 -22.108021 3457.252686
8.920000 0.880000 3.000000 -40.337494 -58.092045 5001.799316
8.920000 0.880000 3.040000 -1.519600 -73.005615 5332.128906
8.920000 0.880000 3.080000 36.333298 -54.738991 4316.465820
8.920000 0.880000 3.120000 48.223869 -16.822742 2608.546143
8.920000 0.880000 3.160000 30.495831 13.304947 1107.017334
8.920000 0.880000 3.200000 2.345622 17.756294 320.787933
8.920000 0.920000 2.800000 2.407707 3.409577 17.422272
8.920000 0.920000 2.840000 -22.194717 20.044233 894.376770
8.920000 0.920000 2.880000 -62.059643 8.430412 3922.470947
8.920000 0.920000 2.920000 -85.361824 -39.191639 8822.625977
8.920000 0.920000 2.960000 -63.781036 -98.046501 13681.136719
8.920000 0.920000 3.000000 -0.816635 -126.652512 16041.525391
8.920000 0.920000 3.040000 65.984192 -101.338638 14623.433594
8.920000 0.920000 3.080000 93.871994 -38.077621 10261.856445
8.920000 0.920000 3.120000 69.852386 19.736853 5268.899414
8.920000 0.920000 3.160000 19.898668 37.211456 1780.649536
8.920000 0.920000 3.200000 -15.481684 14.956368 463.375488
8.920000 0.960000 2.800000 -17.508692 11.612307 441.399963
8.920000 0.960000 2.840000 -59.113441 4.080776 3511.051758
8.920000 0.960000 2.880000 -90.835381 -45.794556 10348.208008
8.920000 0.960000 2.920000 -73.961700 -118.652145 19548.664062
8.920000 0.960000 2.960000 -0.233860 -165.263763 27312.166016
8.920000 0.960000 3.000000 92.352829 -145.459137 29687.406250
8.920000 0.960000 3.040000 145.221588 -65.192184 25339.332031
8.920000 0.960000 3.080000 126.479660 24.278770 16586.562500
8.920000 0.960000 3.120000 57.179436 67.096176 7771.384766
8.920000 0.960000 3.160000 -7.923680 47.328358 2302.758057
8.920000 0.960000 3.200000 -27.158936 -2.656522 744.664917
8.920000 1.000000 2.800000 -34.173122 -4.357319 1186.788452
8.920000 1.000000 2.840000 -66.977921 -40.756721 6147.152344
8.920000 1.000000 2.880000 -62.287979 -109.182861 15800.689453
8.920000 1.000000 2.920000 2.471798 -166.666534 27783.843750
8.920000 1.000000 2.960000 102.945892 -162.595749 37035.234375
8.920000 1.000000 3.000000 178.085190 -84.255051 38813.246094
8.920000 1.000000 3.040000 177.191742 25.296013 32036.802734
8.920000 1.000000 3.080000 103.129944 97.824951 20205.505859
8.920000 1.000000 3.120000 11.081551 94.313644 9017.864258
8.920000 1.000000 3.160000 -37.412189 34.369450 2580.930908
8.920000 1.000000 3.200000 -23.418674 -25.363407 1191.736816
8.920000 1.040000 2.800000 -28.110687 -29.714556 1673.165527
8.920000 1.040000 2.840000 -33.623329 -76.926323 7048.187500
8.920000 1.040000 2.880000 8.193518 -129.570541 16855.658203
8.920000 1.040000 2.920000 92.775803 -141.071320 28508.466797
8.920000 1.040000 2.960000 173.571838 -83.123703 37036.734375
8.920000 1.040000 3.000000 193.778809 22.491404 38056.089844
8.920000 1.040000 3.040000 134.174347 113.411530 30864.929688
8.920000 1.040000 3.080000 33.121994 134.283051 19129.003906
8.920000 1.040000 3.120000 -42.501263 81.406616 8433.394531
8.920000 1.040000 3.160000 -50.927544 3.677948 2607.142090
8.920000 1.040000 3.200000 -5.592530 -40.750000 1691.838867
8.920000 1.080000 2.800000 -1.844952 -40.864086 1673.277344
8.920000 1.080000 2.840000 16.056389 -74.620514 5826.028809
8.920000 1.080000 2.880000 68.898445 -91.569031 13131.882812
8.920000 1.080000 2.920000 133.664093 -60.962448 21582.509766
8.920000 1.080000 2.960000 165.075912 17.386961 27552.363281
8.920000 1.080000 3.000000 131.566193 103.235893 27967.312500
8.920000 1.080000 3.040000 46.188641 142.666245 22487.048828
8.920000 1.080000 3.080000 -38.513847 111.468864 13908.624023
8.920000 1.080000 3.120000 -70.796432 36.121704 6316.912109
8.920000 1.080000 3.160000 -40.321011 -28.000269 2409.799072
8.920000 1.080000 3.200000 17.333059 -42.012207 2065.460449
8.920000 1.120000 2.800000 24.254719 -27.924610 1368.075195
8.920000 1.120000 2.840000 45.265488 -38.532421 3533.711914
8.920000 1.120000 2.880000 80.463364 -28.536942 7288.709961
8.920000 1.120000 2.920000 106.704834 13.025242 11555.579102
8.920000 1.120000 2.960000 96.563042 71.696548 14464.816406
8.920000 1.120000 3.000000 43.832172 112.140244 14496.693359
8.920000 1.120000 3.040000 -25.003086 104.697861 11586.795898
8.920000 1.120000 3.080000 -67.701584 51.793854 7266.107422
8.920000 1.120000 3.120000 -59.370770 -11.150208 3649.215332
8.920000 1.120000 3.160000 -12.344164 -43.286095 2026.064453
8.920000 1.120000 3.200000 35.488159 -30.252197 2174.604980
8.920000 1.160000 2.800000 32.280472 -1.855685 1045.472412
8.920000 1.160000 2.840000 39.447182 0.453756 1556.286133
8.920000 1.160000 2.880000 49.145065 12.524609 2572.103271
8.920000 1.160000 2.920000 49.401253 36.250072 3754.551758
8.920000 1.160000 2.960000 29.528168 60.197575 4495.660645
8.920000 1.160000 3.000000 -6.848236 65.560303 4345.051758
8.920000 1.160000 3.040000 -39.757179 42.469444 3384.287109
8.920000 1.160000 3.080000 -46.953529 1.684166 2207.470459
8.920000 1.160000 3.120000 -22.802416 -31.187805 1492.629395
8.920000 1.160000 3.160000 15.804274 -35.501534 1510.133911
8.920000 1.160000 3.200000 42.844807 -11.764133 1974.072266
8.920000 1.200000 2.800000 21.778479 18.653690 822.262329
8.920000 1.200000 2.840000 15.049478 17.065380 517.713989
8.920000 1.200000 2.880000 13.175186 14.697823 389.611511
8.920000 1.200000 2.920000 12.723293 16.227827 425.224548
8.920000 1.200000 2.960000 7.744019 19.875809 455.017578
8.920000 1.200000 3.000000 -2.426071 18.469452 347.006500
8.920000 1.200000 3.040000 -10.461162 7.424057 164.552521
8.920000 1.200000 3.080000 -7.262470 -8.638199 127.361954
8.920000 1.200000 3.120000 8.618828 -18.248512 407.292419
8.920000 1.200000 3.160000 28.106714 -12.817034 954.263733
8.920000 1.200000 3.200000 38.500946 5.645138 1514.190430
8.960000 0.800000 2.800000 -30.142389 -25.364155 1551.904053
8.960000 0.800000 2.840000 -13.005331 -42.660347 1989.043823
8.960000 0.800000 2.880000 13.210003 -42.889671 2014.028076
8.960000 0.800000 2.920000 32.187836 -24.607164 1641.569336
8.960000 0.800000 2.960000 32.597134 0.024307 1062.573730
8.960000 0.800000 3.000000 17.220238 14.797974 515.516602
8.960000 0.800000 3.040000 0.294415 12.595869 158.742599
8.960000 0.800000 3.080000 -4.886593 0.646735 24.297056
8.960000 0.800000 3.120000 2.865940 -6.863279 55.318214
8.960000 0.800000 3.160000 12.795603 -1.983398 167.661316
8.960000 0.800000 3.200000 13.262560 10.324851 282.498047
8.960000 0.840000 2.800000 -10.122587 -25.292408 742.172668
8.960000 0.840000 2.840000 2.932098 -22.174915 500.324066
8.960000 0.840000 2.880000 7.178192 -10.302269 157.663193
8.960000 0.840000 2.920000 -0.623318 -1.461876 2.525606
8.960000 0.840000 2.960000 -12.067715 -4.797211 168.642975
8.960000 0.840000 3.000000 -14.618011 -18.071087 540.250427
8.960000 0.840000 3.040000 -3.124485 -29.210478 863.014404
8.960000 0.840000 3.080000 15.111835 -26.878193 950.804810
8.960000 0.840000 3.120000 26.371376 -10.568220 807.136719
8.960000 0.840000 3.160000 22.286510 8.831076 574.676453
8.960000 0.840000 3.200000 6.784210 18.445074 386.246277
8.960000 0.880000 2.800000 -3.688786 -11.223656 139.577576
8.960000 0.880000 2.840000 -12.307701 -0.024673 151.480118
8.960000 0.880000 2.880000 -33.671906 -2.964779 1142.587158
8.960000 0.880000 2.920000 -48.649460 -28.445229 3175.901123
8.960000 0.880000 2.960000 -37.670105 -63.483429 5449.182617
8.960000 0.880000 3.000000 -0.176437 -82.363571 6783.789062
8.960000 0.880000 3.040000 42.173851 -68.492546 6469.862793
8.960000 0.880000 3.080000 62.460953 -29.350601 4762.828125
8.960000 0.880000 3.120000 50.449844 9.428156 2634.076904
8.960000 0.880000 3.160000 19.746117 25.330471 1031.541870
8.960000 0.880000 3.200000 -5.521691 16.160954 291.665497
8.960000 0.920000 2.800000 -14.676220 -3.152321 225.328568
8.960000 0.920000 2.840000 -44.269100 -6.980824 2008.485107
8.960000 0.920000 2.880000 -68.397301 -44.459000 6654.793457
8.960000 0.920000 2.920000 -54.688854 -101.111343 13214.375000
8.960000 0.920000 2.960000 4.160011 -137.249054 18854.609375
8.960000 0.920000 3.000000 77.723167 -120.782990 20629.421875
8.960000 0.920000 3.040000 119.708664 -56.972561 17576.037109
8.960000 0.920000 3.080000 105.940918 13.683613 11410.719727
8.960000 0.920000 3.120000 53.589886 48.588676 5232.735352
8.960000 0.920000 3.160000 4.339956 36.857849 1377.336304
8.960000 0.920000 3.200000 -11.871718 3.509960 153.257523
8.960000 0.960000 2.800000 -27.227760 -13.640837 927.423401
8.960000 0.960000 2.840000 -57.270447 -45.510998 5351.155273
8.960000 0.960000 2.880000 -52.594917 -109.250587 14701.916016
8.960000 0.960000 2.920000 9.601524 -162.779297 26589.289062
8.960000 0.960000 2.960000 105.085159 -157.171585 35745.796875
8.960000 0.960000 3.000000 175.008896 -81.887596 37333.691406
8.960000 0.960000 3.040000 173.155472 20.482679 30402.359375
8.960000 0.960000 3.080000 105.405518 86.765007 18638.490234
8.960000 0.960000 3.120000 24.147858 84.556961 7732.999023
8.960000 0.960000 3.160000 -17.178669 35.390961 1547.626831
8.960000 0.960000 3.200000 -6.749042 -10.018050 145.910889
8.960000 1.000000 2.800000 -22.631672 -34.418114 1696.799072
8.960000 1.000000 2.840000 -30.249989 -84.732895 8094.725586
8.960000 1.000000 2.880000 15.430054 -142.932724 20667.849609
8.960000 1.000000 2.920000 109.338051 -154.966568 35969.445312
8.960000 1.000000 2.960000 197.797211 -89.681412 47166.492188
8.960000 1.000000 3.000000 218.233765 26.098724 48307.121094
8.960000 1.000000 3.040000 153.253448 122.870895 38583.875000
8.960000 1.000000 3.080000 48.039524 144.022583 23050.300781
8.960000 1.000000 3.120000 -27.023104 91.492126 9101.057617
8.960000 1.000000 3.160000 -34.397934 19.530451 1564.656372
8.960000 1.000000 3.200000 5.181363 -15.840584 277.770630
8.960000 1.040000 2.800000 0.991928 -44.688404 1998.037354
8.960000 1.040000 2.840000 21.110092 -89.612915 8476.110352
8.960000 1.040000 2.880000 89.413063 -113.545525 20887.281250
8.960000 1.040000 2.920000 173.919189 -74.124802 35742.371094
8.960000 1.040000 2.960000 213.731354 27.064386 46413.570312
8.960000 1.040000 3.000000 170.161316 135.214951 47237.953125
8.960000 1.040000 3.040000 64.526779 182.715363 37548.609375
8.960000 1.040000 3.080000 -35.515484 145.085022 22311.013672
8.960000 1.040000 3.120000 -71.070534 60.611961 8724.831055
8.960000 1.040000 3.160000 -38.296303 -4.736404 1489.040283
8.960000 1.040000 3.200000 15.834332 -13.521322 433.552216
8.960000 1.080000 2.800000 26.489511 -32.115948 1733.128296
8.960000 1.080000 2.840000 58.868221 -54.536797 6439.729492
8.960000 1.080000 2.880000 117.283478 -41.912628 15512.082031
8.960000 1.080000 2.920000 160.710022 23.475079 26378.791016
8.960000 1.080000 2.960000 144.991226 114.866104 34216.675781
8.960000 1.080000 3.000000 64.755478 175.250061 34905.855469
8.960000 1.080000 3.040000 -35.171761 163.341766 27917.585938
8.960000 1.080000 3.080000 -93.406754 89.862427 16800.078125
8.960000 1.080000 3.120000 -81.838776 9.256109 6783.260742
8.960000 1.080000 3.160000 -25.964090 -26.344421 1368.162598
8.960000 1.080000 3.200000 21.899939 -8.100594 545.226929
8.960000 1.120000 2.800000 34.559669 -4.628982 1215.798218
8.960000 1.120000 2.840000 58.542801 -7.235111 3479.606445
8.960000 1.120000 2.880000 87.936844 19.364616 8107.876953
8.960000 1.120000 2.920000 91.256775 73.706345 13760.423828
8.960000 1.120000 2.960000 48.944347 124.622597 17926.341797
8.960000 1.120000 3.000000 -23.746365 133.743027 18451.087891
8.960000 1.120000 3.040000 -83.902878 89.257103 15006.523438
8.960000 1.120000 3.080000 -94.809128 19.009602 9350.135742
8.960000 1.120000 3.120000 -56.279179 -31.145681 4137.399414
8.960000 1.120000 3.160000 -3.246159 -34.599545 1207.666138
8.960000 1.120000 3.200000 25.414829 -2.761454 653.539185
8.960000 1.160000 2.800000 21.644958 18.246603 801.442749
8.960000 1.160000 2.840000 29.388409 19.299763 1236.159424
8.960000 1.160000 2.880000 36.169235 35.254707 2551.107910
8.960000 1.160000 2.920000 25.506599 60.381317 4296.490234
8.960000 1.160000 2.960000 -7.364960 74.671387 5630.058594
8.960000 1.160000 3.000000 -46.725441 60.634655 5859.828125
8.960000 1.160000 3.040000 -66.792694 20.894482 4897.843750
8.960000 1.160000 3.080000 -53.348991 -21.076836 3290.347900
8.960000 1.160000 3.120000 -16.527481 -39.260872 1814.573608
8.960000 1.160000 3.160000 17.486490 -25.978750 980.672791
8.960000 1.160000 3.200000 28.009277 3.660263 797.917114
8.960000 1.200000 2.800000 0.911867 24.224651 587.665222
8.960000 1.200000 2.840000 0.533844 16.553492 274.303101
8.960000 1.200000 2.880000 4.318256 15.359474 254.560791
8.960000 1.200000 2.920000 3.671757 20.414532 430.234924
8.960000 1.200000 2.960000 -5.453915 23.524338 583.139648
8.960000 1.200000 3.000000 -17.403866 16.485168 574.655273
8.960000 1.200000 3.040000 -21.223717 -0.094948 450.455170
8.960000 1.200000 3.080000 -10.828312 -15.943544 371.448944
8.960000 1.200000 3.120000 8.742783 -19.457050 455.013062
8.960000 1.200000 3.160000 24.913427 -7.475353 676.559753
8.960000 1.200000 3.200000 27.439009 12.285635 903.835999
9.000000 0.800000 2.800000 -14.631763 -18.507084 556.600647
9.000000 0.800000 2.840000 0.256598 -27.426126 752.258301
9.000000 0.800000 2.880000 18.206455 -23.072332 863.807495
9.000000 0.800000 2.920000 28.035892 -7.238049 838.400635
9.000000 0.800000 2.960000 23.930372 9.857140 669.825928
9.000000 0.800000 3.000000 10.591141 17.249905 409.731476
9.000000 0.800000 3.040000 -0.373047 12.437815 154.838394
9.000000 0.800000 3.080000 -0.618626 3.626791 13.536311
9.000000 0.800000 3.120000 7.257710 2.056561 56.903805
9.000000 0.800000 3.160000 12.264694 11.140162 274.525940
9.000000 0.800000 3.200000 5.860915 22.962864 561.643433
9.000000 0.840000 2.800000 -9.626408 -14.338898 298.271729
9.000000 0.840000 2.840000 -4.627333 -12.812763 185.579102
9.000000 0.840000 2.880000 -4.725658 -10.521259 133.028748
9.000000 0.840000 2.920000 -6.963335 -12.560707 206.259399
9.000000 0.840000 2.960000 -5.390442 -18.782955 381.856262
9.000000 0.840000 3.000000 3.202316 -23.641224 569.162292
9.000000 0.840000 3.040000 15.830582 -20.691841 678.759583
9.000000 0.840000 3.080000 24.858517 -8.123688 683.940186
9.000000 0.840000 3.120000 23.422760 8.981178 629.287231
9.000000 0.840000 3.160000 10.797197 21.604795 583.346680
9.000000 0.840000 3.200000 -6.537638 23.067911 574.869263
9.000000 0.880000 2.800000 -14.830865 -12.714839 381.621704
9.000000 0.880000 2.840000 -25.739307 -15.661579 907.796997
9.000000 0.880000 2.880000 -34.229431 -34.513885 2362.862305
9.000000 0.880000 2.920000 -23.725643 -61.948517 4400.524902
9.000000 0.880000 2.960000 9.025177 -77.638016 6109.115234
9.000000 0.880000 3.000000 47.961540 -65.665642 6612.286133
9.000000 0.880000 3.040000 69.425751 -29.304497 5678.688477
9.000000 0.880000 3.080000 61.165558 10.597958 3853.542236
9.000000 0.880000 3.120000 31.510662 32.124001 2024.873291
9.000000 0.880000 3.160000 1.208361 28.610298 820.009277
9.000000 0.880000 3.200000 -13.732137 11.001344 309.601135
9.000000 0.920000 2.800000 -20.345133 -22.941383 940.231506
9.000000 0.920000 2.840000 -36.819927 -44.523575 3338.055664
9.000000 0.920000 2.880000 -29.466761 -86.772247 8397.712891
9.000000 0.920000 2.920000 16.737732 -119.957413 14669.932617
9.000000 0.920000 2.960000 83.400070 -110.919456 19258.697266
9.000000 0.920000 3.000000 129.356140 -54.604492 19714.662109
9.000000 0.920000 3.040000 124.410599 17.750652 15793.083008
9.000000 0.920000 3.080000 75.031487 63.028454 9602.310547
9.000000 0.920000 3.120000 17.994125 61.082115 4054.813477
9.000000 0.920000 3.160000 -11.569840 28.096537 923.276550
9.000000 0.920000 3.200000 -7.442190 -2.160697 60.054802
9.000000 0.960000 2.800000 -12.431264 -39.455376 1711.262939
9.000000 0.960000 2.840000 -15.745176 -78.770279 6452.667480
9.000000 0.960000 2.880000 24.607254 -123.645309 15893.678711
9.000000 0.960000 2.920000 103.225502 -128.719818 27224.294922
9.000000 0.960000 2.960000 174.011444 -69.806168 35152.882812
9.000000 0.960000 3.000000 185.958252 27.870455 35357.234375
9.000000 0.960000 3.040000 128.229050 105.743034 27624.277344
9.000000 0.960000 3.080000 41.232006 119.783173 16048.086914
9.000000 0.960000 3.120000 -17.838171 75.937042 6084.634766
9.000000 0.960000 3.160000 -22.553816 20.384762 924.213135
9.000000 0.960000 3.200000 6.193482 -4.156712 55.637470
9.000000 1.000000 2.800000 10.526533 -45.858856 2213.842529
9.000000 1.000000 2.840000 30.644756 -86.423660 8408.150391
9.000000 1.000000 2.880000 96.797577 -106.185989 20645.234375
9.000000 1.000000 2.920000 176.481995 -64.177193 35264.605469
9.000000 1.000000 2.960000 210.166443 35.484318 45429.070312
9.000000 1.000000 3.000000 163.315613 137.401917 45551.277344
9.000000 1.000000 3.040000 60.961601 177.897522 35363.847656
9.000000 1.000000 3.080000 -30.561956 138.881180 20222.015625
9.000000 1.000000 3.120000 -59.318863 61.607323 7314.189453
9.000000 1.000000 3.160000 -28.661781 7.583235 879.003113
9.000000 1.000000 3.200000 13.805818 5.035988 215.961777
9.000000 1.040000 2.800000 33.944691 -31.477764 2143.091797
9.000000 1.040000 2.840000 70.112793 -55.477154 7993.518555
9.000000 1.040000 2.880000 135.179901 -39.031181 19797.039062
9.000000 1.040000 2.920000 180.878326 36.603264 34056.769531
9.000000 1.040000 2.960000 158.460175 137.962372 44143.242188
9.000000 1.040000 3.000000 66.506882 200.258575 44526.660156
9.000000 1.040000 3.040000 -41.102322 181.888977 34773.003906
9.000000 1.040000 3.080000 -98.375435 101.508148 19981.630859
9.000000 1.040000 3.120000 -82.232101 21.322351 7216.761230
9.000000 1.040000 3.160000 -27.634769 -7.664200 822.420410
9.000000 1.040000 3.200000 9.673483 13.887482 286.438416
9.000000 1.080000 2.800000 39.954727 -3.250889 1606.948486
9.000000 1.080000 2.840000 74.430969 -6.478264 5581.937012
9.000000 1.080000 2.880000 114.182983 32.085957 14067.262695
9.000000 1.080000 2.920000 115.062935 106.540085 24590.269531
9.000000 1.080000 2.960000 54.511936 171.285492 32310.271484
9.000000 1.080000 3.000000 -41.035835 177.131805 33059.617188
9.000000 1.080000 3.040000 -113.316742 115.916222 26277.253906
9.000000 1.080000 3.080000 -120.737610 30.118631 15484.702148
9.000000 1.080000 3.120000 -72.802956 -23.341578 5845.099609
9.000000 1.080000 3.160000 -18.056557 -20.972252 765.874634
9.000000 1.080000 3.200000 1.409443 12.734797 164.161575
9.000000 1.120000 2.800000 24.371799 19.798578 985.968323
9.000000 1.120000 2.840000 44.900200 26.587950 2722.947021
9.000000 1.120000 2.880000 56.201702 61.950790 6996.531738
9.000000 1.120000 2.920000 31.202705 107.652328 12562.631836
9.000000 1.120000 2.960000 -29.637814 126.550316 16893.382812
9.000000 1.120000 3.000000 -92.549728 95.685753 17721.214844
9.000000 1.120000 3.040000 -116.966728 29.721764 14564.598633
9.000000 1.120000 3.080000 -90.475334 -29.389380 9049.521484
9.000000 1.120000 3.120000 -38.870724 -47.742718 3790.300293
9.000000 1.120000 3.160000 -2.016602 -26.442278 703.260742
9.000000 1.120000 3.200000 0.481224 4.370199 19.330214
9.000000 1.160000 2.800000 0.262860 24.056194 578.769592
9.000000 1.160000 2.840000 8.558737 27.229990 814.724304
9.000000 1.160000 2.880000 7.286625 44.371803 2021.951782
9.000000 1.160000 2.920000 -14.760345 59.819916 3796.290039
9.000000 1.160000 2.960000 -49.312706 53.689251 5314.278320
9.000000 1.160000 3.000000 -73.297737 21.361473 5828.870605
9.000000 1.160000 3.040000 -68.605865 -20.088722 5110.321289
9.000000 1.160000 3.080000 -38.317307 -45.527573 3540.975586
9.000000 1.160000 3.120000 -3.899782 -42.671211 1836.040527
9.000000 1.160000 3.160000 13.416058 -20.732620 609.832153
9.000000 1.160000 3.200000 8.970888 0.075448 80.482529
9.000000 1.200000 2.800000 -15.274671 12.779435 396.629517
9.000000 1.200000 2.840000 -9.327518 7.873656 148.997070
9.000000 1.200000 2.880000 -6.070526 10.460173 146.266510
9.000000 1.200000 2.920000 -10.508448 13.791103 300.622009
9.000000 1.200000 2.960000 -19.394037 10.041729 476.965027
9.000000 1.200000 3.000000 -24.147385 -2.261124 588.208862
9.000000 1.200000 3.040000 -18.529209 -16.666183 621.093262
9.000000 1.200000 3.080000 -3.977062 -24.156424 599.349792
9.000000 1.200000 3.120000 11.656498 -20.174639 542.890015
9.000000 1.200000 3.160000 20.024897 -7.502563 457.284943
9.000000 1.200000 3.200000 17.601746 6.320007 349.763916
9.040000 0.800000 2.800000 -12.673100 -4.035319 176.891281
9.040000 0.800000 2.840000 -4.765526 -11.340221 151.310852
9.040000 0.800000 2.880000 7.388802 -11.407684 184.729660
9.040000 0.800000 2.920000 16.646732 -2.250702 282.179382
9.040000 0.800000 2.960000 16.352261 10.795411 383.937317
9.040000 0.800000 3.000000 7.247421 18.584400 397.905060
9.040000 0.800000 3.040000 -2.278233 16.798269 287.372192
9.040000 0.800000 3.080000 -4.361702 10.623718 131.887833
9.040000 0.800000 3.120000 -0.075824 9.433935 89.004883
9.040000 0.800000 3.160000 1.410503 16.357750 269.565521
9.040000 0.800000 3.200000 -7.132102 24.062481 629.869873
9.040000 0.840000 2.800000 -18.806789 -9.740992 448.582214
9.040000 0.840000 2.840000 -16.263018 -16.275660 529.382812
9.040000 0.840000 2.880000 -9.452589 -22.788385 608.661926
9.040000 0.840000 2.920000 1.594875 -24.968645 625.976868
9.040000 0.840000 2.960000 12.754990 -20.133064 568.030029
9.040000 0.840000 3.000000 19.321777 -9.848633 470.326660
9.040000 0.840000 3.040000 19.507790 1.875908 384.072906
9.040000 0.840000 3.080000 14.316583 11.887283 346.272034
9.040000 0.840000 3.120000 5.159627 18.670719 375.217529
9.040000 0.840000 3.160000 -6.904050 20.702669 476.266418
9.040000 0.840000 3.200000 -19.468658 15.993299 634.814270
9.040000 0.880000 2.800000 -20.130041 -24.844585 1022.471985
9.040000 0.880000 2.840000 -20.791945 -38.275795 1897.341431
9.040000 0.880000 2.880000 -8.208099 -56.435226 3252.307617
9.040000 0.880000 2.920000 19.975632 -64.359421 4541.161133
9.040000 0.880000 2.960000 51.124466 -50.186363 5132.381836
9.040000 0.880000 3.000000 66.638863 -17.109093 4733.458984
9.040000 0.880000 3.040000 57.054779 17.792736 3571.829346
9.040000 0.880000 3.080000 29.341587 36.648491 2204.040527
9.040000 0.880000 3.120000 0.446098 33.683739 1134.793213
9.040000 0.880000 3.160000 -16.075821 17.071384 549.864136
9.040000 0.880000 3.200000 -18.313894 -0.114130 335.411743
9.040000 0.920000 2.800000 -6.837244 -41.559830 1773.967407
9.040000 0.920000 2.840000 -1.710089 -63.972115 4095.355713
9.040000 0.920000 2.880000 29.008078 -85.318527 8120.719727
9.040000 0.920000 2.920000 78.356659 -79.125244 12400.570312
9.040000 0.920000 2.960000 116.616295 -34.995495 14824.044922
9.040000 0.920000 3.000000 115.332214 27.385124 14051.464844
9.040000 0.920000 3.040000 72.932800 71.784134 10472.155273
9.040000 0.920000 3.080000 17.202969 74.883636 5903.500977
9.040000 0.920000 3.120000 -18.039789 44.287754 2286.839111
9.040000 0.920000 3.160000 -20.036613 9.000031 482.466431
9.040000 0.920000 3.200000 -3.300381 -7.284132 63.951092
9.040000 0.960000 2.800000 19.302853 -44.901066 2388.705811
9.040000 0.960000 2.840000 37.705238 -68.920532 6171.724609
9.040000 0.960000 2.880000 86.523331 -75.873787 13243.118164
9.040000 0.960000 2.920000 140.546509 -38.126106 21206.919922
9.040000 0.960000 2.960000 157.173767 37.758850 26129.324219
9.040000 0.960000 3.000000 115.057434 109.347290 25195.042969
9.040000 0.960000 3.040000 36.851105 132.038834 18792.257812
9.040000 0.960000 3.080000 -27.792654 97.415787 10262.267578
9.040000 0.960000 3.120000 -44.101910 39.360928 3494.260986
9.040000 0.960000 3.160000 -19.267311 2.274401 376.402191
9.040000 0.960000 3.200000 9.939810 2.592201 105.519325
9.040000 1.000000 2.800000 42.848610 -26.810509 2554.806885
9.040000 1.000000 2.840000 72.641708 -41.183640 6972.910156
9.040000 1.000000 2.880000 123.867035 -22.072182 15830.223633
9.040000 1.000000 2.920000 155.862793 44.417995 26266.169922
9.040000 1.000000 2.960000 129.564468 127.883492 33141.140625
9.040000 1.000000 3.000000 47.763649 173.777313 32479.921875
9.040000 1.000000 3.040000 -41.156986 150.808929 24437.230469
9.040000 1.000000 3.080000 -82.950027 79.983551 13278.076172
9.040000 1.000000 3.120000 -63.711750 15.885515 4311.536621
9.040000 1.000000 3.160000 -18.179680 -2.056694 334.730743
9.040000 1.000000 3.200000 6.643181 18.863058 399.946838
9.040000 1.040000 2.800000 46.680931 4.041902 2195.446289
9.040000 1.040000 2.840000 77.475082 4.666758 6024.166992
9.040000 1.040000 2.880000 111.337128 44.472710 14373.778320
9.040000 1.040000 2.920000 105.970558 115.895828 24661.601562
9.040000 1.040000 2.960000 42.402988 173.391632 31862.671875
9.040000 1.040000 3.000000 -49.862286 171.283188 31824.177734
9.040000 1.040000 3.040000 -113.508743 107.061035 24346.300781
9.040000 1.040000 3.080000 -112.828377 26.391718 13426.764648
9.040000 1.040000 3.120000 -64.235603 -16.943565 4413.297363
9.040000 1.040000 3.160000 -18.051723 -7.636451 384.180084
9.040000 1.040000 3.200000 -10.423853 22.975689 636.538940
9.040000 1.080000 2.800000 27.561684 27.739559 1529.129639
9.040000 1.080000 2.840000 49.232216 38.582039 3912.384766
9.040000 1.080000 2.880000 57.599922 80.597122 9813.646484
9.040000 1.080000 2.920000 23.494751 130.126160 17484.822266
9.040000 1.080000 2.960000 -48.004837 144.643219 23226.125000
9.040000 1.080000 3.000000 -115.084930 102.655571 23782.707031
9.040000 1.080000 3.040000 -133.983749 27.267151 18695.142578
9.040000 1.080000 3.080000 -98.327393 -32.011642 10693.021484
9.040000 1.080000 3.120000 -44.018677 -42.797459 3769.266357
9.040000 1.080000 3.160000 -14.817877 -16.254154 483.767029
9.040000 1.080000 3.200000 -23.149193 8.535488 608.739685
9.040000 1.120000 2.800000 -0.194914 29.885265 893.167053
9.040000 1.120000 2.840000 10.236225 41.204018 1802.551392
9.040000 1.120000 2.880000 1.665878 68.819588 4738.911133
9.040000 1.120000 2.920000 -36.659889 86.682556 8857.813477
9.040000 1.120000 2.960000 -86.134270 69.214798 12209.800781
9.040000 1.120000 3.000000 -112.413582 17.958630 12959.326172
9.040000 1.120000 3.040000 -96.476181 -36.599529 10647.178711
9.040000 1.120000 3.080000 -52.473591 -61.355976 6518.033691
9.040000 1.120000 3.120000 -14.317471 -49.441505 2649.452393
9.040000 1.120000 3.160000 -4.659213 -23.481422 573.085449
9.040000 1.120000 3.200000 -17.041641 -11.429523 421.051514
9.040000 1.160000 2.800000 -17.289768 13.761236 488.307739
9.040000 1.160000 2.840000 -12.766998 19.419304 540.105591
9.040000 1.160000 2.880000 -22.464483 29.439007 1371.308105
9.040000 1.160000 2.920000 -44.692585 26.946419 2723.536621
9.040000 1.160000 2.960000 -62.827789 4.215160 3965.098633
9.040000 1.160000 3.000000 -60.500618 -28.344490 4463.734863
9.040000 1.160000 3.040000 -37.149288 -50.920536 3972.970459
9.040000 1.160000 3.080000 -8.386440 -51.989029 2773.191406
9.040000 1.160000 3.120000 8.615723 -37.361370 1470.102661
9.040000 1.160000 3.160000 9.557449 -22.596834 601.961731
9.040000 1.160000 3.200000 3.593613 -17.890018 332.966827
9.040000 1.200000 2.800000 -16.321119 -4.031539 282.632233
9.040000 1.200000 2.840000 -11.846152 -3.438271 152.153030
9.040000 1.200000 2.880000 -12.912771 -2.598249 173.490555
9.040000 1.200000 2.920000 -15.974335 -6.552711 298.117401
9.040000 1.200000 2.960000 -15.388218 -14.589809 449.659790
9.040000 1.200000 3.000000 -9.145275 -21.899658 563.231079
9.040000 1.200000 3.040000 0.134899 -24.720001 611.096619
9.040000 1.200000 3.080000 8.800560 -23.020626 607.399048
9.040000 1.200000 3.120000 15.291494 -18.642704 581.380249
9.040000 1.200000 3.160000 19.474960 -12.574670 537.396362
9.040000 1.200000 3.200000 20.403954 -5.288680 444.291443
9.080000 0.800000 2.800000 -24.371429 3.323247 605.010498
9.080000 0.800000 2.840000 -19.838219 -9.805132 489.695557
9.080000 0.800000 2.880000 -4.480026 -16.211473 282.882507
9.080000 0.800000 2.920000 11.510069 -7.980243 196.165955
9.080000 0.800000 2.960000 15.118187 9.707702 322.799042
9.080000 0.800000 3.000000 4.018538 22.554241 524.842407
9.080000 0.800000 3.040000 -10.746140 21.415808 574.116333
9.080000 0.800000 3.080000 -16.399578 11.318619 397.057312
9.080000 0.800000 3.120000 -11.785719 5.130747 165.227737
9.080000 0.800000 3.160000 -7.628964 8.865980 136.806702
9.080000 0.800000 3.200000 -13.518293 15.056705 409.448639
9.080000 0.840000 2.800000 -27.716579 -16.832224 1051.532593
9.080000 0.840000 2.840000 -18.914196 -30.050093 1260.754883
9.080000 0.840000 2.880000 0.249176 -35.050560 1228.603882
9.080000 0.840000 2.920000 19.355047 -24.691727 984.299255
9.080000 0.840000 2.960000 25.925266 -4.089302 688.841858
9.080000 0.840000 3.000000 17.167290 13.567993 478.806274
9.080000 0.840000 3.040000 1.794736 19.218748 372.581360
9.080000 0.840000 3.080000 -9.495842 14.970578 314.289215
9.080000 0.840000 3.120000 -14.010828 9.127129 279.607788
9.080000 0.840000 3.160000 -16.849007 5.891949 318.604095
9.080000 0.840000 3.200000 -22.107494 1.700335 491.632446
9.080000 0.880000 2.800000 -12.475163 -38.113438 1608.263916
9.080000 0.880000 2.840000 1.113800 -49.546799 2456.125732
9.080000 0.880000 2.880000 25.782152 -50.837101 3249.130371
9.080000 0.880000 2.920000 49.702862 -33.242283 3575.423828
9.080000 0.880000 2.960000 57.138008 -1.885166 3268.305908
9.080000 0.880000 3.000000 42.251640 26.698151 2497.992188
9.080000 0.880000 3.040000 14.336933 37.664612 1624.170532
9.080000 0.880000 3.080000 -10.249392 29.041088 948.434875
9.080000 0.880000 3.120000 -21.077909 10.986092 564.972473
9.080000 0.880000 3.160000 -19.440060 -4.562639 398.733582
9.080000 0.880000 3.200000 -13.247073 -13.062681 346.118591
9.080000 0.920000 2.800000 17.885553 -43.053173 2173.468750
9.080000 0.920000 2.840000 35.591599 -49.960445 3762.808105
9.080000 0.920000 2.880000 64.643448 -42.374382 5974.363770
9.080000 0.920000 2.920000 87.836823 -10.700165 7829.801270
9.080000 0.920000 2.960000 84.423943 34.623360 8326.178711
9.080000 0.920000 3.000000 50.068958 68.058304 7138.833008
9.080000 0.920000 3.040000 3.450958 69.562973 4850.916504
9.080000 0.920000 3.080000 -27.994757 41.691536 2521.890625
9.080000 0.920000 3.120000 -30.286341 6.856881 964.279297
9.080000 0.920000 3.160000 -12.415209 -12.483732 309.980957
9.080000 0.920000 3.200000 4.862865 -11.705282 160.661087
9.080000 0.960000 2.800000 45.154015 -23.070412 2571.128906
9.080000 0.960000 2.840000 64.123489 -23.157879 4648.109375
9.080000 0.960000 2.880000 91.054321 -2.842871 8298.971680
9.080000 0.960000 2.920000 101.374496 42.788380 12107.633789
9.080000 0.960000 2.960000 74.413445 92.111786 14021.941406
9.080000 0.960000 3.000000 16.968903 111.899651 12809.475586
9.080000 0.960000 3.040000 -37.658478 87.112320 9006.716797
9.080000 0.960000 3.080000 -56.828804 36.284042 4546.044922
9.080000 0.960000 3.120000 -36.676819 -3.939919 1360.712036
9.080000 0.960000 3.160000 -3.635259 -10.944986 133.007828
9.080000 0.960000 3.200000 11.794956 6.081866 176.110077
9.080000 1.000000 2.800000 49.924538 11.706986 2629.512939
9.080000 1.000000 2.840000 65.909630 18.278870 4678.196289
9.080000 1.000000 2.880000 81.685532 48.705917 9044.791992
9.080000 1.000000 2.920000 69.513794 96.854820 14213.023438
9.080000 1.000000 2.960000 18.611181 130.669830 17420.982422
9.080000 1.000000 3.000000 -47.407806 119.812965 16602.646484
9.080000 1.000000 3.040000 -87.003647 66.597527 12004.865234
9.080000 1.000000 3.080000 -77.520027 7.545862 6066.294434
9.080000 1.000000 3.120000 -36.068176 -18.371801 1638.436401
9.080000 1.000000 3.160000 -2.736572 -4.345418 26.371487
9.080000 1.000000 3.200000 -2.498878 21.122421 452.401062
9.080000 1.040000 2.800000 28.258444 38.687790 2295.284668
9.080000 1.040000 2.840000 38.122993 48.759972 3830.897461
9.080000 1.040000 2.880000 37.871513 79.892982 7817.140137
9.080000 1.040000 2.920000 5.642619 113.883469 13001.283203
9.080000 1.040000 2.960000 -52.913712 117.654594 16642.464844
9.080000 1.040000 3.000000 -102.807709 76.433098 16411.443359
9.080000 1.040000 3.040000 -109.730301 12.706841 12202.203125
9.080000 1.040000 3.080000 -73.014603 -31.160461 6302.106445
9.080000 1.040000 3.120000 -27.259144 -31.347675 1725.737671
9.080000 1.040000 3.160000 -9.567446 -3.602478 104.513870
9.080000 1.040000 3.200000 -25.044371 14.533837 838.452942
9.080000 1.080000 2.800000 -4.057214 40.858624 1685.888062
9.080000 1.080000 2.840000 -0.397060 50.243050 2524.521729
9.080000 1.080000 2.880000 -13.100279 71.682495 5309.997070
9.080000 1.080000 2.920000 -50.684223 81.683792 9241.131836
9.080000 1.080000 2.960000 -94.220482 58.230923 12268.339844
9.080000 1.080000 3.000000 -111.559906 6.307083 12485.391602
9.080000 1.080000 3.040000 -88.297546 -42.302708 9585.975586
9.080000 1.080000 3.080000 -43.500732 -57.256252 5170.591797
9.080000 1.080000 3.120000 -12.545562 -38.078430 1607.357910
9.080000 1.080000 3.160000 -13.599740 -13.352736 363.248474
9.080000 1.080000 3.200000 -31.877274 -11.349956 1144.982056
9.080000 1.120000 2.800000 -24.447060 20.682110 1025.408447
9.080000 1.120000 2.840000 -24.651772 26.800722 1325.988525
9.080000 1.120000 2.880000 -40.174232 34.095425 2776.466797
9.080000 1.120000 2.920000 -66.235489 24.329306 4979.055176
9.080000 1.120000 2.960000 -82.107903 -7.735786 6801.549805
9.080000 1.120000 3.000000 -71.021408 -45.607605 7124.094238
9.080000 1.120000 3.040000 -38.123718 -64.992325 5677.420410
9.080000 1.120000 3.080000 -6.889860 -56.947105 3290.443115
9.080000 1.120000 3.120000 3.154679 -36.188568 1319.564453
9.080000 1.120000 3.160000 -5.446804 -25.718037 691.085083
9.080000 1.120000 3.200000 -12.692772 -33.829697 1305.554810
9.080000 1.160000 2.800000 -22.325792 -3.051920 507.755219
9.080000 1.160000 2.840000 -24.012302 -0.513420 576.854248
9.080000 1.160000 2.880000 -33.488174 -3.951078 1137.068848
9.080000 1.160000 2.920000 -40.449242 -19.293980 2008.398804
9.080000 1.160000 2.960000 -33.957527 -39.717392 2730.584961
9.080000 1.160000 3.000000 -14.420103 -51.573681 2867.783936
9.080000 1.160000 3.040000 6.081875 -48.002350 2341.214844
9.080000 1.160000 3.080000 15.737223 -35.607513 1515.555176
9.080000 1.160000 3.120000 14.369471 -27.090298 940.365906
9.080000 1.160000 3.160000 12.236564 -28.042202 936.098633
9.080000 1.160000 3.200000 18.083241 -32.134544 1359.632568
9.080000 1.200000 2.800000 -6.602737 -12.478874 199.318451
9.080000 1.200000 2.840000 -8.626927 -13.240729 249.740784
9.080000 1.200000 2.880000 -8.841875 -20.223892 487.184570
9.080000 1.200000 2.920000 -1.445110 -27.991932 785.636597
9.080000 1.200000 2.960000 10.842934 -28.669033 939.482666
9.080000 1.200000 3.000000 19.457619 -21.283573 831.589417
9.080000 1.200000 3.040000 19.734056 -13.213982 564.042297
9.080000 1.200000 3.080000 16.377743 -11.791393 407.267426
9.080000 1.200000 3.120000 17.989891 -15.673099 569.282166
9.080000 1.200000 3.160000 26.792633 -16.249365 981.887085
9.080000 1.200000 3.200000 35.520218 -7.784525 1322.284790
9.120000 0.800000 2.800000 -37.477848 -4.462899 1424.506592
9.120000 0.800000 2.840000 -27.921549 -23.833992 1347.672119
9.120000 0.800000 2.880000 -3.404339 -29.307327 870.508972
9.120000 0.800000 2.920000 17.240234 -12.657934 457.448975
9.120000 0.800000 2.960000 16.477718 13.444536 452.270752
9.120000 0.800000 3.000000 -3.829615 27.044994 746.097656
9.120000 0.800000 3.040000 -24.141714 18.659037 930.982056
9.120000 0.800000 3.080000 -27.232277 -0.015842 741.597168
9.120000 0.800000 3.120000 -15.037645 -9.484925 316.094604
9.120000 0.800000 3.160000 -4.665531 -3.144712 31.656391
9.120000 0.800000 3.200000 -8.672086 6.996608 124.157593
9.120000 0.840000 2.800000 -26.722315 -29.937101 1610.312134
9.120000 0.840000 2.840000 -8.115803 -41.709549 1805.552734
9.120000 0.840000 2.880000 17.630417 -34.937897 1531.488281
9.120000 0.840000 2.920000 31.118711 -9.446386 1057.608398
9.120000 0.840000 2.960000 21.138123 17.519983 753.770020
9.120000 0.840000 3.000000 -3.915444 26.851295 736.322754
9.120000 0.840000 3.040000 -24.076351 15.267290 812.760864
9.120000 0.840000 3.080000 -26.911949 -3.191505 734.438721
9.120000 0.840000 3.120000 -17.634150 -12.631523 470.518616
9.120000 0.840000 3.160000 -10.599627 -10.747037 227.850906
9.120000 0.840000 3.200000 -12.655625 -8.268938 228.540192
9.120000 0.880000 2.800000 3.575872 -40.975479 1691.776733
9.120000 0.880000 2.840000 23.522930 -40.588173 2200.728027
9.120000 0.880000 2.880000 42.639412 -23.371323 2364.338379
9.120000 0.880000 2.920000 45.546413 5.901981 2109.309326
9.120000 0.880000 2.960000 26.730759 30.255535 1629.930908
9.120000 0.880000 3.000000 -2.890364 34.465679 1196.237305
9.120000 0.880000 3.040000 -24.699121 18.160347 939.844849
9.120000 0.880000 3.080000 -27.938164 -4.771286 803.306213
9.120000 0.880000 3.120000 -17.076471 -19.271963 663.014404
9.120000 0.880000 3.160000 -4.817407 -21.374527 480.077789
9.120000 0.880000 3.200000 0.867041 -18.277817 334.830353
9.120000 0.920000 2.800000 35.190746 -24.785961 1852.732544
9.120000 0.920000 2.840000 47.839668 -14.907752 2510.874756
9.120000 0.920000 2.880000 55.830212 6.523938 3159.574219
9.120000 0.920000 2.920000 47.679352 34.025192 3431.034180
9.120000 0.920000 2.960000 20.616213 52.138535 3143.455078
9.120000 0.920000 3.000000 -13.180889 47.544662 2434.230713
9.120000 0.920000 3.040000 -34.236263 21.726185 1644.148804
9.120000 0.920000 3.080000 -31.424347 -8.645947 1062.241943
9.120000 0.920000 3.120000 -11.042786 -25.007328 747.309570
9.120000 0.920000 3.160000 9.401893 -21.786476 563.046143
9.120000 0.920000 3.200000 16.802794 -9.132550 365.737335
9.120000 0.960000 2.800000 45.196552 11.133832 2166.690674
9.120000 0.960000 2.840000 46.905365 22.647497 2713.022461
9.120000 0.960000 2.880000 44.222534 41.314392 3662.511719
9.120000 0.960000 2.920000 26.878811 61.909294 4555.231445
9.120000 0.960000 2.960000 -5.916146 68.911324 4783.771484
9.120000 0.960000 3.000000 -38.755886 50.776062 4080.227051
9.120000 0.960000 3.040000 -50.483391 14.219337 2750.762207
9.120000 0.960000 3.080000 -33.519310 -17.872154 1442.958130
9.120000 0.960000 3.120000 -2.537416 -25.384365 650.804443
9.120000 0.960000 3.160000 17.782009 -8.977234 396.790588
9.120000 0.960000 3.200000 15.025094 11.094502 348.841431
9.120000 1.000000 2.800000 25.300894 42.881775 2478.981934
9.120000 1.000000 2.840000 19.228785 48.853420 2756.402832
9.120000 1.000000 2.880000 9.882401 60.164204 3717.393311
9.120000 1.000000 2.920000 -12.432077 69.684265 5010.453613
9.120000 1.000000 2.960000 -44.164227 61.758400 5764.578613
9.120000 1.000000 3.000000 -66.011482 30.441036 5284.172363
9.120000 1.000000 3.040000 -59.841171 -8.945311 3660.984375
9.120000 1.000000 3.080000 -28.633295 -30.284523 1737.017944
9.120000 1.000000 3.120000 2.935232 -20.978302 448.704742
9.120000 1.000000 3.160000 10.570173 4.825541 135.014404
9.120000 1.000000 3.200000 -6.329922 19.305046 412.752716
9.120000 1.040000 2.800000 -10.244875 49.015770 2507.503174
9.120000 1.040000 2.840000 -17.714537 47.591782 2578.782715
9.120000 1.040000 2.880000 -28.795509 50.265858 3355.837891
9.120000 1.040000 2.920000 -49.505783 46.987827 4658.678711
9.120000 1.040000 2.960000 -70.383255 25.915714 5625.426758
9.120000 1.040000 3.000000 -72.793503 -9.263389 5384.704590
9.120000 1.040000 3.040000 -49.201817 -37.462242 3824.238281
9.120000 1.040000 3.080000 -15.021168 -39.099758 1754.426636
9.120000 1.040000 3.120000 3.422674 -16.967442 299.608765
9.120000 1.040000 3.160000 -5.506792 4.351955 49.264267
9.120000 1.040000 3.200000 -26.309490 2.214239 697.092102
9.120000 1.080000 2.800000 -36.032516 28.049427 2085.112793
9.120000 1.080000 2.840000 -40.751411 22.338913 2159.704590
9.120000 1.080000 2.880000 -49.540588 17.471294 2759.515869
9.120000 1.080000 2.920000 -61.411121 4.012556 3787.426514
9.120000 1.080000 2.960000 -64.378914 -20.955288 4583.768555
9.120000 1.080000 3.000000 -48.376755 -45.652908 4424.498047
9.120000 1.080000 3.040000 -19.404301 -52.808681 3165.283691
9.120000 1.080000 3.080000 2.636730 -38.091621 1457.924072
9.120000 1.080000 3.120000 2.763123 -17.232176 304.582733
9.120000 1.080000 3.160000 -12.851113 -11.910151 307.002808
9.120000 1.080000 3.200000 -21.733192 -27.605440 1234.391968
9.120000 1.120000 2.800000 -36.399418 -1.160042 1326.263306
9.120000 1.120000 2.840000 -38.828461 -7.541010 1564.516235
9.120000 1.120000 2.880000 -42.616413 -17.733952 2130.651855
9.120000 1.120000 2.920000 -41.155228 -34.296509 2870.003418
9.120000 1.120000 2.960000 -27.650166 -50.573444 3322.205078
9.120000 1.120000 3.000000 -5.116693 -55.088749 3060.950928
9.120000 1.120000 3.040000 13.268135 -43.824879 2096.663330
9.120000 1.120000 3.080000 16.076553 -26.764746 974.807190
9.120000 1.120000 3.120000 6.071278 -19.783730 428.256378
9.120000 1.120000 3.160000 -1.002522 -28.771605 828.810303
9.120000 1.120000 3.200000 8.332963 -42.593006 1883.602417
9.120000 1.160000 2.800000 -17.261093 -16.321404 564.333557
9.120000 1.160000 2.840000 -19.934925 -23.174631 934.464783
9.120000 1.160000 2.880000 -17.037815 -35.905460 1579.489136
9.120000 1.160000 2.920000 -3.348891 -46.923294 2213.010498
9.120000 1.160000 2.960000 16.484406 -46.361942 2421.165283
9.120000 1.160000 3.000000 30.242325 -32.817543 1991.589355
9.120000 1.160000 3.040000 29.618671 -16.699490 1156.138672
9.120000 1.160000 3.080000 19.349213 -11.153981 498.803314
9.120000 1.160000 3.120000 13.564359 -18.964108 543.629150
9.120000 1.160000 3.160000 22.077478 -29.124817 1335.669922
9.120000 1.160000 3.200000 40.341953 -27.274471 2371.369873
9.120000 1.200000 2.800000 1.274163 -10.386621 109.505379
9.120000 1.200000 2.840000 -1.798437 -20.485630 422.895416
9.120000 1.200000 2.880000 8.393546 -32.323593 1115.266357
9.120000 1.200000 2.920000 27.864773 -32.002445 1800.602051
9.120000 1.200000 2.960000 41.423195 -16.063482 1973.916504
9.120000 1.200000 3.000000 37.992714 3.317999 1454.455444
9.120000 1.200000 3.040000 22.856606 9.938776 621.203735
9.120000 1.200000 3.080000 13.053726 0.359766 170.529190
9.120000 1.200000 3.120000 20.017914 -12.113059 547.443115
9.120000 1.200000 3.160000 37.709988 -10.964704 1542.267944
9.120000 1.200000 3.200000 48.905994 6.644600 2435.947021
9.160000 0.800000 2.800000 -39.027725 -21.579056 1988.818970
9.160000 0.800000 2.840000 -19.784849 -39.964676 1988.615479
9.160000 0.800000 2.880000 10.356506 -35.420536 1361.871582
9.160000 0.800000 2.920000 25.930529 -7.534681 729.163757
9.160000 0.800000 2.960000 12.953699 20.968224 607.464722
9.160000 0.800000 3.000000 -16.061703 25.918739 929.759399
9.160000 0.800000 3.040000 -34.087685 5.637098 1193.747070
9.160000 0.800000 3.080000 -26.418245 -17.993683 1021.696289
9.160000 0.800000 3.120000 -4.352883 -22.403709 520.873779
9.160000 0.800000 3.160000 8.167356 -6.820505 113.225006
9.160000 0.800000 3.200000 0.023703 8.935238 79.839043
9.160000 0.840000 2.800000 -15.750824 -38.360668 1719.629395
9.160000 0.840000 2.840000 7.956325 -41.528187 1787.893433
9.160000 0.840000 2.880000 28.869434 -22.119884 1322.733521
9.160000 0.840000 2.920000 27.157660 8.850199 815.864502
9.160000 0.840000 2.960000 1.593048 27.250721 745.139587
9.160000 0.840000 3.000000 -27.560839 18.617729 1106.219727
9.160000 0.840000 3.040000 -37.290401 -7.828029 1451.852173
9.160000 0.840000 3.080000 -23.300495 -28.596617 1360.679565
9.160000 0.840000 3.120000 -2.308618 -28.861437 838.312256
9.160000 0.840000 3.160000 6.335968 -15.214708 271.631836
9.160000 0.840000 3.200000 -0.198566 -5.957419 35.530273
9.160000 0.880000 2.800000 15.592455 -31.372715 1227.371948
9.160000 0.880000 2.840000 30.394279 -20.533669 1345.443726
9.160000 0.880000 2.880000 33.833923 2.541890 1151.195557
9.160000 0.880000 2.920000 17.527182 23.743851 870.972534
9.160000 0.880000 2.960000 -10.830702 26.486521 818.839844
9.160000 0.880000 3.000000 -32.082382 7.235411 1081.630493
9.160000 0.880000 3.040000 -31.898685 -20.236227 1427.031006
9.160000 0.880000 3.080000 -13.098982 -36.712975 1519.425903
9.160000 0.880000 3.120000 8.018551 -34.063606 1224.626343
9.160000 0.880000 3.160000 17.212177 -20.490273 716.110291
9.160000 0.880000 3.200000 14.103258 -10.328436 305.578491
9.160000 0.920000 2.800000 32.146912 -1.132294 1034.706055
9.160000 0.920000 2.840000 30.369406 12.236051 1072.021729
9.160000 0.920000 2.880000 19.361656 25.486977 1024.459717
9.160000 0.920000 2.920000 -0.776826 30.339415 921.083557
9.160000 0.920000 2.960000 -21.820129 19.977028 875.199707
9.160000 0.920000 3.000000 -31.223211 -3.377116 986.293823
9.160000 0.920000 3.040000 -21.839333 -27.343822 1224.641113
9.160000 0.920000 3.080000 1.023523 -37.663361 1419.576294
9.160000 0.920000 3.120000 22.692488 -29.442074 1381.784668
9.160000 0.920000 3.160000 30.614611 -11.053304 1059.429932
9.160000 0.920000 3.200000 24.119354 3.325494 592.802124
9.160000 0.960000 2.800000 19.780167 32.390575 1440.404419
9.160000 0.960000 2.840000 5.497296 35.332153 1278.581299
9.160000 0.960000 2.880000 -8.486857 32.521103 1129.648926
9.160000 0.960000 2.920000 -21.378819 23.875481 1027.092529
9.160000 0.960000 2.960000 -29.977211 7.912591 961.242310
9.160000 0.960000 3.000000 -27.804649 -13.018065 942.568542
9.160000 0.960000 3.040000 -11.285946 -29.506996 998.035400
9.160000 0.960000 3.080000 13.171356 -30.490181 1103.135742
9.160000 0.960000 3.120000 30.838297 -13.920088 1144.769409
9.160000 0.960000 3.160000 30.285839 8.656589 992.168579
9.160000 0.960000 3.200000 14.411854 20.521635 628.839050
9.160000 1.000000 2.800000 -13.692374 45.039211 2216.011719
9.160000 1.000000 2.840000 -28.601940 32.996780 1906.858398
9.160000 1.000000 2.880000 -34.633232 18.137259 1528.420898
9.160000 1.000000 2.920000 -35.285492 4.297670 1263.535889
9.160000 1.000000 2.960000 -31.873085 -9.828311 1112.489258
9.160000 1.000000 3.000000 -20.923176 -23.363396 983.627563
9.160000 1.000000 3.040000 -1.273933 -28.882000 835.792847
9.160000 1.000000 3.080000 18.684273 -18.956087 708.435303
9.160000 1.000000 3.120000 25.066393 2.825859 636.309509
9.160000 1.000000 3.160000 12.294312 20.641594 577.225525
9.160000 1.000000 3.200000 -8.365649 19.724802 459.051880
9.160000 1.040000 2.800000 -44.036690 28.542688 2753.915039
9.160000 1.040000 2.840000 -49.928047 7.420296 2547.870605
9.160000 1.040000 2.880000 -44.545357 -10.480789 2094.135742
9.160000 1.040000 2.920000 -34.426620 -22.132439 1675.036987
9.160000 1.040000 2.960000 -22.292952 -29.599869 1373.127930
9.160000 1.040000 3.000000 -6.951828 -32.283394 1090.545410
9.160000 1.040000 3.040000 9.292483 -25.552921 739.302002
9.160000 1.040000 3.080000 17.453091 -8.679235 379.939514
9.160000 1.040000 3.120000 9.909137 8.560816 171.478561
9.160000 1.040000 3.160000 -8.416986 11.733446 208.519409
9.160000 1.040000 3.200000 -20.427567 -3.391509 428.787781
9.160000 1.080000 2.800000 -50.554165 -2.762921 2563.357422
9.160000 1.080000 2.840000 -46.756790 -23.560429 2741.291260
9.160000 1.080000 2.880000 -33.399582 -38.154255 2571.279297
9.160000 1.080000 2.920000 -16.359575 -44.187637 2220.182861
9.160000 1.080000 2.960000 0.529588 -42.255398 1785.799194
9.160000 1.080000 3.000000 14.187139 -32.638241 1266.529663
9.160000 1.080000 3.040000 19.731161 -17.116142 682.281067
9.160000 1.080000 3.080000 13.270043 -2.711139 183.444336
9.160000 1.080000 3.120000 -1.459140 0.481435 2.360869
9.160000 1.080000 3.160000 -11.776142 -11.398107 268.594360
9.160000 1.080000 3.200000 -5.407455 -28.886797 863.687622
9.160000 1.120000 2.800000 -32.732464 -24.725048 1682.742188
9.160000 1.120000 2.840000 -25.249657 -40.935390 2313.251465
9.160000 1.120000 2.880000 -8.374830 -51.465279 2718.812500
9.160000 1.120000 2.920000 12.691910 -50.828011 2744.571045
9.160000 1.120000 2.960000 29.626854 -37.987701 2320.815918
9.160000 1.120000 3.000000 34.617012 -18.328239 1534.261841
9.160000 1.120000 3.040000 25.624853 -2.400528 662.395630
9.160000 1.120000 3.080000 9.782803 0.112788 95.715942
9.160000 1.120000 3.120000 0.315865 -11.726035 137.599670
9.160000 1.120000 3.160000 7.036375 -27.321548 795.977539
9.160000 1.120000 3.200000 27.364021 -31.342052 1731.114014
9.160000 1.160000 2.800000 -8.868711 -23.864271 648.157471
9.160000 1.160000 2.840000 -2.414069 -38.447121 1484.008789
9.160000 1.160000 2.880000 16.930414 -46.469696 2446.071533
9.160000 1.160000 2.920000 39.744495 -37.981781 3022.240723
9.160000 1.160000 2.960000 50.833366 -14.999224 2809.008057
9.160000 1.160000 3.000000 42.276222 7.831039 1848.604126
9.160000 1.160000 3.040000 21.759201 14.653227 688.179871
9.160000 1.160000 3.080000 7.297171 2.468327 59.341339
9.160000 1.160000 3.120000 11.929462 -15.408728 379.740967
9.160000 1.160000 3.160000 32.108978 -20.526129 1452.308350
9.160000 1.160000 3.200000 50.712650 -5.281769 2599.669922
9.160000 1.200000 2.800000 1.208878 -7.187076 53.115448
9.160000 1.200000 2.840000 8.318536 -24.662416 677.432861
9.160000 1.200000 2.880000 31.378496 -29.484657 1853.955078
9.160000 1.200000 2.920000 52.210213 -12.106771 2872.480225
9.160000 1.200000 2.960000 52.123711 16.295740 2982.432129
9.160000 1.200000 3.000000 30.801949 33.084122 2043.319092
9.160000 1.200000 3.040000 7.760297 25.829311 727.375549
9.160000 1.200000 3.080000 3.929253 4.731516 37.826271
9.160000 1.200000 3.120000 21.497009 -7.165795 513.470032
9.160000 1.200000 3.160000 42.236370 3.762067 1798.064209
9.160000 1.200000 3.200000 45.650871 29.347248 2945.262939
9.200000 0.800000 2.800000 -27.115255 -34.810959 1947.039917
9.200000 0.800000 2.840000 -1.877667 -44.409389 1975.719482
9.200000 0.800000 2.880000 24.152699 -28.014532 1368.166870
9.200000 0.800000 2.920000 26.878286 4.096617 739.224548
9.200000 0.800000 2.960000 2.699913 24.599693 612.434448
9.200000 0.800000 3.000000 -26.121532 15.880341 934.519653
9.200000 0.800000 3.040000 -32.824043 -11.856218 1217.987793
9.200000 0.800000 3.080000 -12.681744 -30.600546 1097.220093
9.200000 0.800000 3.120000 12.871662 -22.665695 679.413452
9.200000 0.800000 3.160000 18.705671 2.258475 355.002838
9.200000 0.800000 3.200000 1.340042 18.464844 342.746155
9.200000 0.840000 2.800000 -3.306333 -37.173954 1392.834717
9.200000 0.840000 2.840000 17.687315 -31.791779 1323.558350
9.200000 0.840000 2.880000 27.285273 -8.043918 809.190674
9.200000 0.840000 2.920000 12.756875 16.011066 419.092102
9.200000 0.840000 2.960000 -16.398640 18.612795 615.351501
9.200000 0.840000 3.000000 -35.550987 -3.835983 1278.587402
9.200000 0.840000 3.040000 -28.204018 -31.996655 1819.252441
9.200000 0.840000 3.080000 -1.958475 -41.746971 1746.645142
9.200000 0.840000 3.120000 19.385555 -27.091297 1109.738037
9.200000 0.840000 3.160000 19.350611 -4.513073 394.813965
9.200000 0.840000 3.200000 3.675372 5.000376 38.512115
9.200000 0.880000 2.800000 15.731712 -19.003735 608.628723
9.200000 0.880000 2.840000 21.441860 -7.165356 511.095673
9.200000 0.880000 2.880000 14.055386 8.458569 269.101257
9.200000 0.880000 2.920000 -6.148540 13.635525 223.732086
9.200000 0.880000 2.960000 -25.407890 -0.228866 645.613281
9.200000 0.880000 3.000000 -27.407036 -25.945070 1424.292236
9.200000 0.880000 3.040000 -8.489738 -44.971577 2094.518311
9.200000 0.880000 3.080000 17.991520 -43.361198 2203.888184
9.200000 0.880000 3.120000 33.257839 -24.028845 1683.469238
9.200000 0.880000 3.160000 29.556717 -3.279757 884.356262
9.200000 0.880000 3.200000 15.534478 4.751138 263.893311
9.200000 0.920000 2.800000 13.750365 9.130937 272.446533
9.200000 0.920000 2.840000 4.144455 12.747444 179.673828
9.200000 0.920000 2.880000 -8.223935 9.782660 163.333527
9.200000 0.920000 2.920000 -18.202160 -2.028154 335.432037
9.200000 0.920000 2.960000 -18.824001 -20.289871 766.021851
9.200000 0.920000 3.000000 -6.085701 -36.757675 1388.162476
9.200000 0.920000 3.040000 16.166725 -41.341904 1970.515991
9.200000 0.920000 3.080000 36.660202 -29.664436 2223.949219
9.200000 0.920000 3.120000 43.958908 -7.733568 1992.193726
9.200000 0.920000 3.160000 35.252022 11.552907 1376.174805
9.200000 0.920000 3.200000 18.673523 18.101866 676.378052
9.200000 0.960000 2.800000 -10.392847 26.312840 800.376831
9.200000 0.960000 2.840000 -23.664841 12.584356 718.390686
9.200000 0.960000 2.880000 -25.563694 -6.335743 693.644104
9.200000 0.960000 2.920000 -16.759369 -22.305431 778.408691
9.200000 0.960000 2.960000 -1.664166 -31.150654 973.132690
9.200000 0.960000 3.000000 15.840209 -31.730778 1257.754517
9.200000 0.960000 3.040000 32.233788 -23.197407 1577.136719
9.200000 0.960000 3.080000 42.081711 -5.936924 1806.117432
9.200000 0.960000 3.120000 39.536606 14.770482 1781.310303
9.200000 0.960000 3.160000 24.223263 28.835413 1418.247559
9.200000 0.960000 3.200000 4.855926 28.282288 823.467834
9.200000 1.000000 2.800000 -39.790398 18.596096 1929.090576
9.200000 1.000000 2.840000 -42.889599 -9.027088 1921.005981
9.200000 1.000000 2.880000 -27.039068 -31.146851 1701.237549
9.200000 1.000000 2.920000 -3.175085 -37.699860 1431.360596
9.200000 1.000000 2.960000 16.825142 -30.627527 1221.130859
9.200000 1.000000 3.000000 28.664240 -17.202515 1117.565186
9.200000 1.000000 3.040000 33.442249 -1.725181 1121.360229
9.200000 1.000000 3.080000 31.010033 14.610501 1175.088867
9.200000 1.000000 3.120000 19.377087 28.015360 1160.331909
9.200000 1.000000 3.160000 1.021174 31.003222 962.242554
9.200000 1.000000 3.200000 -13.748628 19.864857 583.637268
9.200000 1.040000 2.800000 -52.826653 -8.548456 2863.731445
9.200000 1.040000 2.840000 -40.539173 -38.103413 3095.294434
9.200000 1.040000 2.880000 -11.589912 -51.316193 2767.677734
9.200000 1.040000 2.920000 16.540951 -43.193970 2139.322021
9.200000 1.040000 2.960000 31.340658 -22.874294 1505.470215
9.200000 1.040000 3.000000 32.097580 -2.306875 1035.576294
9.200000 1.040000 3.040000 24.316929 12.756677 754.045837
9.200000 1.040000 3.080000 11.899616 21.477650 602.890259
9.200000 1.040000 3.120000 -3.070938 22.265972 505.204193
9.200000 1.040000 3.160000 -15.356068 12.903378 402.305969
9.200000 1.040000 3.200000 -16.581036 -3.115976 284.640076
9.200000 1.080000 2.800000 -41.285236 -34.608253 2902.201904
9.200000 1.080000 2.840000 -19.233887 -56.408878 3551.904053
9.200000 1.080000 2.880000 12.701691 -57.506546 3468.335938
9.200000 1.080000 2.920000 36.479015 -38.264542 2794.893555
9.200000 1.080000 2.960000 42.003891 -11.335761 1892.826416
9.200000 1.080000 3.000000 31.514521 9.742741 1088.086060
9.200000 1.080000 3.040000 13.852978 18.499876 534.150391
9.200000 1.080000 3.080000 -2.549522 15.211803 237.899017
9.200000 1.080000 3.120000 -11.757998 3.405314 149.846664
9.200000 1.080000 3.160000 -9.832770 -11.019441 218.111450
9.200000 1.080000 3.200000 3.195146 -19.431629 387.797180
9.200000 1.120000 2.800000 -16.693518 -41.574291 2007.095215
9.200000 1.120000 2.840000 6.193558 -55.117821 3076.334229
9.200000 1.120000 2.880000 34.811676 -48.685699 3582.150146
9.200000 1.120000 2.920000 52.191910 -24.190937 3309.196777
9.200000 1.120000 2.960000 49.027424 4.473938 2423.704346
9.200000 1.120000 3.000000 29.345789 21.812691 1336.968872
9.200000 1.120000 3.040000 6.441363 20.686029 469.402954
9.200000 1.120000 3.080000 -6.243070 5.430063 68.461502
9.200000 1.120000 3.120000 -2.691644 -12.070273 152.936447
9.200000 1.120000 3.160000 13.138256 -19.661114 559.173157
9.200000 1.120000 3.200000 30.052069 -11.618614 1038.119019
9.200000 1.160000 2.800000 0.707336 -28.631725 820.276001
9.200000 1.160000 2.840000 21.089760 -39.713573 2021.945923
9.200000 1.160000 2.880000 46.959076 -30.610548 3142.160400
9.200000 1.160000 2.920000 59.434135 -3.412026 3544.058350
9.200000 1.160000 2.960000 48.526306 24.806479 2970.163818
9.200000 1.160000 3.000000 22.010424 35.408997 1738.255737
9.200000 1.160000 3.040000 -0.511793 23.311436 543.684937
9.200000 1.160000 3.080000 -3.378273 0.914917 12.249802
9.200000 1.160000 3.120000 12.963365 -12.330678 320.094452
9.200000 1.160000 3.160000 33.285118 -5.485469 1137.989380
9.200000 1.160000 3.200000 40.474316 16.193781 1900.408691
9.200000 1.200000 2.800000 -0.279278 -10.951303 120.009026
9.200000 1.200000 2.840000 21.260303 -23.261093 993.078979
9.200000 1.200000 2.880000 47.139687 -11.405713 2352.240479
9.200000 1.200000 2.920000 54.607559 18.717142 3332.316895
9.200000 1.200000 2.960000 35.819187 44.108238 3228.550781
9.200000 1.200000 3.000000 5.902884 45.259171 2083.236572
9.200000 1.200000 3.040000 -10.556677 24.114868 692.970276
9.200000 1.200000 3.080000 -1.960742 2.004792 7.863703
9.200000 1.200000 3.120000 20.399790 -0.333619 416.262726
9.200000 1.200000 3.160000 33.875664 18.776302 1500.110107
9.200000 1.200000 3.200000 25.450169 42.151627 2424.470703
