#kx 	ky 	kz 	real 	imag 	intensity
1.800000 1.800000 5.800000 -15.143798 2.218875 234.258011
1.800000 1.800000 5.840000 -16.721449 -1.881864 283.148254
1.800000 1.800000 5.880000 -16.599871 -8.576780 349.116852
1.800000 1.800000 5.920000 -11.872562 -16.442621 411.317535
1.800000 1.800000 5.960000 -1.532782 -21.328144 457.239166
1.800000 1.800000 6.000000 11.346174 -18.946663 487.711731
1.800000 1.800000 6.040000 20.714188 -8.740560 505.474976
1.800000 1.800000 6.080000 21.868137 4.733452 500.621002
1.800000 1.800000 6.120000 15.308106 14.894132 456.173279
1.800000 1.800000 6.160000 6.169554 18.291456 372.640747
1.800000 1.800000 6.200000 -0.535580 16.795473 282.374756
1.800000 1.840000 5.800000 -15.147318 -8.058331 294.377930
1.800000 1.840000 5.840000 -14.020261 -9.529520 287.379456
1.800000 1.840000 5.880000 -12.724090 -12.986370 330.548279
1.800000 1.840000 5.920000 -7.991222 -17.166080 358.533936
1.800000 1.840000 5.960000 0.401005 -17.778854 316.248474
1.800000 1.840000 6.000000 8.082428 -12.092203 211.547028
1.800000 1.840000 6.040000 9.815571 -2.705136 103.663193
1.800000 1.840000 6.080000 4.994255 4.148729 42.154537
1.800000 1.840000 6.120000 -1.262590 4.676112 23.460161
1.800000 1.840000 6.160000 -3.265743 1.506857 12.935697
1.800000 1.840000 6.200000 -0.939155 0.785823 1.499529
1.800000 1.880000 5.800000 -6.877210 -17.595474 356.896729
1.800000 1.880000 5.840000 -5.422746 -15.390718 266.280396
1.800000 1.880000 5.880000 -5.242483 -15.692287 273.731506
1.800000 1.880000 5.920000 -3.038726 -17.177277 304.292694
1.800000 1.880000 5.960000 0.826112 -16.564543 275.066528
1.800000 1.880000 6.000000 2.997707 -13.364430 187.594254
1.800000 1.880000 6.040000 1.944096 -10.964125 123.991539
1.800000 1.880000 6.080000 0.806589 -12.216775 149.900177
1.800000 1.880000 6.120000 4.057396 -14.795557 235.370972
1.800000 1.880000 6.160000 11.227837 -12.570989 284.094055
1.800000 1.880000 6.200000 15.369370 -2.707838 243.549896
1.800000 1.920000 5.800000 7.717656 -18.984552 419.975464
1.800000 1.920000 5.840000 6.846132 -13.754992 236.069321
1.800000 1.920000 5.880000 3.990619 -12.610023 174.937729
1.800000 1.920000 5.920000 2.598579 -14.287701 210.891006
1.800000 1.920000 5.960000 3.041000 -16.592224 284.549591
1.800000 1.920000 6.000000 4.703802 -19.264482 393.246063
1.800000 1.920000 6.040000 8.844428 -22.529751 585.813599
1.800000 1.920000 6.080000 17.393520 -23.703352 864.383423
1.800000 1.920000 6.120000 28.365559 -17.617506 1114.981445
1.800000 1.920000 6.160000 34.136345 -2.330511 1170.721313
1.800000 1.920000 6.200000 26.855785 15.707259 967.951172
1.800000 1.960000 5.800000 20.246862 -8.740567 486.332947
1.800000 1.960000 5.840000 15.303823 -2.811388 242.110886
1.800000 1.960000 5.880000 9.141197 -3.018090 92.670357
1.800000 1.960000 5.920000 5.772695 -7.810307 94.324905
1.800000 1.960000 5.960000 7.062669 -14.581003 262.486938
1.800000 1.960000 6.000000 13.976346 -20.511618 616.064697
1.800000 1.960000 6.040000 26.289351 -21.455601 1151.472778
1.800000 1.960000 6.080000 39.999924 -12.693165 1761.110352
1.800000 1.960000 6.120000 46.569309 6.534924 2211.406006
1.800000 1.960000 6.160000 37.859070 28.773870 2261.244873
1.800000 1.960000 6.200000 14.217922 40.656349 1855.088013
1.800000 2.000000 5.800000 22.016182 8.156120 551.234558
1.800000 2.000000 5.840000 13.202661 11.742864 312.205078
1.800000 2.000000 5.880000 5.599399 7.831433 92.684616
1.800000 2.000000 5.920000 3.742222 -0.756741 14.576880
1.800000 2.000000 5.960000 9.802286 -9.272448 182.063110
1.800000 2.000000 6.000000 22.929644 -11.846581 666.110046
1.800000 2.000000 6.040000 37.813705 -3.284298 1440.662964
1.800000 2.000000 6.080000 45.055550 16.786194 2311.778809
1.800000 2.000000 6.120000 36.142467 40.441772 2941.814941
1.800000 2.000000 6.160000 11.065552 53.851700 3022.452148
1.800000 2.000000 6.200000 -18.402802 46.439514 2495.291504
1.800000 2.040000 5.800000 11.637822 21.441114 595.160278
1.800000 2.040000 5.840000 1.130778 20.495674 421.351318
1.800000 2.040000 5.880000 -4.824929 12.492393 179.339828
1.800000 2.040000 5.920000 -2.288456 2.410228 11.046228
1.800000 2.040000 5.960000 8.685509 -2.853179 83.578697
1.800000 2.040000 6.000000 22.817982 2.736169 528.146912
1.800000 2.040000 6.040000 30.568081 20.103796 1338.570190
1.800000 2.040000 6.080000 23.181726 41.921597 2294.812744
1.800000 2.040000 6.120000 -0.073203 54.894913 3013.456787
1.800000 2.040000 6.160000 -28.581501 48.275055 3147.383301
1.800000 2.040000 6.200000 -45.753521 22.972275 2621.110107
1.800000 2.080000 5.800000 -3.759792 24.049089 592.494751
1.800000 2.080000 5.840000 -13.002327 18.326906 504.935974
1.800000 2.080000 5.880000 -14.854299 8.085272 286.021820
1.800000 2.080000 5.920000 -7.750236 0.236665 60.122169
1.800000 2.080000 5.960000 4.145375 1.515904 19.482100
1.800000 2.080000 6.000000 11.972803 13.869868 335.721252
1.800000 2.080000 6.040000 7.172868 31.316481 1032.171997
1.800000 2.080000 6.080000 -11.691119 42.025349 1902.812134
1.800000 2.080000 6.120000 -35.708458 36.037796 2573.816895
1.800000 2.080000 6.160000 -50.258850 13.580750 2710.388672
1.800000 2.080000 6.200000 -45.369415 -13.366637 2237.050781
1.800000 2.120000 5.800000 -15.217287 17.450394 536.082031
1.800000 2.120000 5.840000 -21.025646 8.438304 513.282776
1.800000 2.120000 5.880000 -18.264250 -1.221636 335.075226
1.800000 2.120000 5.920000 -9.171635 -4.279614 102.433983
1.800000 2.120000 5.960000 -1.492418 2.538432 8.670950
1.800000 2.120000 6.000000 -3.506746 14.854888 232.964966
1.800000 2.120000 6.040000 -17.173006 22.441029 798.511902
1.800000 2.120000 6.080000 -35.061714 16.580364 1504.232300
1.800000 2.120000 6.120000 -44.761723 -2.383945 2009.295044
1.800000 2.120000 6.160000 -38.272850 -23.984119 2040.049072
1.800000 2.120000 6.200000 -18.790855 -34.968662 1575.903564
1.800000 2.160000 5.800000 -19.647629 8.565114 459.390503
1.800000 2.160000 5.840000 -21.285381 -1.783198 456.247253
1.800000 2.160000 5.880000 -15.176225 -8.759078 307.039246
1.800000 2.160000 5.920000 -7.446541 -7.155092 106.646317
1.800000 2.160000 5.960000 -6.513288 0.729082 42.954487
1.800000 2.160000 6.000000 -15.405212 5.905874 272.199921
1.800000 2.160000 6.040000 -27.868189 0.162953 776.662476
1.800000 2.160000 6.080000 -32.744434 -15.982113 1327.625977
1.800000 2.160000 6.120000 -23.589390 -32.507149 1613.174072
1.800000 2.160000 6.160000 -4.929829 -37.784473 1451.969604
1.800000 2.160000 6.200000 10.914094 -28.505943 931.706238
1.800000 2.200000 5.800000 -20.632702 1.935832 429.455811
1.800000 2.200000 5.840000 -18.182659 -8.322994 399.881348
1.800000 2.200000 5.880000 -10.445011 -11.942888 251.730835
1.800000 2.200000 5.920000 -5.985564 -7.866085 97.702255
1.800000 2.200000 5.960000 -10.191589 -3.512187 116.203949
1.800000 2.200000 6.000000 -18.841286 -7.834717 416.376831
1.800000 2.200000 6.040000 -21.124489 -21.640652 914.561829
1.800000 2.200000 6.080000 -10.181924 -35.202869 1342.913574
1.800000 2.200000 6.120000 9.031593 -36.585659 1420.080200
1.800000 2.200000 6.160000 22.997414 -23.202057 1067.216553
1.800000 2.200000 6.200000 21.606752 -5.215405 494.052185
1.840000 1.800000 5.800000 -23.138956 -2.486112 541.592041
1.840000 1.800000 5.840000 -18.744486 -10.030451 451.965698
1.840000 1.800000 5.880000 -11.553183 -14.404306 340.960083
1.840000 1.800000 5.920000 -3.760703 -15.440793 252.560974
1.840000 1.800000 5.960000 3.822142 -13.911567 208.140457
1.840000 1.800000 6.000000 11.104371 -9.570850 214.908234
1.840000 1.800000 6.040000 16.648474 -1.478073 279.356384
1.840000 1.800000 6.080000 17.427147 9.604967 395.960846
1.840000 1.800000 6.120000 11.444470 19.888947 526.546082
1.840000 1.800000 6.160000 0.487011 24.606274 605.705872
1.840000 1.800000 6.200000 -10.369927 21.806065 583.039856
1.840000 1.840000 5.800000 -14.149560 -18.273888 534.145020
1.840000 1.840000 5.840000 -2.604811 -18.545574 350.723358
1.840000 1.840000 5.880000 5.959442 -11.210642 161.193436
1.840000 1.840000 5.920000 6.878782 -1.124033 48.581097
1.840000 1.840000 5.960000 1.276613 5.076440 27.399982
1.840000 1.840000 6.000000 -5.058666 4.565205 46.431198
1.840000 1.840000 6.040000 -6.926367 0.276554 48.051037
1.840000 1.840000 6.080000 -3.951939 -2.345156 21.117575
1.840000 1.840000 6.120000 -0.140226 -0.341922 0.136574
1.840000 1.840000 6.160000 0.224327 4.654978 21.719141
1.840000 1.840000 6.200000 -3.835043 8.505196 87.045914
1.840000 1.880000 5.800000 5.572337 -23.095465 564.451477
1.840000 1.880000 5.840000 17.789818 -10.863916 434.502319
1.840000 1.880000 5.880000 17.085264 8.309278 360.950348
1.840000 1.880000 5.920000 1.143726 21.311752 455.498901
1.840000 1.880000 5.960000 -20.051901 17.381195 704.184692
1.840000 1.880000 6.000000 -30.938412 -1.974045 961.082153
1.840000 1.880000 6.040000 -22.982944 -22.997280 1057.090576
1.840000 1.880000 6.080000 -1.972750 -30.428549 929.788330
1.840000 1.880000 6.120000 16.695898 -19.640158 664.488831
1.840000 1.880000 6.160000 20.425200 0.334652 417.300781
1.840000 1.880000 6.200000 8.687710 14.867411 296.516205
1.840000 1.920000 5.800000 23.638144 -10.673923 672.694458
1.840000 1.920000 5.840000 26.317278 12.613095 851.689331
1.840000 1.920000 5.880000 7.855045 33.607712 1191.180054
1.840000 1.920000 5.920000 -24.260550 33.788330 1730.225586
1.840000 1.920000 5.960000 -48.087273 7.237419 2364.765869
1.840000 1.920000 6.000000 -43.828278 -30.881781 2874.602295
1.840000 1.920000 6.040000 -11.378729 -54.049335 3050.806152
1.840000 1.920000 6.080000 27.695501 -45.378208 2826.222656
1.840000 1.920000 6.120000 46.692078 -11.565203 2313.904053
1.840000 1.920000 6.160000 34.743988 22.743202 1724.397949
1.840000 1.920000 6.200000 4.076515 34.933403 1236.960571
1.840000 1.960000 5.800000 26.214018 12.215157 836.384766
1.840000 1.960000 5.840000 12.724346 36.657082 1505.650513
1.840000 1.960000 5.880000 -20.866894 44.607140 2425.224121
1.840000 1.960000 5.920000 -54.469475 21.525295 3430.261963
1.840000 1.960000 5.960000 -60.746506 -24.215042 4276.506348
1.840000 1.960000 6.000000 -28.592802 -62.800438 4761.443359
1.840000 1.960000 6.040000 23.902252 -65.149788 4815.812500
1.840000 1.960000 6.080000 61.153141 -27.572069 4499.925781
1.840000 1.960000 6.120000 58.062828 23.703568 3933.151123
1.840000 1.960000 6.160000 19.942125 53.228622 3230.974609
1.840000 1.960000 6.200000 -23.078485 44.261803 2491.723633
1.840000 2.000000 5.800000 10.274007 29.493233 975.406006
1.840000 2.000000 5.840000 -16.020176 42.557518 2067.788330
1.840000 2.000000 5.880000 -50.493080 29.380589 3412.770020
1.840000 2.000000 5.920000 -66.865028 -11.528446 4603.837402
1.840000 2.000000 5.960000 -45.288311 -56.856205 5283.659180
1.840000 2.000000 6.000000 7.037989 -73.025681 5382.283203
1.840000 2.000000 6.040000 56.494080 -43.950821 5123.255859
1.840000 2.000000 6.080000 68.040825 12.741385 4791.896484
1.840000 2.000000 6.120000 34.028076 57.678345 4484.701172
1.840000 2.000000 6.160000 -19.105530 60.946640 4079.514160
1.840000 2.000000 6.200000 -52.766876 25.328613 3425.881836
1.840000 2.040000 5.800000 -12.812006 28.983067 1004.165649
1.840000 2.040000 5.840000 -39.823837 24.867489 2204.330078
1.840000 2.040000 5.880000 -59.438995 -3.381889 3544.431396
1.840000 2.040000 5.920000 -50.975674 -43.541214 4494.356445
1.840000 2.040000 5.960000 -11.041279 -67.690041 4703.851074
1.840000 2.040000 6.000000 37.743252 -53.532513 4290.283203
1.840000 2.040000 6.040000 60.992489 -5.730881 3752.926758
1.840000 2.040000 6.080000 40.345741 43.851440 3550.727539
1.840000 2.040000 6.120000 -9.691146 60.204334 3718.479980
1.840000 2.040000 6.160000 -52.354164 33.574226 3868.187012
1.840000 2.040000 6.200000 -58.311111 -13.097345 3571.726318
1.840000 2.080000 5.800000 -26.861181 12.784696 884.971497
1.840000 2.080000 5.840000 -42.610542 -3.089343 1825.202393
1.840000 2.080000 5.880000 -42.311256 -30.701996 2732.854980
1.840000 2.080000 5.920000 -18.743801 -53.000313 3160.363281
1.840000 2.080000 5.960000 17.618603 -50.904709 2901.704590
1.840000 2.080000 6.000000 42.409966 -20.413233 2215.305176
1.840000 2.080000 6.040000 35.710152 20.029417 1676.392578
1.840000 2.080000 6.080000 0.109585 41.553028 1726.666138
1.840000 2.080000 6.120000 -38.922062 28.044411 2301.415771
1.840000 2.080000 6.160000 -52.734924 -9.783523 2876.689453
1.840000 2.080000 6.200000 -32.764484 -42.838089 2908.613281
1.840000 2.120000 5.800000 -24.893244 -5.421936 649.070984
1.840000 2.120000 5.840000 -26.262722 -21.258505 1141.654663
1.840000 2.120000 5.880000 -14.653084 -35.529549 1477.061768
1.840000 2.120000 5.920000 5.755741 -37.488472 1438.514038
1.840000 2.120000 5.960000 22.289335 -22.818661 1017.505737
1.840000 2.120000 6.000000 22.121910 0.438705 489.571381
1.840000 2.120000 6.040000 3.416729 15.710036 258.479279
1.840000 2.120000 6.080000 -20.972935 10.484000 549.778259
1.840000 2.120000 6.120000 -32.357208 -12.510944 1203.512573
1.840000 2.120000 6.160000 -21.347164 -36.208176 1766.733398
1.840000 2.120000 6.200000 3.928005 -42.664410 1835.681030
1.840000 2.160000 5.800000 -13.944036 -13.618378 379.896332
1.840000 2.160000 5.840000 -7.427129 -20.978043 495.240509
1.840000 2.160000 5.880000 1.976463 -21.328232 458.799866
1.840000 2.160000 5.920000 7.838095 -14.856934 282.164185
1.840000 2.160000 5.960000 5.968668 -6.824451 82.198143
1.840000 2.160000 6.000000 -2.135618 -4.180948 22.041193
1.840000 2.160000 6.040000 -9.726543 -10.314323 200.990906
1.840000 2.160000 6.080000 -9.498449 -21.833740 566.932739
1.840000 2.160000 6.120000 0.535388 -30.415428 925.384888
1.840000 2.160000 6.160000 14.792270 -28.973734 1058.288452
1.840000 2.160000 6.200000 23.876823 -17.490499 876.020264
1.840000 2.200000 5.800000 -6.310713 -11.955767 182.765442
1.840000 2.200000 5.840000 -0.561532 -11.238722 126.624184
1.840000 2.200000 5.880000 -0.082382 -6.763929 45.757526
1.840000 2.200000 5.920000 -5.727193 -5.657438 64.807343
1.840000 2.200000 5.960000 -11.366633 -12.667395 289.663239
1.840000 2.200000 6.000000 -9.006981 -24.929195 702.590454
1.840000 2.200000 6.040000 3.701849 -33.480808 1134.668213
1.840000 2.200000 6.080000 20.468555 -30.632015 1357.282104
1.840000 2.200000 6.120000 30.882851 -16.740978 1234.010864
1.840000 2.200000 6.160000 28.683710 -0.413215 822.926025
1.840000 2.200000 6.200000 16.674330 8.150635 344.466125
1.880000 1.800000 5.800000 -25.690662 -16.475170 931.441406
1.880000 1.800000 5.840000 -13.109171 -21.338299 627.173340
1.880000 1.800000 5.880000 -2.141343 -17.789339 321.045929
1.880000 1.800000 5.920000 2.596485 -11.170883 131.530365
1.880000 1.800000 5.960000 3.454571 -7.242427 64.386810
1.880000 1.800000 6.000000 5.914608 -5.823948 68.900955
1.880000 1.800000 6.040000 11.218834 -1.665741 128.636932
1.880000 1.800000 6.080000 14.089790 8.397804 269.045288
1.880000 1.800000 6.120000 8.481535 20.207277 480.270477
1.880000 1.800000 6.160000 -4.919408 25.305435 664.565613
1.880000 1.800000 6.200000 -17.916531 19.307238 693.771484
1.880000 1.840000 5.800000 -3.086035 -28.080761 798.052734
1.880000 1.840000 5.840000 15.766155 -15.849014 499.762909
1.880000 1.840000 5.880000 18.537109 7.801359 404.485626
1.880000 1.840000 5.920000 1.495819 24.728130 613.717896
1.880000 1.840000 5.960000 -21.653812 21.208063 918.669556
1.880000 1.840000 6.000000 -31.625019 1.210781 1001.607849
1.880000 1.840000 6.040000 -21.295998 -17.135315 747.138550
1.880000 1.840000 6.080000 -1.716843 -18.557560 347.330566
1.880000 1.840000 6.120000 9.261581 -4.219704 103.582794
1.880000 1.840000 6.160000 3.829180 11.152843 139.048538
1.880000 1.840000 6.200000 -10.160990 14.448650 312.009216
1.880000 1.880000 5.800000 22.398041 -17.537592 809.239380
1.880000 1.880000 5.840000 31.783096 16.002344 1266.240234
1.880000 1.880000 5.880000 7.725033 49.888275 2548.516113
1.880000 1.880000 5.920000 -39.239830 53.437458 4395.326172
1.880000 1.880000 5.960000 -74.932190 17.160301 5909.309082
1.880000 1.880000 6.000000 -70.393837 -35.132317 6189.572266
1.880000 1.880000 6.040000 -28.364182 -65.173271 5052.082031
1.880000 1.880000 6.080000 18.653721 -53.202156 3178.430664
1.880000 1.880000 6.120000 37.100639 -13.817736 1567.387207
1.880000 1.880000 6.160000 20.297356 19.470331 791.076416
1.880000 1.880000 6.200000 -10.005577 24.587347 704.649231
1.880000 1.920000 5.800000 30.694132 10.500811 1052.396729
1.880000 1.920000 5.840000 14.192493 53.902401 3106.895508
1.880000 1.920000 5.880000 -41.164223 72.564835 6960.148438
1.880000 1.920000 5.920000 -100.563622 37.589100 11525.982422
1.880000 1.920000 5.960000 -115.493851 -37.601463 14752.699219
1.880000 1.920000 6.000000 -67.349327 -102.256905 14992.406250
1.880000 1.920000 6.040000 12.607841 -109.778625 12210.304688
1.880000 1.920000 6.080000 68.085960 -57.923775 7990.861816
1.880000 1.920000 6.120000 65.142487 10.309393 4349.827148
1.880000 1.920000 6.160000 18.070568 45.321297 2380.565430
1.880000 1.920000 6.200000 -28.498451 31.785501 1822.479858
1.880000 1.960000 5.800000 13.043644 35.459908 1427.541626
1.880000 1.960000 5.840000 -31.386011 65.842064 5320.258789
1.880000 1.960000 5.880000 -98.414566 47.073505 11901.341797
1.880000 1.960000 5.920000 -135.148224 -28.116636 19055.587891
1.880000 1.960000 5.960000 -100.766098 -115.827286 23569.765625
1.880000 1.960000 6.000000 -7.862215 -152.331604 23266.732422
1.880000 1.960000 6.040000 82.030762 -108.742325 18553.939453
1.880000 1.960000 6.080000 108.402626 -17.752445 12066.278320
1.880000 1.960000 6.120000 61.922703 53.923065 6742.118164
1.880000 1.960000 6.160000 -11.354113 61.907303 3961.429932
1.880000 1.960000 6.200000 -53.510849 17.104565 3155.977051
1.880000 2.000000 5.800000 -18.416510 37.159416 1719.990112
1.880000 2.000000 5.840000 -73.134872 36.973171 6715.724609
1.880000 2.000000 5.880000 -119.779358 -17.750996 14662.192383
1.880000 2.000000 5.920000 -108.882858 -104.401321 22755.113281
1.880000 2.000000 5.960000 -28.882957 -162.580078 27266.505859
1.880000 2.000000 6.000000 74.495285 -143.238373 26066.777344
1.880000 2.000000 6.040000 131.080170 -54.252464 20125.341797
1.880000 2.000000 6.080000 104.615402 42.317326 12735.138672
1.880000 2.000000 6.120000 22.955311 81.317719 7139.517578
1.880000 2.000000 6.160000 -47.897827 47.471977 4547.790527
1.880000 2.000000 6.200000 -60.684334 -17.617710 3992.972168
1.880000 2.040000 5.800000 -39.694649 13.649652 1761.978149
1.880000 2.040000 5.840000 -79.220085 -14.507236 6486.281738
1.880000 2.040000 5.880000 -86.086624 -78.521271 13576.496094
1.880000 2.040000 5.920000 -34.862732 -138.171463 20306.763672
1.880000 2.040000 5.960000 54.312210 -143.184769 23451.695312
1.880000 2.040000 6.000000 123.946587 -78.464661 21519.458984
1.880000 2.040000 6.040000 124.704735 16.882374 15836.285156
1.880000 2.040000 6.080000 58.204372 78.388474 9532.501953
1.880000 2.040000 6.120000 -23.328817 69.032288 5309.690430
1.880000 2.040000 6.160000 -61.310795 8.195530 3826.180420
1.880000 2.040000 6.200000 -38.345932 -48.907883 3862.391602
1.880000 2.080000 5.800000 -35.430672 -16.706779 1534.448975
1.880000 2.080000 5.840000 -46.161293 -51.731205 4806.982422
1.880000 2.080000 5.880000 -22.044846 -94.012650 9324.353516
1.880000 2.080000 5.920000 35.427750 -109.223076 13184.806641
1.880000 2.080000 5.960000 93.665924 -75.163811 14422.904297
1.880000 2.080000 6.000000 111.310089 -5.678375 12422.179688
1.880000 2.080000 6.040000 73.268036 55.190598 8414.207031
1.880000 2.080000 6.080000 6.227383 67.453392 4588.740234
1.880000 2.080000 6.120000 -41.733593 28.269135 2540.836670
1.880000 2.080000 6.160000 -40.449310 -26.414204 2333.856934
1.880000 2.080000 6.200000 -0.682076 -53.314926 2842.946777
1.880000 2.120000 5.800000 -11.819659 -31.610310 1138.916016
1.880000 2.120000 5.840000 -1.643480 -51.383160 2642.929932
1.880000 2.120000 5.880000 25.430300 -60.999859 4367.682617
1.880000 2.120000 5.920000 57.068192 -47.422649 5505.686523
1.880000 2.120000 5.960000 72.513115 -12.148964 5405.749023
1.880000 2.120000 6.000000 58.423294 25.763302 4077.029053
1.880000 2.120000 6.040000 21.789955 42.170097 2253.119385
1.880000 2.120000 6.080000 -13.022396 27.088982 903.395752
1.880000 2.120000 6.120000 -22.758362 -6.146477 555.722229
1.880000 2.120000 6.160000 -3.990402 -31.123831 984.616211
1.880000 2.120000 6.200000 24.615650 -29.868258 1498.042969
1.880000 2.160000 5.800000 10.420194 -24.318867 699.987732
1.880000 2.160000 5.840000 21.363199 -22.929615 982.153564
1.880000 2.160000 5.880000 28.929447 -14.559711 1048.898071
1.880000 2.160000 5.920000 29.574135 -3.644348 887.910706
1.880000 2.160000 5.960000 23.769341 4.672245 586.811462
1.880000 2.160000 6.000000 15.006439 7.111553 275.767395
1.880000 2.160000 6.040000 7.900692 3.433646 74.210861
1.880000 2.160000 6.080000 6.155340 -3.463326 49.882835
1.880000 2.160000 6.120000 10.527010 -8.660402 185.820511
1.880000 2.160000 6.160000 17.732685 -7.866204 376.325287
1.880000 2.160000 6.200000 21.882608 -0.694897 479.331421
1.880000 2.200000 5.800000 15.886422 -7.710811 311.834991
1.880000 2.200000 5.840000 13.829860 3.271978 201.970856
1.880000 2.200000 5.880000 1.889782 6.597435 47.097427
1.880000 2.200000 5.920000 -8.168242 -3.605591 79.720451
1.880000 2.200000 5.960000 -4.688709 -19.870819 416.833466
1.880000 2.200000 6.000000 12.214764 -27.817322 923.003845
1.880000 2.200000 6.040000 30.225859 -19.492376 1293.555298
1.880000 2.200000 6.080000 35.947289 -0.582664 1292.546997
1.880000 2.200000 6.120000 26.519339 15.175205 933.562195
1.880000 2.200000 6.160000 10.907743 18.256847 452.291321
1.880000 2.200000 6.200000 0.718528 10.330452 107.234520
1.920000 1.800000 5.800000 -14.806280 -30.741993 1164.296021
1.920000 1.800000 5.840000 1.739971 -26.447083 702.475708
1.920000 1.800000 5.880000 8.949837 -13.939131 274.398926
1.920000 1.800000 5.920000 5.549736 -4.499117 51.041622
1.920000 1.800000 5.960000 0.524792 -4.297661 18.745295
1.920000 1.800000 6.000000 2.972909 -8.076393 74.066315
1.920000 1.800000 6.040000 11.771610 -5.374615 167.457291
1.920000 1.800000 6.080000 16.469261 7.260960 323.958099
1.920000 1.800000 6.120000 8.764254 21.491642 538.702820
1.920000 1.800000 6.160000 -7.870345 25.310419 702.559631
1.920000 1.800000 6.200000 -20.896191 15.466213 675.854553
1.920000 1.840000 5.800000 14.906845 -26.532261 926.174927
1.920000 1.840000 5.840000 27.462683 2.640270 761.169922
1.920000 1.840000 5.880000 10.139061 33.294235 1211.306641
1.920000 1.840000 5.920000 -26.993504 38.163483 2185.100586
1.920000 1.840000 5.960000 -53.834846 10.509689 3008.644287
1.920000 1.840000 6.000000 -47.580196 -27.484879 3019.293457
1.920000 1.840000 6.040000 -14.320736 -44.449844 2180.872070
1.920000 1.840000 6.080000 16.948578 -28.638531 1107.419800
1.920000 1.840000 6.120000 21.826361 2.683859 483.593109
1.920000 1.840000 6.160000 1.874709 21.673077 473.236786
1.920000 1.840000 6.200000 -20.427429 16.375727 685.444336
1.920000 1.880000 5.800000 31.204865 1.506727 976.013794
1.920000 1.880000 5.840000 16.970005 49.649677 2753.071289
1.920000 1.880000 5.880000 -40.493095 72.107101 6839.125000
1.920000 1.880000 5.920000 -102.822273 37.296490 11963.448242
1.920000 1.880000 5.960000 -118.076942 -39.192459 15478.212891
1.920000 1.880000 6.000000 -68.682671 -102.860687 15297.630859
1.920000 1.880000 6.040000 9.983147 -107.092407 11568.446289
1.920000 1.880000 6.080000 60.102779 -54.140404 6543.527344
1.920000 1.880000 6.120000 51.931950 9.243076 2782.362061
1.920000 1.880000 6.160000 5.929701 35.875996 1322.248413
1.920000 1.880000 6.200000 -32.240093 17.950397 1361.640381
1.920000 1.920000 5.800000 17.903545 33.378769 1434.679199
1.920000 1.920000 5.840000 -35.013115 74.292007 6745.220703
1.920000 1.920000 5.880000 -118.482040 53.913704 16944.681641
1.920000 1.920000 5.920000 -165.098328 -37.338844 28651.646484
1.920000 1.920000 5.960000 -124.215294 -143.876236 36129.812500
1.920000 1.920000 6.000000 -13.263161 -187.384750 35288.953125
1.920000 1.920000 6.040000 91.674217 -135.549713 26777.886719
1.920000 1.920000 6.080000 120.319580 -31.142826 15446.677734
1.920000 1.920000 6.120000 67.022621 46.868347 6688.673828
1.920000 1.920000 6.160000 -10.881571 52.157516 2838.815186
1.920000 1.920000 6.200000 -49.806828 4.305469 2499.257080
1.920000 1.960000 5.800000 -17.541437 42.348660 2101.110840
1.920000 1.960000 5.840000 -94.522751 46.534897 11100.046875
1.920000 1.960000 5.880000 -162.787231 -28.464863 27309.931641
1.920000 1.960000 5.920000 -149.812531 -150.562027 45112.718750
1.920000 1.960000 5.960000 -39.236050 -233.110962 55880.187500
1.920000 1.960000 6.000000 103.377197 -207.866501 53895.324219
1.920000 1.960000 6.040000 180.974335 -88.324097 40552.855469
1.920000 1.960000 6.080000 147.374146 39.114990 23249.121094
1.920000 1.960000 6.120000 44.158241 89.443604 9950.108398
1.920000 1.960000 6.160000 -41.348244 48.532562 4065.086914
1.920000 1.960000 6.200000 -53.892872 -25.536736 3556.566406
1.920000 2.000000 5.800000 -47.640160 18.463720 2610.493652
1.920000 2.000000 5.840000 -113.962669 -21.987686 13470.948242
1.920000 2.000000 5.880000 -129.244507 -124.658463 32243.875000
1.920000 2.000000 5.920000 -49.100330 -223.020782 52149.113281
1.920000 2.000000 5.960000 93.872894 -233.874268 63509.292969
1.920000 2.000000 6.000000 206.372101 -133.276260 60352.007812
1.920000 2.000000 6.040000 210.961578 15.290445 44738.585938
1.920000 2.000000 6.080000 112.869186 111.476181 25166.390625
1.920000 2.000000 6.120000 -6.323204 102.015823 10447.210938
1.920000 2.000000 6.160000 -61.409874 20.102093 4175.266602
1.920000 2.000000 6.200000 -33.031860 -53.280914 3929.959473
1.920000 2.040000 5.800000 -47.644997 -21.170771 2718.247070
1.920000 2.040000 5.840000 -74.567894 -83.561951 12542.970703
1.920000 2.040000 5.880000 -34.399384 -166.270676 28829.255859
1.920000 2.040000 5.920000 73.673759 -200.025177 45437.894531
1.920000 2.040000 5.960000 186.750427 -139.043152 54208.718750
1.920000 2.040000 6.000000 224.594131 -8.960609 50522.816406
1.920000 2.040000 6.040000 158.646545 107.062637 36631.132812
1.920000 2.040000 6.080000 38.820869 135.847824 19961.691406
1.920000 2.040000 6.120000 -48.691475 74.089783 7860.155273
1.920000 2.040000 6.160000 -53.665199 -14.230474 3082.459961
1.920000 2.040000 6.200000 2.414110 -57.786350 3345.090088
1.920000 2.080000 5.800000 -17.193258 -46.334499 2442.493896
1.920000 2.080000 5.840000 -4.780878 -94.729263 8996.490234
1.920000 2.080000 5.880000 55.556412 -126.897446 19189.476562
1.920000 2.080000 5.920000 136.469269 -101.829956 28993.201172
1.920000 2.080000 5.960000 182.280701 -17.006393 33515.472656
1.920000 2.080000 6.000000 154.269455 80.823570 30331.513672
1.920000 2.080000 6.040000 66.740425 129.551224 21237.804688
1.920000 2.080000 6.080000 -21.525169 102.477112 10964.891602
1.920000 2.080000 6.120000 -54.936222 29.750790 3903.098145
1.920000 2.080000 6.160000 -25.106342 -29.181335 1481.878784
1.920000 2.080000 6.200000 27.893232 -36.011215 2074.840088
1.920000 2.120000 5.800000 19.661037 -39.744579 1966.187988
1.920000 2.120000 5.840000 44.475410 -53.799866 4872.487793
1.920000 2.120000 5.880000 82.303337 -44.605072 8763.452148
1.920000 2.120000 5.920000 109.587158 -5.037216 12034.719727
1.920000 2.120000 5.960000 103.062607 49.107666 13033.463867
1.920000 2.120000 6.000000 59.947151 86.998276 11162.361328
1.920000 2.120000 6.040000 3.662697 85.585426 7338.280762
1.920000 2.120000 6.080000 -32.325432 48.579723 3404.923096
1.920000 2.120000 6.120000 -30.163279 4.200710 927.469360
1.920000 2.120000 6.160000 -0.733368 -17.289715 299.472076
1.920000 2.120000 6.200000 27.087469 -6.967520 782.277283
1.920000 2.160000 5.800000 36.292362 -10.997465 1438.079712
1.920000 2.160000 5.840000 44.443588 0.236229 1975.288330
1.920000 2.160000 5.880000 44.306595 14.850426 2183.609375
1.920000 2.160000 5.920000 36.633495 26.811157 2060.851074
1.920000 2.160000 5.960000 25.054077 33.259014 1733.868774
1.920000 2.160000 6.000000 12.714027 34.001236 1317.730591
1.920000 2.160000 6.040000 1.870041 29.448471 870.709534
1.920000 2.160000 6.080000 -4.856016 20.570454 446.724457
1.920000 2.160000 6.120000 -5.055941 10.571640 137.322113
1.920000 2.160000 6.160000 0.559374 4.554051 21.052282
1.920000 2.160000 6.200000 6.794621 5.714527 78.822685
1.920000 2.200000 5.800000 26.415371 14.237722 900.484619
1.920000 2.200000 5.840000 10.470287 25.324245 750.944275
1.920000 2.200000 5.880000 -8.928305 17.146755 373.725830
1.920000 2.200000 5.920000 -12.386829 -4.700092 175.524414
1.920000 2.200000 5.960000 5.163811 -19.690247 414.370758
1.920000 2.200000 6.000000 28.192825 -12.504929 951.208618
1.920000 2.200000 6.040000 35.245857 11.435036 1373.030518
1.920000 2.200000 6.080000 19.753881 31.127867 1359.159912
1.920000 2.200000 6.120000 -4.227823 30.398338 941.933472
1.920000 2.200000 6.160000 -16.598789 12.605839 434.426971
1.920000 2.200000 6.200000 -10.407982 -4.668158 130.117783
1.960000 1.800000 5.800000 5.296679 -32.305168 1071.678711
1.960000 1.800000 5.840000 17.153568 -18.222197 626.293335
1.960000 1.800000 5.880000 14.615425 -2.607374 220.409058
1.960000 1.800000 5.920000 3.858009 2.203407 19.739241
1.960000 1.800000 5.960000 -1.413208 -4.332001 20.763386
1.960000 1.800000 6.000000 5.617470 -10.362190 138.930954
1.960000 1.800000 6.040000 17.429695 -4.281780 322.127930
1.960000 1.800000 6.080000 19.870926 12.588525 553.324646
1.960000 1.800000 6.120000 7.114855 26.847931 771.432556
1.960000 1.800000 6.160000 -12.006954 26.539469 848.510315
1.960000 1.800000 6.200000 -22.799543 13.118675 691.918823
1.960000 1.840000 5.800000 26.645142 -10.299463 816.042480
1.960000 1.840000 5.840000 19.703823 25.955252 1061.915771
1.960000 1.840000 5.880000 -18.535290 44.181427 2295.555420
1.960000 1.840000 5.920000 -59.789864 22.618423 4086.420898
1.960000 1.840000 5.960000 -68.103378 -25.886642 5308.188477
1.960000 1.840000 6.000000 -34.108429 -62.719910 5097.171875
1.960000 1.840000 6.040000 14.845932 -58.396423 3630.543945
1.960000 1.840000 6.080000 39.678600 -19.351936 1948.888794
1.960000 1.840000 6.120000 25.059259 19.705364 1016.267883
1.960000 1.840000 6.160000 -9.446972 29.283907 946.792480
1.960000 1.840000 6.200000 -31.677179 10.451878 1112.685425
1.960000 1.880000 5.800000 21.192900 22.718235 965.257202
1.960000 1.880000 5.840000 -24.057480 61.114468 4313.740723
1.960000 1.880000 5.880000 -96.937286 45.274567 11446.624023
1.960000 1.880000 5.920000 -137.200836 -32.484215 19879.294922
1.960000 1.880000 5.960000 -101.420044 -121.994614 25168.710938
1.960000 1.880000 6.000000 -7.381096 -155.391632 24201.039062
1.960000 1.880000 6.040000 77.599556 -107.932213 17671.052734
1.960000 1.880000 6.080000 95.374969 -20.190987 9504.060547
1.960000 1.880000 6.120000 46.285213 40.036636 3745.253418
1.960000 1.880000 6.160000 -17.420235 37.947945 1743.511108
1.960000 1.880000 6.200000 -44.006084 -3.997842 1952.518311
1.960000 1.920000 5.800000 -11.207518 38.980602 1645.095703
1.960000 1.920000 5.840000 -90.315308 45.711071 10246.357422
1.960000 1.920000 5.880000 -161.188782 -29.962910 26879.599609
1.960000 1.920000 5.920000 -148.262146 -154.007278 45699.906250
1.960000 1.920000 5.960000 -36.050072 -236.425232 57196.500000
1.960000 1.920000 6.000000 106.341103 -208.830200 54918.480469
1.960000 1.920000 6.040000 180.511887 -88.368317 40393.500000
1.960000 1.920000 6.080000 143.644363 35.650028 21904.626953
1.960000 1.920000 6.120000 41.981720 80.412689 8228.666016
1.960000 1.920000 6.160000 -37.030312 37.736526 2795.289551
1.960000 1.920000 6.200000 -44.029125 -30.960453 2897.113525
1.960000 1.960000 5.800000 -46.111118 21.188030 2575.167969
1.960000 1.960000 5.840000 -125.749176 -24.038818 16390.720703
1.960000 1.960000 5.880000 -145.471268 -144.559387 42059.304688
1.960000 1.960000 5.920000 -51.931698 -260.250275 70427.101562
1.960000 1.960000 5.960000 114.896591 -272.312988 87355.593750
1.960000 1.960000 6.000000 244.165604 -154.651337 83533.875000
1.960000 1.960000 6.040000 247.277390 15.798296 61395.691406
1.960000 1.960000 6.080000 134.609833 122.897736 33223.660156
1.960000 1.960000 6.120000 2.549446 109.955002 12096.602539
1.960000 1.960000 6.160000 -54.694389 20.188438 3399.049316
1.960000 1.960000 6.200000 -22.277201 -54.511883 3467.819092
1.960000 2.000000 5.800000 -53.679920 -20.137569 3287.055664
1.960000 2.000000 5.840000 -94.082245 -103.064682 19473.796875
1.960000 2.000000 5.880000 -42.269333 -216.602142 48703.183594
1.960000 2.000000 5.920000 103.619400 -263.835205 80346.000000
1.960000 2.000000 5.960000 256.217957 -181.854156 98718.578125
1.960000 2.000000 6.000000 306.201263 -7.481050 93815.179688
1.960000 2.000000 6.040000 217.740692 145.681183 68634.015625
1.960000 2.000000 6.080000 61.007999 182.059830 36867.757812
1.960000 2.000000 6.120000 -50.138870 102.407051 13001.110352
1.960000 2.000000 6.160000 -55.303253 -6.554186 3101.406982
1.960000 2.000000 6.200000 11.495242 -56.090538 3278.289062
1.960000 2.040000 5.800000 -24.851099 -53.546986 3484.856934
1.960000 2.040000 5.840000 -11.869324 -133.052002 17843.716797
1.960000 2.040000 5.880000 82.721275 -190.012604 42947.597656
1.960000 2.040000 5.920000 214.388397 -153.278717 69456.750000
1.960000 2.040000 5.960000 289.735352 -17.774929 84262.515625
1.960000 2.040000 6.000000 245.246399 138.652756 79370.382812
1.960000 2.040000 6.040000 106.437607 215.210388 57644.476562
1.960000 2.040000 6.080000 -30.888741 172.308609 30644.371094
1.960000 2.040000 6.120000 -81.448418 61.592876 10427.527344
1.960000 2.040000 6.160000 -38.004459 -24.563000 2047.679932
1.960000 2.040000 6.200000 34.684101 -33.511765 2326.025146
1.960000 2.080000 5.800000 19.885878 -53.097404 3214.782715
1.960000 2.080000 5.840000 63.029900 -93.277397 12673.441406
1.960000 2.080000 5.880000 144.720123 -85.992264 28338.583984
1.960000 2.080000 5.920000 210.183716 -7.356079 44231.308594
1.960000 2.080000 5.960000 201.723282 108.862473 52543.320312
1.960000 2.080000 6.000000 111.013885 191.073425 48833.136719
1.960000 2.080000 6.040000 -8.198959 187.280502 35141.210938
1.960000 2.080000 6.080000 -82.001930 108.499725 18496.507812
1.960000 2.080000 6.120000 -75.843826 17.915287 6073.243652
1.960000 2.080000 6.160000 -17.912455 -23.639313 879.673096
1.960000 2.080000 6.200000 32.310341 -5.041264 1069.372437
1.960000 2.120000 5.800000 48.003952 -20.326492 2717.545654
1.960000 2.120000 5.840000 81.136833 -18.190704 6914.087402
1.960000 2.120000 5.880000 112.790604 16.012230 12978.112305
1.960000 2.120000 5.920000 114.278511 74.256485 18573.603516
1.960000 2.120000 5.960000 72.395630 125.766808 21058.417969
1.960000 2.120000 6.000000 3.752487 138.293320 19139.125000
1.960000 2.120000 6.040000 -54.707565 103.598450 13725.556641
1.960000 2.120000 6.080000 -72.888237 44.914276 7329.987305
1.960000 2.120000 6.120000 -49.673725 -0.925041 2468.334717
1.960000 2.120000 6.160000 -11.361410 -11.535202 262.142517
1.960000 2.120000 6.200000 11.326735 6.580791 171.601746
1.960000 2.160000 5.800000 42.674206 18.462391 2161.947754
1.960000 2.160000 5.840000 42.324120 34.959137 3013.472168
1.960000 2.160000 5.880000 31.833088 49.438087 3457.469971
1.960000 2.160000 5.920000 15.821617 56.734905 3469.172852
1.960000 2.160000 5.960000 -0.846954 56.848114 3232.425293
1.960000 2.160000 6.000000 -16.232643 51.266903 2891.794189
1.960000 2.160000 6.040000 -29.062174 39.897354 2436.408691
1.960000 2.160000 6.080000 -35.748928 22.998726 1806.927246
1.960000 2.160000 6.120000 -32.247780 5.055428 1065.476685
1.960000 2.160000 6.160000 -19.566383 -5.947636 418.217712
1.960000 2.160000 6.200000 -5.823393 -5.128572 60.214157
1.960000 2.200000 5.800000 15.147877 36.379631 1552.935669
1.960000 2.200000 5.840000 -9.855286 36.515453 1430.505005
1.960000 2.200000 5.880000 -24.988026 14.652157 839.087158
1.960000 2.200000 5.920000 -14.644188 -9.854182 311.557129
1.960000 2.200000 5.960000 11.386826 -12.832405 294.330414
1.960000 2.200000 6.000000 26.325802 9.224037 778.130737
1.960000 2.200000 6.040000 13.441733 34.307068 1357.655029
1.960000 2.200000 6.080000 -16.470299 36.651009 1614.567139
1.960000 2.200000 6.120000 -35.776047 12.616692 1439.106445
1.960000 2.200000 6.160000 -27.698711 -16.157032 1028.268311
1.960000 2.200000 6.200000 -2.182867 -25.193027 639.453552
2.000000 1.800000 5.800000 20.053909 -17.422590 705.705933
2.000000 1.800000 5.840000 21.095226 -0.535831 445.295685
2.000000 1.800000 5.880000 9.903545 9.470924 187.778625
2.000000 1.800000 5.920000 -1.645540 5.774612 36.053951
2.000000 1.800000 5.960000 -1.559414 -4.548576 23.121319
2.000000 1.800000 6.000000 9.815781 -7.376690 150.765106
2.000000 1.800000 6.040000 19.767975 4.006196 406.822449
2.000000 1.800000 6.080000 15.924187 21.786438 728.228638
2.000000 1.800000 6.120000 -1.329130 31.225449 976.795227
2.000000 1.800000 6.160000 -19.378164 25.023617 1001.694641
2.000000 1.800000 6.200000 -25.869244 9.790264 765.067017
2.000000 1.840000 5.800000 20.882797 9.923798 534.572998
2.000000 1.840000 5.840000 -5.303959 35.246754 1270.465576
2.000000 1.840000 5.880000 -47.999832 27.898560 3082.313477
2.000000 1.840000 5.920000 -70.760704 -15.400543 5244.253906
2.000000 1.840000 5.960000 -49.317749 -63.524063 6467.546875
2.000000 1.840000 6.000000 3.179474 -77.227547 5974.202637
2.000000 1.840000 6.040000 46.094460 -45.313713 4178.031738
2.000000 1.840000 6.080000 47.779701 5.090366 2308.811768
2.000000 1.840000 6.120000 12.977365 34.253391 1341.706787
2.000000 1.840000 6.160000 -24.893051 25.575020 1273.745605
2.000000 1.840000 6.200000 -36.945320 -3.375712 1376.352051
2.000000 1.880000 5.800000 -3.646380 28.246426 811.156616
2.000000 1.880000 5.840000 -62.945633 34.576385 5157.679199
2.000000 1.880000 5.880000 -115.922997 -21.088448 13882.864258
2.000000 1.880000 5.920000 -105.827499 -112.082443 23761.933594
2.000000 1.880000 5.960000 -22.704346 -170.397812 29550.902344
2.000000 1.880000 6.000000 79.957863 -146.539261 27867.015625
2.000000 1.880000 6.040000 129.205429 -56.388634 19873.720703
2.000000 1.880000 6.080000 96.461258 31.904793 10322.690430
2.000000 1.880000 6.120000 19.737329 58.746815 3840.750488
2.000000 1.880000 6.160000 -35.584518 22.427580 1769.254272
2.000000 1.880000 6.200000 -36.361610 -28.638340 2142.321289
2.000000 1.920000 5.800000 -36.159607 17.861961 1626.566895
2.000000 1.920000 5.840000 -106.490189 -21.055412 11783.490234
2.000000 1.920000 5.880000 -123.852203 -126.687332 31389.046875
2.000000 1.920000 5.920000 -41.283802 -227.220947 53333.710938
2.000000 1.920000 5.960000 104.303284 -235.519806 66348.750000
2.000000 1.920000 6.000000 214.289246 -130.777466 63022.625000
2.000000 1.920000 6.040000 212.593353 16.806526 45478.394531
2.000000 1.920000 6.080000 112.092682 105.516022 23698.400391
2.000000 1.920000 6.120000 -0.643272 89.440552 8000.025879
2.000000 1.920000 6.160000 -45.468052 10.576719 2179.210693
2.000000 1.920000 6.200000 -14.544244 -50.526726 2764.484863
2.000000 1.960000 5.800000 -48.463985 -17.911324 2669.573242
2.000000 1.960000 5.840000 -90.462181 -101.072472 18399.050781
2.000000 1.960000 5.880000 -38.364429 -216.133270 48185.417969
2.000000 1.960000 5.920000 109.443024 -263.195038 81249.398438
2.000000 1.960000 5.960000 262.520325 -178.731018 100861.703125
2.000000 1.960000 6.000000 309.843323 -2.567280 96009.476562
2.000000 1.960000 6.040000 218.019806 148.706680 69646.312500
2.000000 1.960000 6.080000 61.387787 180.698853 36420.535156
2.000000 1.960000 6.120000 -45.426826 98.942139 11853.143555
2.000000 1.960000 6.160000 -46.458164 -6.729825 2203.651611
2.000000 1.960000 6.200000 18.941250 -50.386635 2897.583984
2.000000 2.000000 5.800000 -26.152933 -52.645447 3455.518799
2.000000 2.000000 5.840000 -13.850029 -146.086151 21532.988281
2.000000 2.000000 5.880000 96.034363 -214.392883 55186.906250
2.000000 2.000000 5.920000 250.317032 -171.763962 92161.476562
2.000000 2.000000 5.960000 337.286713 -12.920649 113929.273438
2.000000 2.000000 6.000000 283.006012 168.285400 108412.382812
2.000000 2.000000 6.040000 120.774384 253.538330 78868.132812
2.000000 2.000000 6.080000 -35.309101 200.384445 41400.660156
2.000000 2.000000 6.120000 -88.702454 73.473495 13266.480469
2.000000 2.000000 6.160000 -37.175282 -20.192078 1789.721558
2.000000 2.000000 6.200000 41.080322 -25.935106 2360.222656
2.000000 2.040000 5.800000 17.278423 -58.206802 3686.575684
2.000000 2.040000 5.840000 73.305862 -119.068306 19551.011719
2.000000 2.040000 5.880000 188.101379 -113.985916 48374.917969
2.000000 2.040000 5.920000 281.975769 -5.976662 79546.054688
2.000000 2.040000 5.960000 270.637970 156.086639 97607.953125
2.000000 2.040000 6.000000 143.362534 268.606323 92702.171875
2.000000 2.040000 6.040000 -20.772018 259.262848 67648.703125
2.000000 2.040000 6.080000 -117.628098 148.209198 35802.335938
2.000000 2.040000 6.120000 -103.981392 26.845524 11532.812500
2.000000 2.040000 6.160000 -25.194939 -23.708729 1196.888672
2.000000 2.040000 6.200000 36.414482 3.807474 1340.511353
2.000000 2.080000 5.800000 50.839977 -28.857342 3417.449463
2.000000 2.080000 5.840000 110.936859 -39.167633 13841.089844
2.000000 2.080000 5.880000 178.004379 14.541908 31897.025391
2.000000 2.080000 5.920000 189.883240 121.666145 50858.296875
2.000000 2.080000 5.960000 115.593376 219.435883 61513.933594
2.000000 2.080000 6.000000 -11.132034 241.046875 58227.519531
2.000000 2.080000 6.040000 -114.664299 172.262329 42822.210938
2.000000 2.080000 6.080000 -138.303772 63.789028 23196.972656
2.000000 2.080000 6.120000 -87.858658 -12.278839 7869.913574
2.000000 2.080000 6.160000 -19.596855 -20.994616 824.810669
2.000000 2.080000 6.200000 12.502491 14.836901 376.445923
2.000000 2.120000 5.800000 51.990509 14.214016 2905.051270
2.000000 2.120000 5.840000 79.902702 34.987633 7608.576172
2.000000 2.120000 5.880000 87.863998 83.922050 14762.992188
2.000000 2.120000 5.920000 54.898239 136.787430 21724.617188
2.000000 2.120000 5.960000 -12.617004 158.735168 25356.042969
2.000000 2.120000 6.000000 -81.743103 131.290421 23919.109375
2.000000 2.120000 6.040000 -116.220131 68.030357 18135.248047
2.000000 2.120000 6.080000 -103.125565 4.855835 10658.460938
2.000000 2.120000 6.120000 -60.583500 -26.945877 4396.440430
2.000000 2.120000 6.160000 -21.133694 -21.966724 929.169983
2.000000 2.120000 6.200000 -6.344187 0.370508 40.385983
2.000000 2.160000 5.800000 24.354170 41.789871 2339.519043
2.000000 2.160000 5.840000 14.909077 56.608166 3426.764893
2.000000 2.160000 5.880000 -3.293808 64.304504 4145.918457
2.000000 2.160000 5.920000 -23.081833 62.138809 4394.002930
2.000000 2.160000 5.960000 -39.804161 52.701096 4361.776855
2.000000 2.160000 6.000000 -52.682610 38.251328 4238.621094
2.000000 2.160000 6.040000 -60.404774 18.585800 3994.168457
2.000000 2.160000 6.080000 -58.534851 -4.835266 3449.708740
2.000000 2.160000 6.120000 -43.786793 -24.829247 2533.774658
2.000000 2.160000 6.160000 -20.702854 -31.824417 1441.401733
2.000000 2.160000 6.200000 -1.521114 -22.988743 530.796082
2.000000 2.200000 5.800000 -8.262234 40.912861 1742.126709
2.000000 2.200000 5.840000 -30.898205 27.573395 1714.991211
2.000000 2.200000 5.880000 -33.071861 0.039479 1093.749634
2.000000 2.200000 5.920000 -11.661011 -15.923817 389.547119
2.000000 2.200000 5.960000 10.945271 -4.723503 142.110428
2.000000 2.200000 6.000000 9.355276 20.751221 518.134338
2.000000 2.200000 6.040000 -17.242886 30.953773 1255.453247
2.000000 2.200000 6.080000 -42.559074 10.438519 1920.237427
2.000000 2.200000 6.120000 -39.623398 -25.100025 2200.024902
2.000000 2.200000 6.160000 -8.673082 -44.119469 2021.749878
2.000000 2.200000 6.200000 23.016644 -31.172691 1501.502563
2.040000 1.800000 5.800000 17.558475 3.186779 318.455597
2.040000 1.800000 5.840000 9.794855 13.527802 278.940613
2.040000 1.800000 5.880000 -2.337519 13.611771 190.744293
2.040000 1.800000 5.920000 -7.871393 4.460587 81.855667
2.040000 1.800000 5.960000 -1.945511 -3.613602 16.843130
2.040000 1.800000 6.000000 8.912201 -0.890038 80.219490
2.040000 1.800000 6.040000 12.773804 12.111061 309.847839
2.040000 1.800000 6.080000 3.670492 24.929573 634.956177
2.040000 1.800000 6.120000 -12.921377 26.971317 894.413940
2.040000 1.800000 6.160000 -25.591122 16.967419 942.798828
2.040000 1.800000 6.200000 -27.418783 3.080909 761.281677
2.040000 1.840000 5.800000 0.669113 17.405621 303.403351
2.040000 1.840000 5.840000 -29.423704 20.972660 1305.606934
2.040000 1.840000 5.880000 -55.572685 -6.295059 3127.950928
2.040000 1.840000 5.920000 -49.950005 -49.845299 4979.556641
2.040000 1.840000 5.960000 -9.350128 -75.564163 5797.367676
2.040000 1.840000 6.000000 38.173912 -60.457954 5112.412109
2.040000 1.840000 6.040000 56.876221 -14.889977 3456.615967
2.040000 1.840000 6.080000 35.013664 26.079987 1906.122314
2.040000 1.840000 6.120000 -6.019207 33.995819 1191.946533
2.040000 1.840000 6.160000 -33.061371 10.538093 1204.105591
2.040000 1.840000 6.200000 -30.975769 -18.347813 1296.140503
2.040000 1.880000 5.800000 -24.296883 10.563213 701.919983
2.040000 1.880000 5.840000 -68.340439 -14.602871 4883.659180
2.040000 1.880000 5.880000 -78.252907 -81.597412 12781.655273
2.040000 1.880000 5.920000 -24.749771 -144.014099 21352.611328
2.040000 1.880000 5.960000 67.249649 -146.631927 26023.437500
2.040000 1.880000 6.000000 134.156952 -77.929482 24071.091797
2.040000 1.880000 6.040000 128.607254 15.392555 16776.757812
2.040000 1.880000 6.080000 61.313324 68.173103 8406.895508
2.040000 1.880000 6.120000 -10.670023 53.018871 2924.850098
2.040000 1.880000 6.160000 -36.612118 -0.689041 1340.921875
2.040000 1.880000 6.200000 -13.727007 -40.413506 1821.682129
2.040000 1.920000 5.800000 -35.051258 -17.388618 1530.954712
2.040000 1.920000 5.840000 -65.263794 -79.580582 10592.431641
2.040000 1.920000 5.880000 -24.651012 -165.278687 27924.716797
2.040000 1.920000 5.920000 87.472794 -198.621796 47102.105469
2.040000 1.920000 5.960000 201.628387 -132.306015 58158.890625
2.040000 1.920000 6.000000 233.882919 1.637733 54703.902344
2.040000 1.920000 6.040000 160.990570 113.677124 38840.453125
2.040000 1.920000 6.080000 41.791538 133.441071 19553.052734
2.040000 1.920000 6.120000 -36.323326 68.106155 5957.832031
2.040000 1.920000 6.160000 -33.241791 -12.060387 1250.469482
2.040000 1.920000 6.200000 18.052334 -42.723122 2151.151855
2.040000 1.960000 5.800000 -17.764870 -46.560226 2483.445312
2.040000 1.960000 5.840000 -6.642542 -126.618492 16076.365234
2.040000 1.960000 5.880000 89.538155 -184.823715 42176.886719
2.040000 1.960000 5.920000 223.732819 -145.574631 71248.343750
2.040000 1.960000 5.960000 297.282959 -5.240017 88404.617188
2.040000 1.960000 6.000000 246.337723 152.148102 83831.320312
2.040000 1.960000 6.040000 102.777039 222.792114 60199.449219
2.040000 1.960000 6.080000 -31.569859 172.208267 30652.343750
2.040000 1.960000 6.120000 -73.647659 60.474133 9081.097656
2.040000 1.960000 6.160000 -25.605906 -18.162960 985.555542
2.040000 1.960000 6.200000 41.330338 -19.330675 2081.871826
2.040000 2.000000 5.800000 18.925583 -52.742123 3139.909180
2.040000 2.000000 5.840000 73.987419 -114.138870 18501.820312
2.040000 2.000000 5.880000 189.677155 -109.196045 47901.199219
2.040000 2.000000 5.920000 283.966003 0.727719 80637.218750
2.040000 2.000000 5.960000 270.237061 164.709229 100157.203125
2.040000 2.000000 6.000000 139.157227 275.836975 95450.773438
2.040000 2.000000 6.040000 -26.041569 261.792542 69213.500000
2.040000 2.000000 6.080000 -119.203789 146.952271 35804.515625
2.040000 2.000000 6.120000 -100.266708 26.782135 10770.696289
2.040000 2.000000 6.160000 -20.064259 -18.630726 749.678406
2.040000 2.000000 6.200000 37.384331 12.220037 1546.917480
2.040000 2.040000 5.800000 49.610954 -28.348379 3264.877441
2.040000 2.040000 5.840000 120.815613 -45.147888 16634.744141
2.040000 2.040000 5.880000 203.871506 16.816845 41846.394531
2.040000 2.040000 5.920000 219.949951 146.070129 69714.460938
2.040000 2.040000 5.960000 129.650955 263.753296 86375.171875
2.040000 2.040000 6.000000 -23.597523 286.529510 82656.007812
2.040000 2.040000 6.040000 -144.648224 199.384216 60677.175781
2.040000 2.040000 6.080000 -165.809143 68.756866 32220.179688
2.040000 2.040000 6.120000 -100.009224 -16.531471 10275.134766
2.040000 2.040000 6.160000 -20.071453 -19.311663 775.803528
2.040000 2.040000 6.200000 11.152740 25.475227 773.370789
2.040000 2.080000 5.800000 53.033424 10.799389 2929.170898
2.040000 2.080000 5.840000 103.107498 33.094479 11726.400391
2.040000 2.080000 5.880000 126.405762 108.016670 27646.017578
2.040000 2.080000 5.920000 80.622192 195.914246 44882.328125
2.040000 2.080000 5.960000 -26.101311 233.350494 55133.730469
2.040000 2.080000 6.000000 -134.679520 186.791122 53029.492188
2.040000 2.080000 6.040000 -181.284088 83.248520 39794.238281
2.040000 2.080000 6.080000 -148.746887 -11.639400 22261.113281
2.040000 2.080000 6.120000 -76.353897 -47.707417 8105.915039
2.040000 2.080000 6.160000 -21.534618 -26.587006 1170.608643
2.040000 2.080000 6.200000 -11.748524 10.147966 241.009033
2.040000 2.120000 5.800000 29.087286 39.162231 2379.750488
2.040000 2.120000 5.840000 40.398582 69.426537 6452.089355
2.040000 2.120000 5.880000 21.234917 111.788887 12947.676758
2.040000 2.120000 5.920000 -32.091202 136.061920 19542.691406
2.040000 2.120000 5.960000 -96.444901 118.635468 23375.992188
2.040000 2.120000 6.000000 -137.312347 62.297661 22735.679688
2.040000 2.120000 6.040000 -134.243683 -4.718964 18043.636719
2.040000 2.120000 6.080000 -94.892578 -49.652103 11469.932617
2.040000 2.120000 6.120000 -46.800766 -57.979019 5551.878418
2.040000 2.120000 6.160000 -15.621588 -39.836246 1830.960449
2.040000 2.120000 6.200000 -8.721224 -17.454117 380.705933
2.040000 2.160000 5.800000 -3.353840 42.505730 1817.985352
2.040000 2.160000 5.840000 -17.797794 50.825523 2899.995361
2.040000 2.160000 5.880000 -37.170002 48.826054 3765.592285
2.040000 2.160000 5.920000 -53.468681 37.043594 4231.127930
2.040000 2.160000 5.960000 -63.484203 20.088959 4433.810547
2.040000 2.160000 6.000000 -67.660255 0.413330 4578.081055
2.040000 2.160000 6.040000 -64.665192 -21.828876 4658.086914
2.040000 2.160000 6.080000 -50.578342 -43.337330 4436.292969
2.040000 2.160000 6.120000 -25.165033 -55.303143 3691.716309
2.040000 2.160000 6.160000 2.569155 -49.852783 2491.900635
2.040000 2.160000 6.200000 18.506620 -29.571785 1216.985474
2.040000 2.200000 5.800000 -24.260674 26.907133 1312.574097
2.040000 2.200000 5.840000 -36.478958 7.194847 1382.480225
2.040000 2.200000 5.880000 -26.795147 -14.924644 940.724915
2.040000 2.200000 5.920000 -4.355186 -17.845139 337.416626
2.040000 2.200000 5.960000 6.145132 -0.131081 37.779831
2.040000 2.200000 6.000000 -8.283127 15.577545 311.270111
2.040000 2.200000 6.040000 -32.530472 6.170101 1096.301758
2.040000 2.200000 6.080000 -37.493370 -25.596497 2060.933594
2.040000 2.200000 6.120000 -11.006504 -51.437981 2767.009033
2.040000 2.200000 6.160000 27.583271 -45.875057 2865.357910
2.040000 2.200000 6.200000 45.887371 -12.996603 2274.562500
2.080000 1.800000 5.800000 0.054664 13.137201 172.589050
2.080000 1.800000 5.840000 -7.809870 13.116581 233.038757
2.080000 1.800000 5.880000 -13.146997 6.969566 221.418396
2.080000 1.800000 5.920000 -11.505211 -0.717419 132.884567
2.080000 1.800000 5.960000 -4.367073 -3.338288 30.215492
2.080000 1.800000 6.000000 1.760506 1.689909 5.955173
2.080000 1.800000 6.040000 0.932819 10.512409 111.380905
2.080000 1.800000 6.080000 -7.266172 16.117989 312.586823
2.080000 1.800000 6.120000 -17.708925 14.062225 511.352234
2.080000 1.800000 6.160000 -24.116779 5.504131 611.914490
2.080000 1.800000 6.200000 -23.652325 -4.486278 579.559143
2.080000 1.840000 5.800000 -17.500523 5.031311 331.582367
2.080000 1.840000 5.840000 -33.790039 -6.993425 1190.674683
2.080000 1.840000 5.880000 -35.774757 -34.103176 2442.859863
2.080000 1.840000 5.920000 -13.086189 -57.750210 3506.334961
2.080000 1.840000 5.960000 23.376762 -56.839256 3777.174316
2.080000 1.840000 6.000000 48.247456 -28.039154 3114.010986
2.080000 1.840000 6.040000 43.375858 9.212852 1966.341797
2.080000 1.840000 6.080000 13.924858 28.743320 1020.080139
2.080000 1.840000 6.120000 -16.606987 19.787691 667.344727
2.080000 1.840000 6.160000 -27.246294 -5.515404 772.780212
2.080000 1.840000 6.200000 -16.276031 -25.259016 902.927124
2.080000 1.880000 5.800000 -22.527313 -17.992846 831.222290
2.080000 1.880000 5.840000 -34.701138 -50.578262 3762.329590
2.080000 1.880000 5.880000 -10.724438 -93.731583 8900.623047
2.080000 1.880000 5.920000 49.156586 -108.515038 14191.883789
2.080000 1.880000 5.960000 108.326492 -71.056175 16783.609375
2.080000 1.880000 6.000000 122.999321 0.884415 15129.615234
2.080000 1.880000 6.040000 81.757126 59.520000 10226.857422
2.080000 1.880000 6.080000 16.760338 67.680511 4861.560547
2.080000 1.880000 6.120000 -24.826401 29.836546 1506.569580
2.080000 1.880000 6.160000 -21.406361 -15.583651 701.082397
2.080000 1.880000 6.200000 8.946572 -33.235622 1184.647705
2.080000 1.920000 5.800000 -5.324930 -39.567009 1593.903076
2.080000 1.920000 5.840000 4.841484 -86.657661 7532.990234
2.080000 1.920000 5.880000 66.376297 -119.447830 18673.597656
2.080000 1.920000 5.920000 149.946960 -91.228004 30806.640625
2.080000 1.920000 5.960000 193.723969 -0.446785 37529.175781
2.080000 1.920000 6.000000 158.167236 99.119057 34841.460938
2.080000 1.920000 6.040000 64.779495 141.657776 24263.308594
2.080000 1.920000 6.080000 -20.654819 106.294006 11725.037109
2.080000 1.920000 6.120000 -45.279945 32.884045 3131.633789
2.080000 1.920000 6.160000 -11.736525 -17.396748 440.392822
2.080000 1.920000 6.200000 32.853657 -16.552876 1353.360474
2.080000 1.960000 5.800000 25.583580 -40.797256 2318.935791
2.080000 1.960000 5.840000 65.913055 -81.206116 10938.963867
2.080000 1.960000 5.880000 148.935181 -74.080475 27669.605469
2.080000 1.960000 5.920000 215.120010 8.744123 46353.078125
2.080000 1.960000 5.960000 201.316010 129.413391 57275.960938
2.080000 1.960000 6.000000 101.844254 208.899536 54011.265625
2.080000 1.960000 6.040000 -20.382818 194.761658 38347.562500
2.080000 1.960000 6.080000 -86.590469 107.185730 18986.689453
2.080000 1.960000 6.120000 -68.907318 18.606794 5094.431152
2.080000 1.960000 6.160000 -7.691026 -12.119759 206.040436
2.080000 1.960000 6.200000 33.615322 13.455128 1311.030273
2.080000 2.000000 5.800000 48.811470 -17.304478 2682.004395
2.080000 2.000000 5.840000 106.635376 -29.470171 12239.594727
2.080000 2.000000 5.880000 174.734558 24.049261 31110.533203
2.080000 2.000000 5.920000 185.670746 134.072662 52449.101562
2.080000 2.000000 5.960000 105.859711 232.637863 65326.652344
2.080000 2.000000 6.000000 -26.045853 248.263580 62313.191406
2.080000 2.000000 6.040000 -127.126740 169.957642 45046.808594
2.080000 2.000000 6.080000 -140.398178 57.567581 23025.675781
2.080000 2.000000 6.120000 -80.518768 -11.891533 6624.680664
2.080000 2.000000 6.160000 -12.920378 -9.439829 256.046509
2.080000 2.000000 6.200000 9.492624 30.536211 1022.570129
2.080000 2.040000 5.800000 47.926548 16.092207 2555.913330
2.080000 2.040000 5.840000 97.324799 36.292885 10789.290039
2.080000 2.040000 5.880000 121.443787 110.944748 27057.332031
2.080000 2.040000 5.920000 74.775322 199.795532 45509.601562
2.080000 2.040000 5.960000 -34.562176 236.043518 56911.085938
2.080000 2.040000 6.000000 -143.736298 185.041168 54900.359375
2.080000 2.040000 6.040000 -186.039062 77.464966 40611.351562
2.080000 2.040000 6.080000 -146.682419 -16.181128 21777.560547
2.080000 2.040000 6.120000 -71.039604 -45.572945 7123.518555
2.080000 2.040000 6.160000 -19.854214 -18.062778 720.453735
2.080000 2.040000 6.200000 -16.942173 18.767365 639.251221
2.080000 2.080000 5.800000 25.016407 37.981590 2068.421875
2.080000 2.080000 5.840000 46.345749 73.119835 7494.438477
2.080000 2.080000 5.880000 27.966738 130.803101 17891.589844
2.080000 2.080000 5.920000 -40.496677 167.091354 29559.501953
2.080000 2.080000 5.960000 -126.483833 144.634064 36917.171875
2.080000 2.080000 6.000000 -177.800812 67.288986 36140.937500
2.080000 2.080000 6.040000 -165.344040 -20.638077 27764.582031
2.080000 2.080000 6.080000 -105.835480 -70.562973 16180.281250
2.080000 2.080000 6.120000 -44.446293 -67.456657 6525.873047
2.080000 2.080000 6.160000 -15.674612 -35.551338 1509.591187
2.080000 2.080000 6.200000 -19.415413 -10.548460 488.228271
2.080000 2.120000 5.800000 -2.755764 38.224991 1468.744141
2.080000 2.120000 5.840000 -8.381470 63.189873 4063.208984
2.080000 2.120000 5.880000 -40.126396 82.742065 8456.376953
2.080000 2.120000 5.920000 -86.651062 74.973259 13129.396484
2.080000 2.120000 5.960000 -122.168297 34.772194 16134.198242
2.080000 2.120000 6.000000 -125.638596 -20.972000 16224.881836
2.080000 2.120000 6.040000 -95.968124 -65.729904 13530.300781
2.080000 2.120000 6.080000 -51.054482 -82.062614 9340.832031
2.080000 2.120000 6.120000 -13.313931 -71.287926 5259.229004
2.080000 2.120000 6.160000 5.098325 -48.265877 2355.587891
2.080000 2.120000 6.200000 6.335865 -28.459278 850.073669
2.080000 2.160000 5.800000 -19.445536 24.035870 955.851868
2.080000 2.160000 5.840000 -33.374306 25.259941 1751.908936
2.080000 2.160000 5.880000 -47.356373 16.003525 2498.738770
2.080000 2.160000 5.920000 -54.816246 0.090172 3004.828857
2.080000 2.160000 5.960000 -55.174103 -17.252083 3341.815918
2.080000 2.160000 6.000000 -49.980862 -34.471455 3686.367676
2.080000 2.160000 6.040000 -37.842907 -51.269264 4060.623047
2.080000 2.160000 6.080000 -16.202168 -63.010418 4232.822754
2.080000 2.160000 6.120000 11.541485 -61.313065 3892.497803
2.080000 2.160000 6.160000 33.550037 -42.691238 2948.146973
2.080000 2.160000 6.200000 37.751488 -15.876795 1677.247437
2.080000 2.200000 5.800000 -22.932053 9.719393 620.345642
2.080000 2.200000 5.840000 -25.663635 -7.226423 710.843384
2.080000 2.200000 5.880000 -12.563953 -18.809929 511.666321
2.080000 2.200000 5.920000 2.103565 -13.345734 182.533600
2.080000 2.200000 5.960000 1.049454 0.326366 1.207868
2.080000 2.200000 6.000000 -14.588455 1.407778 214.804871
2.080000 2.200000 6.040000 -23.727806 -18.542965 906.850342
2.080000 2.200000 6.080000 -7.758410 -42.954975 1905.322754
2.080000 2.200000 6.120000 26.967468 -45.417187 2789.965332
2.080000 2.200000 6.160000 52.461388 -17.955761 3074.606689
2.080000 2.200000 6.200000 46.803177 18.321016 2526.197021
2.120000 1.800000 5.800000 -17.671612 5.034264 337.629669
2.120000 1.800000 5.840000 -17.815956 -0.557473 317.719086
2.120000 1.800000 5.880000 -15.202169 -4.978844 255.894836
2.120000 1.800000 5.920000 -11.209240 -7.016462 174.877808
2.120000 1.800000 5.960000 -7.398502 -6.653858 99.011673
2.120000 1.800000 6.000000 -4.803101 -4.503227 43.348831
2.120000 1.800000 6.040000 -4.160016 -1.317806 19.042343
2.120000 1.800000 6.080000 -6.114491 1.641918 40.082890
2.120000 1.800000 6.120000 -10.371552 2.319805 112.950577
2.120000 1.800000 6.160000 -14.661723 -1.000601 215.967331
2.120000 1.800000 6.200000 -15.470830 -7.574502 296.719635
2.120000 1.840000 5.800000 -18.210606 -17.208794 627.768738
2.120000 1.840000 5.840000 -15.896275 -27.432241 1005.219421
2.120000 1.840000 5.880000 -5.210640 -37.600166 1440.923218
2.120000 1.840000 5.920000 13.039215 -39.272095 1712.318481
2.120000 1.840000 5.960000 29.900902 -27.221207 1635.057983
2.120000 1.840000 6.000000 34.368950 -5.931450 1216.406860
2.120000 1.840000 6.040000 22.827522 12.187500 669.630920
2.120000 1.840000 6.080000 3.005033 16.138844 269.492493
2.120000 1.840000 6.120000 -11.662390 5.127900 162.306702
2.120000 1.840000 6.160000 -12.569562 -11.100558 281.216278
2.120000 1.840000 6.200000 -2.085499 -20.605711 428.944641
2.120000 1.880000 5.800000 1.710534 -34.475662 1191.497192
2.120000 1.880000 5.840000 11.517130 -48.249348 2460.643799
2.120000 1.880000 5.880000 37.168877 -55.417137 4452.584473
2.120000 1.880000 5.920000 68.665329 -40.368210 6344.519531
2.120000 1.880000 5.960000 84.004723 -2.754044 7064.378418
2.120000 1.880000 6.000000 68.475670 37.483219 6093.909180
2.120000 1.880000 6.040000 29.892094 54.957932 3913.911621
2.120000 1.880000 6.080000 -6.109386 40.536121 1680.501709
2.120000 1.880000 6.120000 -17.332863 9.137999 383.931152
2.120000 1.880000 6.160000 -2.961517 -13.954653 203.502914
2.120000 1.880000 6.200000 18.408390 -14.994379 563.700256
2.120000 1.920000 5.800000 31.202152 -30.100552 1879.617432
2.120000 1.920000 5.840000 51.805050 -40.927795 4358.847656
2.120000 1.920000 5.880000 88.473785 -31.184189 8800.064453
2.120000 1.920000 5.920000 115.648613 11.380531 13504.118164
2.120000 1.920000 5.960000 105.100159 69.622742 15893.369141
2.120000 1.920000 6.000000 54.452427 106.892296 14391.029297
2.120000 1.920000 6.040000 -6.283318 98.365494 9715.250977
2.120000 1.920000 6.080000 -38.838005 53.774364 4400.073242
2.120000 1.920000 6.120000 -29.138548 8.824667 926.929749
2.120000 1.920000 6.160000 2.965158 -6.597235 52.315666
2.120000 1.920000 6.200000 25.075455 7.424145 683.896362
2.120000 1.960000 5.800000 48.745449 -3.263787 2386.771240
2.120000 1.960000 5.840000 76.639709 -2.689819 5880.880371
2.120000 1.960000 5.880000 108.312592 30.513523 12662.692383
2.120000 1.960000 5.920000 108.587860 91.904922 20237.837891
2.120000 1.960000 5.960000 59.665768 144.830185 24535.787109
2.120000 1.960000 6.000000 -16.577213 150.191345 22832.244141
2.120000 1.960000 6.040000 -73.371674 102.655930 15921.642578
2.120000 1.960000 6.080000 -78.820396 37.105808 7589.496094
2.120000 1.960000 6.120000 -42.416710 -1.982651 1803.108154
2.120000 1.960000 6.160000 -3.003596 1.441313 11.098974
2.120000 1.960000 6.200000 8.586387 26.017242 750.622925
2.120000 2.000000 5.800000 40.632622 28.294540 2451.591064
2.120000 2.000000 5.840000 65.798035 43.667694 6236.249023
2.120000 2.000000 5.880000 75.486626 91.092209 13996.020508
2.120000 2.000000 5.920000 40.861008 145.877975 22950.003906
2.120000 2.000000 5.960000 -32.674503 165.292725 28389.308594
2.120000 2.000000 6.000000 -103.669708 127.490280 27001.179688
2.120000 2.000000 6.040000 -128.474243 54.095490 19431.953125
2.120000 2.000000 6.080000 -98.961456 -7.160782 9844.646484
2.120000 2.000000 6.120000 -47.552994 -23.609499 2818.695557
2.120000 2.000000 6.160000 -15.531284 -2.786900 248.987610
2.120000 2.000000 6.200000 -16.839798 21.176039 732.003418
2.120000 2.040000 5.800000 13.433742 43.118095 2039.635620
2.120000 2.040000 5.840000 25.892090 67.636765 5245.132324
2.120000 2.040000 5.880000 9.644506 109.298798 12039.244141
2.120000 2.040000 5.920000 -44.559963 134.362457 20038.859375
2.120000 2.040000 5.960000 -111.199799 113.187164 25176.730469
2.120000 2.040000 6.000000 -148.455017 49.592667 24498.324219
2.120000 2.040000 6.040000 -134.057007 -19.520063 18352.314453
2.120000 2.040000 6.080000 -84.079910 -55.105614 10106.059570
2.120000 2.040000 6.120000 -36.888088 -47.821404 3647.617676
2.120000 2.040000 6.160000 -18.912054 -21.000326 798.679504
2.120000 2.040000 6.200000 -25.637989 -4.488808 677.455872
2.120000 2.080000 5.800000 -12.277756 34.748177 1358.179077
2.120000 2.080000 5.840000 -15.097860 56.912395 3466.966064
2.120000 2.080000 5.880000 -44.495052 76.975235 7904.996582
2.120000 2.080000 5.920000 -91.048080 69.747726 13154.498047
2.120000 2.080000 5.960000 -126.295876 27.731367 16719.677734
2.120000 2.080000 6.000000 -126.006851 -29.819145 16766.908203
2.120000 2.080000 6.040000 -90.602676 -71.827637 13368.054688
2.120000 2.080000 6.080000 -43.739326 -80.303452 8361.773438
2.120000 2.080000 6.120000 -11.481326 -62.198608 4000.487793
2.120000 2.080000 6.160000 -2.481660 -39.005444 1527.583374
2.120000 2.080000 6.200000 -6.497958 -26.437397 741.159424
2.120000 2.120000 5.800000 -21.176567 15.885217 700.787109
2.120000 2.120000 5.840000 -32.688194 26.197329 1754.818115
2.120000 2.120000 5.880000 -55.903774 24.384163 3719.819336
2.120000 2.120000 5.920000 -77.058952 3.352726 5949.322754
2.120000 2.120000 5.960000 -81.542862 -30.398643 7573.315918
2.120000 2.120000 6.000000 -64.739929 -61.697815 7997.878906
2.120000 2.120000 6.040000 -34.238377 -77.578568 7190.700684
2.120000 2.120000 6.080000 -3.160639 -74.700912 5590.216309
2.120000 2.120000 6.120000 18.329441 -58.682957 3779.657959
2.120000 2.120000 6.160000 26.898996 -38.482128 2204.430176
2.120000 2.120000 6.200000 24.785480 -21.444147 1074.171509
2.120000 2.160000 5.800000 -16.179670 4.055375 278.227814
2.120000 2.160000 5.840000 -25.643192 0.887873 658.361633
2.120000 2.160000 5.880000 -31.368254 -9.478905 1073.817017
2.120000 2.160000 5.920000 -30.576227 -21.703495 1405.947266
2.120000 2.160000 5.960000 -25.319069 -32.508759 1697.874512
2.120000 2.160000 6.000000 -16.780357 -42.440620 2082.786621
2.120000 2.160000 6.040000 -2.568047 -50.866741 2594.020264
2.120000 2.160000 6.080000 18.395645 -52.011181 3043.562500
2.120000 2.160000 6.120000 39.581024 -39.297379 3110.941406
2.120000 2.160000 6.160000 48.853241 -14.588650 2599.467773
2.120000 2.160000 6.200000 39.467747 9.124506 1640.959595
2.120000 2.200000 5.800000 -12.293215 3.798481 165.551590
2.120000 2.200000 5.840000 -11.844772 -6.981590 189.041229
2.120000 2.200000 5.880000 -2.825689 -11.141987 132.128387
2.120000 2.200000 5.920000 2.633652 -5.601830 38.316616
2.120000 2.200000 5.960000 -2.576080 -1.266610 8.240491
2.120000 2.200000 6.000000 -9.759224 -9.548370 186.413834
2.120000 2.200000 6.040000 -2.998987 -26.128052 691.669006
2.120000 2.200000 6.080000 21.051336 -32.203125 1480.199951
2.120000 2.200000 6.120000 45.238594 -14.368647 2252.988281
2.120000 2.200000 6.160000 47.271660 18.217966 2566.504150
2.120000 2.200000 6.200000 23.469818 39.955894 2147.305908
2.160000 1.800000 5.800000 -21.639929 -13.349618 646.498840
2.160000 1.800000 5.840000 -13.743691 -15.873782 440.866028
2.160000 1.800000 5.880000 -8.798673 -13.853422 269.333954
2.160000 1.800000 5.920000 -7.769548 -12.293708 211.501129
2.160000 1.800000 5.960000 -6.795119 -13.769517 235.773239
2.160000 1.800000 6.000000 -2.272860 -15.488852 245.070419
2.160000 1.800000 6.040000 4.209361 -12.740219 180.031906
2.160000 1.800000 6.080000 6.978029 -5.088708 74.587845
2.160000 1.800000 6.120000 2.697494 1.921814 10.969845
2.160000 1.800000 6.160000 -5.018119 2.110900 29.637421
2.160000 1.800000 6.200000 -8.493662 -4.400822 91.509529
2.160000 1.840000 5.800000 -1.292949 -31.118433 970.028564
2.160000 1.840000 5.840000 8.514983 -26.879242 794.998596
2.160000 1.840000 5.880000 13.255325 -20.526453 597.038940
2.160000 1.840000 5.920000 15.010914 -15.483585 465.068939
2.160000 1.840000 5.960000 16.533663 -11.269123 400.355133
2.160000 1.840000 6.000000 17.502262 -5.677193 338.559723
2.160000 1.840000 6.040000 15.107058 0.983517 229.190491
2.160000 1.840000 6.080000 8.380383 4.876358 94.009689
2.160000 1.840000 6.120000 1.024680 2.546026 7.532219
2.160000 1.840000 6.160000 -1.202233 -4.456335 21.304287
2.160000 1.840000 6.200000 3.676705 -9.827188 110.091789
2.160000 1.880000 5.800000 29.178776 -25.897039 1522.057617
2.160000 1.880000 5.840000 35.580315 -15.203897 1497.117188
2.160000 1.880000 5.880000 37.405121 -4.724068 1421.459839
2.160000 1.880000 5.920000 36.363495 5.231874 1349.676270
2.160000 1.880000 5.960000 31.847439 14.968468 1238.314331
2.160000 1.880000 6.000000 22.534050 22.270853 1003.774292
2.160000 1.880000 6.040000 10.190931 23.117893 638.292114
2.160000 1.880000 6.080000 0.508395 16.065950 258.373230
2.160000 1.880000 6.120000 -1.038510 5.383248 30.057867
2.160000 1.880000 6.160000 5.407238 -1.362373 31.094278
2.160000 1.880000 6.200000 13.444586 0.246829 180.817810
2.160000 1.920000 5.800000 46.299652 3.508395 2155.966553
2.160000 1.920000 5.840000 45.810150 16.529034 2371.778809
2.160000 1.920000 5.880000 42.174587 28.911848 2614.590820
2.160000 1.920000 5.920000 33.906212 41.092545 2838.228516
2.160000 1.920000 5.960000 19.028812 49.595119 2821.771484
2.160000 1.920000 6.000000 0.314127 48.659424 2367.838135
2.160000 1.920000 6.040000 -14.059628 36.569492 1535.000854
2.160000 1.920000 6.080000 -16.682386 19.587713 661.980469
2.160000 1.920000 6.120000 -8.066397 8.110441 130.846008
2.160000 1.920000 6.160000 3.025506 7.880746 71.259842
2.160000 1.920000 6.200000 7.295338 15.068938 280.294861
2.160000 1.960000 5.800000 34.484840 37.244255 2576.338867
2.160000 1.960000 5.840000 27.783577 47.385696 3017.331543
2.160000 1.960000 5.880000 18.178644 57.784229 3669.480225
2.160000 1.960000 5.920000 1.864155 65.941788 4351.794434
2.160000 1.960000 5.960000 -20.110640 64.691490 4589.426758
2.160000 1.960000 6.000000 -38.967674 49.874313 4005.926758
2.160000 1.960000 6.040000 -44.520927 26.987743 2710.451416
2.160000 1.960000 6.080000 -34.924366 8.548444 1292.787231
2.160000 1.960000 6.120000 -19.363543 3.602374 387.923889
2.160000 1.960000 6.160000 -10.034677 9.832102 197.364960
2.160000 1.960000 6.200000 -11.135827 16.599899 399.563324
2.160000 2.000000 5.800000 1.376432 50.211029 2523.041992
2.160000 2.000000 5.840000 -7.520216 54.794678 3059.010498
2.160000 2.000000 5.880000 -20.631535 59.801949 4001.933105
2.160000 2.000000 5.920000 -40.214249 58.772350 5071.375000
2.160000 2.000000 5.960000 -59.924713 44.960083 5612.380371
2.160000 2.000000 6.000000 -68.536697 20.315205 5109.986328
2.160000 2.000000 6.040000 -60.456772 -3.600099 3667.981934
2.160000 2.000000 6.080000 -41.987892 -14.937907 1986.124146
2.160000 2.000000 6.120000 -26.136965 -11.990438 826.911560
2.160000 2.000000 6.160000 -20.866383 -3.861921 450.320343
2.160000 2.000000 6.200000 -22.830597 -0.691730 521.714661
2.160000 2.040000 5.800000 -27.791748 34.485489 1961.630127
2.160000 2.040000 5.840000 -34.993492 34.759121 2432.740967
2.160000 2.040000 5.880000 -47.500534 33.615036 3386.271484
2.160000 2.040000 5.920000 -63.042362 23.714144 4536.700195
2.160000 2.040000 5.960000 -72.411255 3.020880 5252.515137
2.160000 2.040000 6.000000 -67.756226 -21.011263 5032.379395
2.160000 2.040000 6.040000 -50.573208 -36.921883 3920.875000
2.160000 2.040000 6.080000 -30.875324 -39.121040 2483.741455
2.160000 2.040000 6.120000 -18.263077 -32.062187 1361.523926
2.160000 2.040000 6.160000 -14.142035 -24.724220 811.284180
2.160000 2.040000 6.200000 -12.753153 -21.617355 629.953003
2.160000 2.080000 5.800000 -32.975861 6.491243 1129.543579
2.160000 2.080000 5.840000 -37.665630 5.392735 1447.781250
2.160000 2.080000 5.880000 -46.359200 0.135134 2149.193604
2.160000 2.080000 5.920000 -53.430786 -13.030560 3024.644287
2.160000 2.080000 5.960000 -51.967205 -31.164362 3671.807861
2.160000 2.080000 6.000000 -40.098774 -46.577194 3777.346680
2.160000 2.080000 6.040000 -22.522699 -53.107063 3327.632080
2.160000 2.080000 6.080000 -6.219194 -50.351509 2573.952881
2.160000 2.080000 6.120000 4.775681 -42.340084 1815.489868
2.160000 2.080000 6.160000 10.604744 -33.090576 1207.446777
2.160000 2.080000 6.200000 12.838837 -24.100428 745.666382
2.160000 2.120000 5.800000 -17.479553 -9.184269 389.885590
2.160000 2.120000 5.840000 -21.328594 -10.600983 567.289795
2.160000 2.120000 5.880000 -25.250084 -16.989576 926.212402
2.160000 2.120000 5.920000 -25.064983 -26.978380 1356.086426
2.160000 2.120000 5.960000 -19.316198 -36.975918 1740.333984
2.160000 2.120000 6.000000 -9.044840 -44.085976 2025.382324
2.160000 2.120000 6.040000 4.142740 -46.701206 2198.165039
2.160000 2.120000 6.080000 18.431515 -43.349995 2218.942871
2.160000 2.120000 6.120000 30.440166 -32.936916 2011.444214
2.160000 2.120000 6.160000 35.358498 -17.195148 1545.896484
2.160000 2.120000 6.200000 30.373102 -2.046782 926.714661
2.160000 2.160000 5.800000 -3.118473 -3.759595 23.859428
2.160000 2.160000 5.840000 -6.737554 -7.287576 98.503387
2.160000 2.160000 5.880000 -6.440573 -12.567973 199.434921
2.160000 2.160000 5.920000 -3.833260 -16.487980 286.547363
2.160000 2.160000 5.960000 -1.052628 -20.083790 404.466644
2.160000 2.160000 6.000000 3.871075 -25.354717 657.846924
2.160000 2.160000 6.040000 14.922942 -29.471123 1091.241211
2.160000 2.160000 6.080000 30.873741 -25.063374 1581.360596
2.160000 2.160000 6.120000 42.391403 -8.361460 1866.945068
2.160000 2.160000 6.160000 39.299999 13.615636 1729.875488
2.160000 2.160000 6.200000 21.751024 26.718151 1186.966675
2.160000 2.200000 5.800000 -6.960285 8.112193 114.253250
2.160000 2.200000 5.840000 -7.446532 0.919711 56.296711
2.160000 2.200000 5.880000 -3.722768 -1.668589 16.643188
2.160000 2.200000 5.920000 -2.995869 -0.806949 9.626395
2.160000 2.200000 5.960000 -5.401502 -3.805384 43.657166
2.160000 2.200000 6.000000 -2.524551 -12.631422 165.926178
2.160000 2.200000 6.040000 11.518553 -18.006886 456.924988
2.160000 2.200000 6.080000 29.371105 -8.337335 932.172974
2.160000 2.200000 6.120000 34.627899 15.326967 1434.007324
2.160000 2.200000 6.160000 18.834723 36.211300 1666.005127
2.160000 2.200000 6.200000 -7.041435 36.906158 1411.646362
2.200000 1.800000 5.800000 -10.559281 -27.075769 844.595703
2.200000 1.800000 5.840000 -1.223746 -22.049253 487.667145
2.200000 1.800000 5.880000 -0.099194 -15.948480 254.363846
2.200000 1.800000 5.920000 -2.252569 -15.943121 259.257172
2.200000 1.800000 5.960000 0.660247 -20.482330 419.961761
2.200000 1.800000 6.000000 10.571350 -21.031191 554.064453
2.200000 1.800000 6.040000 20.044735 -11.825022 541.622559
2.200000 1.800000 6.080000 19.827497 2.888977 401.475861
2.200000 1.800000 6.120000 9.011693 12.333220 233.318909
2.200000 1.800000 6.160000 -3.289539 10.085165 112.531624
2.200000 1.800000 6.200000 -6.924953 0.766756 48.542892
2.200000 1.840000 5.800000 18.666250 -27.036869 1079.421143
2.200000 1.840000 5.840000 20.807661 -10.936958 552.575806
2.200000 1.840000 5.880000 11.404487 -2.548227 136.555771
2.200000 1.840000 5.920000 3.001020 -6.687398 53.727413
2.200000 1.840000 5.960000 5.432207 -15.078672 256.875244
2.200000 1.840000 6.000000 16.059254 -15.637253 502.423309
2.200000 1.840000 6.040000 23.257267 -5.248355 568.445679
2.200000 1.840000 6.080000 19.083654 7.371302 418.521942
2.200000 1.840000 6.120000 7.501033 11.409355 186.438873
2.200000 1.840000 6.160000 -0.445391 5.419106 29.565079
2.200000 1.840000 6.200000 1.304763 -1.794558 4.922844
2.200000 1.880000 5.800000 38.787548 -1.040642 1505.556763
2.200000 1.880000 5.840000 25.423456 17.099077 938.730591
2.200000 1.880000 5.880000 5.529045 17.356632 331.823029
2.200000 1.880000 5.920000 -3.813358 3.203408 24.803526
2.200000 1.880000 5.960000 3.274160 -9.800609 106.772057
2.200000 1.880000 6.000000 17.191740 -9.347219 382.926453
2.200000 1.880000 6.040000 23.620802 2.682875 565.140076
2.200000 1.880000 6.080000 17.593523 14.049650 506.924713
2.200000 1.880000 6.120000 6.684079 15.525866 285.729401
2.200000 1.880000 6.160000 1.324548 9.340847 89.005852
2.200000 1.880000 6.200000 3.745754 4.716940 36.280201
2.200000 1.920000 5.800000 30.361576 33.880898 2069.740479
2.200000 1.920000 5.840000 3.583291 40.526783 1655.260132
2.200000 1.920000 5.880000 -17.422554 25.270500 942.143555
2.200000 1.920000 5.920000 -18.224289 1.895967 335.719391
2.200000 1.920000 5.960000 -1.850233 -10.659158 117.041008
2.200000 1.920000 6.000000 15.445501 -4.790987 261.517059
2.200000 1.920000 6.040000 19.677147 10.955129 507.204956
2.200000 1.920000 6.080000 10.520782 21.987930 594.155945
2.200000 1.920000 6.120000 -1.382855 21.402109 459.962555
2.200000 1.920000 6.160000 -6.417217 14.002136 237.240494
2.200000 1.920000 6.200000 -4.232557 8.672473 93.126328
2.200000 1.960000 5.800000 -3.632345 50.270451 2540.312012
2.200000 1.960000 5.840000 -31.070496 38.076332 2415.182617
2.200000 1.960000 5.880000 -40.389389 10.288232 1737.150391
2.200000 1.960000 5.920000 -26.651382 -13.198628 884.500000
2.200000 1.960000 5.960000 -2.596344 -17.013264 296.192139
2.200000 1.960000 6.000000 12.923351 -2.303425 172.318787
2.200000 1.960000 6.040000 10.617656 16.224611 375.972626
2.200000 1.960000 6.080000 -3.547203 24.147438 595.681396
2.200000 1.960000 6.120000 -16.214247 18.581409 608.170532
2.200000 1.960000 6.160000 -18.942900 7.601509 416.616364
2.200000 1.960000 6.200000 -13.446873 0.788936 181.440811
2.200000 2.000000 5.800000 -37.898129 34.399742 2619.610352
2.200000 2.000000 5.840000 -51.905556 8.931077 2773.950928
2.200000 2.000000 5.880000 -43.553913 -18.916601 2254.781250
2.200000 2.000000 5.920000 -18.953587 -31.202991 1332.865112
2.200000 2.000000 5.960000 4.093456 -21.867329 494.936432
2.200000 2.000000 6.000000 10.512096 -0.984314 111.473045
2.200000 2.000000 6.040000 -0.676198 14.421039 208.423599
2.200000 2.000000 6.080000 -17.416048 14.294571 507.653503
2.200000 2.000000 6.120000 -25.964340 2.099994 678.556946
2.200000 2.000000 6.160000 -21.686405 -10.432294 579.132935
2.200000 2.000000 6.200000 -10.610552 -14.003811 308.690521
2.200000 2.040000 5.800000 -46.455547 -0.255293 2158.183105
2.200000 2.040000 5.840000 -42.882164 -24.695210 2448.733398
2.200000 2.040000 5.880000 -22.956858 -40.137196 2138.011719
2.200000 2.040000 5.920000 0.984667 -36.909882 1363.308960
2.200000 2.040000 5.960000 13.442508 -18.817432 534.796753
2.200000 2.040000 6.000000 7.985012 -0.313693 63.858814
2.200000 2.040000 6.040000 -7.979867 5.180074 90.511429
2.200000 2.040000 6.080000 -19.989561 -4.256940 417.704102
2.200000 2.040000 6.120000 -18.644091 -18.656656 695.672974
2.200000 2.040000 6.160000 -6.445003 -25.515564 692.582092
2.200000 2.040000 6.200000 5.826170 -20.085897 437.387512
2.200000 2.080000 5.800000 -26.387585 -24.704716 1306.627686
2.200000 2.080000 5.840000 -13.737270 -37.071274 1562.991943
2.200000 2.080000 5.880000 4.771492 -37.545444 1432.427490
2.200000 2.080000 5.920000 17.774582 -25.102898 946.091187
2.200000 2.080000 5.960000 17.078629 -8.687189 367.146820
2.200000 2.080000 6.000000 5.066304 -0.610497 26.040138
2.200000 2.080000 6.040000 -6.738718 -6.172086 83.504959
2.200000 2.080000 6.080000 -7.460433 -18.964130 415.296326
2.200000 2.080000 6.120000 3.687706 -26.560675 719.068604
2.200000 2.080000 6.160000 17.023506 -21.580589 755.521606
2.200000 2.080000 6.200000 21.398882 -7.883261 520.057922
2.200000 2.120000 5.800000 -0.262840 -21.504583 462.516205
2.200000 2.120000 5.840000 8.978523 -22.678404 594.923889
2.200000 2.120000 5.880000 17.383675 -16.487976 574.045532
2.200000 2.120000 5.920000 18.436035 -5.978834 375.633850
2.200000 2.120000 5.960000 11.004774 0.652317 121.530563
2.200000 2.120000 6.000000 2.102746 -2.561692 10.983809
2.200000 2.120000 6.040000 1.303878 -12.608294 160.669189
2.200000 2.120000 6.080000 11.280597 -19.048908 490.112762
2.200000 2.120000 6.120000 24.136118 -13.649497 768.860962
2.200000 2.120000 6.160000 28.213640 1.157005 797.348206
2.200000 2.120000 6.200000 19.267971 13.938558 565.538086
2.200000 2.160000 5.800000 6.119837 -0.947382 38.349937
2.200000 2.160000 5.840000 7.275572 -0.844607 53.647305
2.200000 2.160000 5.880000 7.731297 1.756363 62.857773
2.200000 2.160000 5.920000 4.458578 4.027859 36.102566
2.200000 2.160000 5.960000 -0.316760 1.163924 1.455057
2.200000 2.160000 6.000000 0.188761 -6.665923 44.470154
2.200000 2.160000 6.040000 9.615512 -11.869527 233.343735
2.200000 2.160000 6.080000 22.203112 -6.173284 531.087646
2.200000 2.160000 6.120000 26.352144 9.612131 786.828552
2.200000 2.160000 6.160000 16.068108 24.031710 835.707153
2.200000 2.160000 6.200000 -1.579907 25.128250 633.925049
2.200000 2.200000 5.800000 -10.756140 10.011700 215.928680
2.200000 2.200000 5.840000 -11.299843 3.893719 142.847488
2.200000 2.200000 5.880000 -10.062435 0.536263 101.540176
2.200000 2.200000 5.920000 -9.751534 -2.620447 101.959167
2.200000 2.200000 5.960000 -7.465590 -8.202704 123.019394
2.200000 2.200000 6.000000 1.154016 -12.589158 159.818665
2.200000 2.200000 6.040000 13.661366 -8.091040 252.097824
2.200000 2.200000 6.080000 19.680548 7.245765 439.825043
2.200000 2.200000 6.120000 10.716840 23.778402 680.263062
2.200000 2.200000 6.160000 -8.889006 27.382439 828.812378
2.200000 2.200000 6.200000 -23.381001 13.966723 741.740601
