#kx 	ky 	kz 	real 	imag 	intensity
1.800000 1.800000 5.983333 -100.859787 -31.609152 11171.834961
1.800000 1.800000 5.991667 -1.576900 -38.095158 1453.727661
1.800000 1.800000 6.000000 -25.135263 12.603994 790.642151
1.800000 1.800000 6.008333 -53.015312 -23.470356 3361.480957
1.800000 1.800000 6.016667 -11.301010 -26.815210 846.768311
1.800000 1.900000 5.983333 -6.533827 -75.369659 5723.276367
1.800000 1.900000 5.991667 59.633236 27.050018 4287.826172
1.800000 1.900000 6.000000 -82.688194 -22.154266 7328.148926
1.800000 1.900000 6.008333 54.699448 -75.653870 8715.537109
1.800000 1.900000 6.016667 26.113834 -8.690220 757.452271
1.800000 2.000000 5.983333 44.040516 -15.393932 2176.540283
1.800000 2.000000 5.991667 -10.261192 24.997879 730.186035
1.800000 2.000000 6.000000 61.700729 -62.840023 7755.848633
1.800000 2.000000 6.008333 68.533493 73.396004 10083.812500
1.800000 2.000000 6.016667 34.929508 71.959564 6398.249023
1.800000 2.100000 5.983333 -5.610016 27.999739 815.457642
1.800000 2.100000 5.991667 46.005657 28.819973 2947.111328
1.800000 2.100000 6.000000 -39.296963 115.845894 14964.522461
1.800000 2.100000 6.008333 -59.721073 7.135754 3617.525635
1.800000 2.100000 6.016667 -109.853737 74.375504 17599.558594
1.800000 2.200000 5.983333 0.809334 -30.304096 918.993286
1.800000 2.200000 5.991667 -31.045399 79.395233 7267.419922
1.800000 2.200000 6.000000 -107.106689 -124.460419 26962.238281
1.800000 2.200000 6.008333 89.069290 -31.975122 8955.747070
1.800000 2.200000 6.016667 -58.029449 -74.021736 8846.634766
1.900000 1.800000 5.983333 -95.890160 -29.421638 10060.555664
1.900000 1.800000 5.991667 -34.758320 -131.667999 18544.603516
1.900000 1.800000 6.000000 38.482273 8.161366 1547.493286
1.900000 1.800000 6.008333 -89.332611 -68.842079 12719.546875
1.900000 1.800000 6.016667 63.866280 -59.412502 7608.747070
1.900000 1.900000 5.983333 349.452515 -375.262299 262938.875000
1.900000 1.900000 5.991667 -444.133514 945.894531 1091971.000000
1.900000 1.900000 6.000000 -1165.207642 -804.571472 2005044.125000
1.900000 1.900000 6.008333 218.348053 -754.493958 616937.000000
1.900000 1.900000 6.016667 167.436325 -509.930084 288063.625000
1.900000 2.000000 5.983333 642.949463 453.160400 618738.375000
1.900000 2.000000 5.991667 -1587.809082 -498.064667 2769206.250000
1.900000 2.000000 6.000000 951.927246 -1936.312500 4655471.500000
1.900000 2.000000 6.008333 1113.771606 94.164185 1249354.125000
1.900000 2.000000 6.016667 870.390503 127.597504 773860.750000
1.900000 2.100000 5.983333 -183.055817 519.125854 303001.093750
1.900000 2.100000 5.991667 77.243805 -973.816040 954284.312500
1.900000 2.100000 6.000000 1243.128906 337.541168 1659303.500000
1.900000 2.100000 6.008333 101.090454 709.927307 514216.062500
1.900000 2.100000 6.016667 -68.685188 574.806519 335120.187500
1.900000 2.200000 5.983333 -80.603081 115.036087 19730.158203
1.900000 2.200000 5.991667 -154.638138 -118.854279 38039.292969
1.900000 2.200000 6.000000 122.338417 -78.053467 21059.031250
1.900000 2.200000 6.008333 -59.934906 87.442101 11238.314453
1.900000 2.200000 6.016667 -19.196890 -118.221573 14344.860352
2.000000 1.800000 5.983333 -96.870216 -150.801529 32124.941406
2.000000 1.800000 5.991667 178.723526 -123.723511 47249.605469
2.000000 1.800000 6.000000 -15.455643 64.718704 4427.387695
2.000000 1.800000 6.008333 34.334023 -164.953217 28388.388672
2.000000 1.800000 6.016667 128.215027 43.001579 18288.230469
2.000000 1.900000 5.983333 631.140869 372.811646 537327.312500
2.000000 1.900000 5.991667 -1488.277344 -453.315826 2420464.750000
2.000000 1.900000 6.000000 867.306213 -1990.330322 4713635.000000
2.000000 1.900000 6.008333 1285.694702 51.203430 1655632.625000
2.000000 1.900000 6.016667 859.174316 174.574280 768656.687500
2.000000 2.000000 5.983333 -525.889221 1053.645752 1386728.875000
2.000000 2.000000 5.991667 404.386658 -2519.049316 6509138.000000
2.000000 2.000000 6.000000 3236.958984 897.601746 11283592.000000
2.000000 2.000000 6.008333 242.361389 1822.410767 3379920.000000
2.000000 2.000000 6.016667 22.811157 1414.146484 2000330.625000
2.000000 2.100000 5.983333 -823.549622 -169.010757 706798.625000
2.000000 2.100000 5.991667 1564.626465 -69.571167 2452896.250000
2.000000 2.100000 6.000000 -226.725449 2088.550537 4413448.000000
2.000000 2.100000 6.008333 -1127.900757 352.523560 1396433.000000
2.000000 2.100000 6.016667 -948.567871 107.797089 911401.187500
2.000000 2.200000 5.983333 -171.765594 -129.600586 46299.734375
2.000000 2.200000 5.991667 122.184311 -163.502869 41662.195312
2.000000 2.200000 6.000000 21.783524 43.268646 2346.697754
2.000000 2.200000 6.008333 -33.638947 -118.381027 15145.646484
2.000000 2.200000 6.016667 119.788666 -84.104065 21422.818359
2.100000 1.800000 5.983333 86.185760 -86.054626 14833.384766
2.100000 1.800000 5.991667 59.817253 106.678589 14958.424805
2.100000 1.800000 6.000000 -43.789894 -16.622932 2193.876709
2.100000 1.800000 6.008333 94.855255 -12.145695 9145.037109
2.100000 1.800000 6.016667 21.787621 107.307266 11989.549805
2.100000 1.900000 5.983333 -171.664124 407.841034 195802.890625
2.100000 1.900000 5.991667 163.723114 -988.235352 1003414.375000
2.100000 1.900000 6.000000 1353.021729 324.045044 1935673.000000
2.100000 1.900000 6.008333 145.631073 848.084473 740455.687500
2.100000 1.900000 6.016667 -66.587669 579.530029 340288.968750
2.100000 2.000000 5.983333 -677.601318 -274.810608 534664.375000
2.100000 2.000000 5.991667 1611.611084 65.098633 2601528.000000
2.100000 2.000000 6.000000 -226.272079 2110.629395 4505955.500000
2.100000 2.000000 6.008333 -1166.057861 386.773376 1509284.500000
2.100000 2.000000 6.016667 -888.734375 114.977348 803068.625000
2.100000 2.100000 5.983333 93.048065 -544.613220 305261.500000
2.100000 2.100000 5.991667 146.382660 973.374878 968886.500000
2.100000 2.100000 6.000000 -1318.750977 20.614704 1739529.125000
2.100000 2.100000 6.008333 -322.625061 -710.108887 608341.562500
2.100000 2.100000 6.016667 -133.011185 -579.677673 353718.187500
2.100000 2.200000 5.983333 130.780945 -85.902657 24482.921875
2.100000 2.200000 5.991667 96.452316 56.038002 12443.307617
2.100000 2.200000 6.000000 68.342964 -3.957806 4686.424805
2.100000 2.200000 6.008333 109.022034 51.462982 14534.242188
2.100000 2.200000 6.016667 60.262218 96.088554 12864.545898
2.200000 1.800000 5.983333 -52.421440 12.979546 2916.475830
2.200000 1.800000 5.991667 -30.685480 -111.622528 13401.187500
2.200000 1.800000 6.000000 44.634705 -28.913219 2828.230957
2.200000 1.800000 6.008333 35.148129 -22.995893 1764.202148
2.200000 1.800000 6.016667 -7.397372 47.536278 2314.418945
2.200000 1.900000 5.983333 36.341309 -62.040527 5169.717773
2.200000 1.900000 5.991667 97.361877 42.295120 11268.211914
2.200000 1.900000 6.000000 23.690731 54.075352 3485.394287
2.200000 1.900000 6.008333 -15.139681 60.547157 3895.168213
2.200000 1.900000 6.016667 -15.723166 -22.908405 772.013000
2.200000 2.000000 5.983333 105.690720 25.821653 11837.286133
2.200000 2.000000 5.991667 -83.563377 35.529984 8245.217773
2.200000 2.000000 6.000000 8.701294 -19.923977 472.677368
2.200000 2.000000 6.008333 -37.167229 -32.773510 2455.505859
2.200000 2.000000 6.016667 52.413750 8.616202 2821.440186
2.200000 2.100000 5.983333 67.545990 90.706856 12790.194336
2.200000 2.100000 5.991667 28.491600 -59.509483 4353.149902
2.200000 2.100000 6.000000 105.372772 44.713058 13102.678711
2.200000 2.100000 6.008333 56.378059 46.847038 5373.130859
2.200000 2.100000 6.016667 -1.067171 82.974648 6885.930664
2.200000 2.200000 5.983333 -11.476929 136.980682 18895.427734
2.200000 2.200000 5.991667 -5.717950 35.524284 1294.669678
2.200000 2.200000 6.000000 6.318619 136.542419 18683.757812
2.200000 2.200000 6.008333 -111.463669 85.193024 19682.000000
2.200000 2.200000 6.016667 -92.721176 6.177738 8635.380859
