#kx 	ky 	kz 	real 	imag 	intensity
4.800000 2.800000 0.983333 -18.085455 -35.923260 1617.564209
4.800000 2.800000 0.991667 -16.678711 14.220829 480.411377
4.800000 2.800000 1.000000 -27.660591 -63.373505 4781.309570
4.800000 2.800000 1.008333 22.622681 -31.507147 1504.485962
4.800000 2.800000 1.016667 21.593399 -39.073853 1993.040894
4.800000 2.900000 0.983333 -38.059555 -6.666676 1492.974365
4.800000 2.900000 0.991667 -8.389799 -4.684756 92.335678
4.800000 2.900000 1.000000 1.635175 16.932795 289.393341
4.800000 2.900000 1.008333 -49.166245 3.852458 2432.161133
4.800000 2.900000 1.016667 1.074537 -64.151024 4116.508789
4.800000 3.000000 0.983333 -16.925697 -70.733513 5289.708984
4.800000 3.000000 0.991667 52.445381 -41.351337 4460.451172
4.800000 3.000000 1.000000 -0.494932 59.327629 3520.012451
4.800000 3.000000 1.008333 -45.676277 -78.544685 8255.589844
4.800000 3.000000 1.016667 123.432678 2.593262 15242.350586
4.800000 3.100000 0.983333 33.439964 -24.392471 1713.223877
4.800000 3.100000 0.991667 133.262390 98.898483 27539.775391
4.800000 3.100000 1.000000 -159.641418 125.004333 41111.464844
4.800000 3.100000 1.008333 1.275719 -83.517097 6976.732910
4.800000 3.100000 1.016667 -82.710892 103.215210 17494.472656
4.800000 3.200000 0.983333 8.113449 -4.573776 86.747482
4.800000 3.200000 0.991667 -50.159058 178.086365 34230.683594
4.800000 3.200000 1.000000 -196.776779 -123.687881 54019.792969
4.800000 3.200000 1.008333 57.238918 -64.774963 7472.089844
4.800000 3.200000 1.016667 -36.668991 -127.998543 17728.242188
4.900000 2.800000 0.983333 -50.283566 50.784218 5107.473633
4.900000 2.800000 0.991667 -72.426468 -123.067657 20391.242188
4.900000 2.800000 1.000000 70.151718 31.041672 5884.849121
4.900000 2.800000 1.008333 -104.325691 -63.251572 14884.611328
4.900000 2.800000 1.016667 123.244568 -46.955467 17394.039062
4.900000 2.900000 0.983333 150.121948 -933.920166 894743.500000
4.900000 2.900000 0.991667 104.538483 647.438843 430105.343750
4.900000 2.900000 1.000000 -1040.251343 -439.593689 1275365.500000
4.900000 2.900000 1.008333 8.447937 -932.967773 870500.250000
4.900000 2.900000 1.016667 431.513519 -712.743774 694207.625000
4.900000 3.000000 0.983333 1428.263184 26.080078 2040615.875000
4.900000 3.000000 0.991667 -1007.608215 283.505402 1095649.625000
4.900000 3.000000 1.000000 408.956818 -1602.871826 2736443.750000
4.900000 3.000000 1.008333 1246.270264 -297.503113 1641697.750000
4.900000 3.000000 1.016667 1309.965698 407.335114 1881932.000000
4.900000 3.100000 0.983333 202.219116 864.318604 787939.187500
4.900000 3.100000 0.991667 -325.961639 -466.404602 323784.250000
4.900000 3.100000 1.000000 885.181885 3.624153 783560.125000
4.900000 3.100000 1.008333 378.593140 645.511963 560018.437500
4.900000 3.100000 1.016667 -120.572525 877.671143 784844.375000
4.900000 3.200000 0.983333 65.092346 155.938370 28553.789062
4.900000 3.200000 0.991667 -269.585480 -19.952068 73074.414062
4.900000 3.200000 1.000000 100.630768 -218.089294 57689.492188
4.900000 3.200000 1.008333 65.915665 86.095535 11757.316406
4.900000 3.200000 1.016667 -3.381535 -43.354866 1891.079224
5.000000 2.800000 0.983333 -136.690521 -113.518166 31570.671875
5.000000 2.800000 0.991667 146.465134 -124.578964 36971.953125
5.000000 2.800000 1.000000 -34.163174 53.746346 4055.791992
5.000000 2.800000 1.008333 48.291893 -182.490540 35634.902344
5.000000 2.800000 1.016667 161.367188 61.019043 29762.693359
5.000000 2.900000 0.983333 1457.688110 -33.811539 2125998.000000
5.000000 2.900000 0.991667 -958.558777 316.759277 1019171.375000
5.000000 2.900000 1.000000 436.764832 -1677.011475 3003131.000000
5.000000 2.900000 1.008333 1394.363892 -213.770538 1989948.500000
5.000000 2.900000 1.016667 1222.713013 462.877716 1709282.875000
5.000000 3.000000 0.983333 273.727844 2148.245605 4689886.000000
5.000000 3.000000 0.991667 -661.889221 -1500.601685 2689902.750000
5.000000 3.000000 1.000000 2557.687012 279.182037 6619705.500000
5.000000 3.000000 1.008333 685.189697 1788.589722 3668538.250000
5.000000 3.000000 1.016667 -210.028275 2040.497192 4207740.500000
5.000000 3.100000 0.983333 -1269.574463 449.923584 1814250.625000
5.000000 3.100000 0.991667 766.811890 -586.284546 931730.062500
5.000000 3.100000 1.000000 104.163071 1466.693848 2162040.750000
5.000000 3.100000 1.008333 -892.189819 621.502258 1182267.750000
5.000000 3.100000 1.016667 -1363.803345 127.087326 1876110.875000
5.000000 3.200000 0.983333 -193.155594 112.019234 49857.390625
5.000000 3.200000 0.991667 -12.711999 -240.291809 57901.746094
5.000000 3.200000 1.000000 199.525757 17.666115 40122.617188
5.000000 3.200000 1.008333 -29.027161 100.187172 10880.045898
5.000000 3.200000 1.016667 12.199490 -107.165894 11633.355469
5.100000 2.800000 0.983333 93.389053 -133.649597 26583.730469
5.100000 2.800000 0.991667 86.933876 77.210548 13518.967773
5.100000 2.800000 1.000000 -42.677322 36.499466 3153.564941
5.100000 2.800000 1.008333 63.189224 -66.771317 8451.287109
5.100000 2.800000 1.016667 112.838692 147.495316 34487.437500
5.100000 2.900000 0.983333 183.400925 940.971008 919062.312500
5.100000 2.900000 0.991667 -299.142853 -594.460510 442869.750000
5.100000 2.900000 1.000000 1091.811768 103.607864 1202787.500000
5.100000 2.900000 1.008333 317.228882 828.683899 787351.187500
5.100000 2.900000 1.016667 -185.487411 874.331848 798861.750000
5.100000 3.000000 0.983333 -1358.716919 336.562653 1959386.000000
5.100000 3.000000 0.991667 893.507324 -601.475464 1160128.000000
5.100000 3.000000 1.000000 84.870544 1632.912842 2673607.250000
5.100000 3.000000 1.008333 -1050.372559 575.514404 1434499.375000
5.100000 3.000000 1.016667 -1244.002930 64.668907 1551725.375000
5.100000 3.100000 0.983333 -348.141357 -820.666565 794696.000000
5.100000 3.100000 0.991667 490.296631 417.273468 414507.937500
5.100000 3.100000 1.000000 -874.702515 178.970215 797134.812500
5.100000 3.100000 1.008333 -391.002380 -480.732666 383986.750000
5.100000 3.100000 1.016667 -205.414978 -778.566772 648361.562500
5.100000 3.200000 0.983333 -23.826641 -101.744057 10919.562500
5.100000 3.200000 0.991667 151.939240 -8.085279 23150.904297
5.100000 3.200000 1.000000 81.050659 169.436615 35277.976562
5.100000 3.200000 1.008333 -109.062035 75.632645 17614.824219
5.100000 3.200000 1.016667 84.664200 -1.352455 7169.855957
5.200000 2.800000 0.983333 66.913994 51.647812 7144.979004
5.200000 2.800000 0.991667 -14.515371 -8.504585 283.023987
5.200000 2.800000 1.000000 -64.390854 -34.725925 5352.072266
5.200000 2.800000 1.008333 118.340057 -90.668610 22225.166016
5.200000 2.800000 1.016667 -15.498774 167.283524 28223.990234
5.200000 2.900000 0.983333 -69.314384 -1.486129 4806.692383
5.200000 2.900000 0.991667 86.094170 -23.490702 7964.019043
5.200000 2.900000 1.000000 26.288069 38.401875 2165.766602
5.200000 2.900000 1.008333 24.162678 76.284447 6403.151855
5.200000 2.900000 1.016667 -75.093803 -18.115393 5967.246582
5.200000 3.000000 0.983333 82.700928 -118.532730 20889.451172
5.200000 3.000000 0.991667 95.811539 56.975296 12426.035156
5.200000 3.000000 1.000000 -30.094501 28.784336 1734.217041
5.200000 3.000000 1.008333 32.334679 -21.492657 1507.465820
5.200000 3.000000 1.016667 46.776817 67.395370 6730.206055
5.200000 3.100000 0.983333 150.368729 54.276508 25556.693359
5.200000 3.100000 0.991667 59.145279 100.070450 13512.258789
5.200000 3.100000 1.000000 37.733856 79.350082 7720.279297
5.200000 3.100000 1.008333 -4.785172 121.441017 14770.818359
5.200000 3.100000 1.016667 -84.980225 61.583260 11014.136719
5.200000 3.200000 0.983333 29.885992 114.010521 13891.571289
5.200000 3.200000 0.991667 -23.012815 85.204704 7789.431641
5.200000 3.200000 1.000000 -112.616592 118.280167 26672.695312
5.200000 3.200000 1.008333 -123.290878 -54.769901 18200.382812
5.200000 3.200000 1.016667 -30.628384 4.316635 956.731262
