#kx 	ky 	kz 	real 	imag 	intensity
1.800000 7.800000 -0.016667 -109.534241 -43.752174 13912.002930
1.800000 7.800000 -0.008333 48.745659 -95.618431 11519.023438
1.800000 7.800000 0.000000 1.878273 55.425514 3075.515381
1.800000 7.800000 0.008333 -106.604828 -83.441444 18327.062500
1.800000 7.800000 0.016667 60.757797 -146.141663 25048.894531
1.800000 7.900000 -0.016667 -5.804922 -63.657196 4085.935547
1.800000 7.900000 -0.008333 51.650574 -11.997772 2811.728271
1.800000 7.900000 0.000000 -17.388962 -17.670708 614.629883
1.800000 7.900000 0.008333 36.062740 -88.012016 9046.636719
1.800000 7.900000 0.016667 118.926735 -39.179573 15678.607422
1.800000 8.000000 -0.016667 -31.636543 -20.104647 1405.067627
1.800000 8.000000 -0.008333 123.137199 -87.112267 22751.316406
1.800000 8.000000 0.000000 75.112953 125.045570 21278.349609
1.800000 8.000000 0.008333 13.096493 -21.262726 623.621643
1.800000 8.000000 0.016667 101.110428 124.162827 25639.726562
1.800000 8.100000 -0.016667 -33.878265 -63.499176 5179.881836
1.800000 8.100000 -0.008333 199.850891 127.108353 56096.914062
1.800000 8.100000 0.000000 -193.951859 140.714447 57417.878906
1.800000 8.100000 0.008333 29.834343 -15.750599 1138.169434
1.800000 8.100000 0.016667 -200.544403 78.237854 46339.218750
1.800000 8.200000 -0.016667 -2.853350 -64.578667 4178.545898
1.800000 8.200000 -0.008333 -26.014076 167.772491 28824.341797
1.800000 8.200000 0.000000 -135.408569 -101.457184 28629.041016
1.800000 8.200000 0.008333 -24.468424 15.637131 843.223572
1.800000 8.200000 0.016667 -38.570629 -226.924805 52982.562500
1.900000 7.800000 -0.016667 -31.602484 -48.154274 3317.551025
1.900000 7.800000 -0.008333 87.290657 -90.515968 15812.798828
1.900000 7.800000 0.000000 -2.277025 128.853455 16608.398438
1.900000 7.800000 0.008333 -72.831650 -149.397003 27623.914062
1.900000 7.800000 0.016667 177.276047 11.316224 31554.853516
1.900000 7.900000 -0.016667 225.417786 -670.144165 499906.375000
1.900000 7.900000 -0.008333 126.637390 313.969604 114613.945312
1.900000 7.900000 0.000000 -330.651215 -226.292023 160538.312500
1.900000 7.900000 0.008333 -87.281784 -274.654144 83053.007812
1.900000 7.900000 0.016667 117.059860 -588.824341 360417.093750
1.900000 8.000000 -0.016667 1021.767212 98.839355 1053777.500000
1.900000 8.000000 -0.008333 -303.247070 194.695023 129864.937500
1.900000 8.000000 0.000000 259.680786 -364.437927 200249.109375
1.900000 8.000000 0.008333 272.547607 -304.980347 167295.218750
1.900000 8.000000 0.016667 1034.650024 18.354160 1070837.500000
1.900000 8.100000 -0.016667 131.875916 589.282593 364645.218750
1.900000 8.100000 -0.008333 -132.751038 -11.929459 17765.150391
1.900000 8.100000 0.000000 118.441025 111.509033 26462.541016
1.900000 8.100000 0.008333 203.829407 102.683083 52090.242188
1.900000 8.100000 0.016667 63.406410 587.447754 349115.250000
1.900000 8.200000 -0.016667 80.862579 103.785324 17310.150391
1.900000 8.200000 -0.008333 -194.947327 41.250916 39706.097656
1.900000 8.200000 0.000000 -8.549583 -127.655457 16369.011719
1.900000 8.200000 0.008333 -21.441586 -57.436836 3758.731934
1.900000 8.200000 0.016667 116.088852 -77.293800 19450.953125
2.000000 7.800000 -0.016667 -79.710403 -61.327354 10114.792969
2.000000 7.800000 -0.008333 118.732704 -56.241802 17260.595703
2.000000 7.800000 0.000000 -80.271927 61.513161 10227.451172
2.000000 7.800000 0.008333 30.038109 -165.574570 28317.224609
2.000000 7.800000 0.016667 124.476746 52.891647 18291.986328
2.000000 7.900000 -0.016667 1172.544922 124.620819 1390392.000000
2.000000 7.900000 -0.008333 -354.196472 269.503754 198087.406250
2.000000 7.900000 0.000000 288.462555 -504.371643 337601.406250
2.000000 7.900000 0.008333 405.769226 -284.812164 245766.640625
2.000000 7.900000 0.016667 1080.350342 35.678307 1168429.875000
2.000000 8.000000 -0.016667 29.994644 1722.701050 2968598.750000
2.000000 8.000000 -0.008333 -372.083466 -510.906525 399471.593750
2.000000 8.000000 0.000000 713.056763 415.122742 680776.812500
2.000000 8.000000 0.008333 495.312561 340.012360 360942.937500
2.000000 8.000000 0.016667 330.062714 1662.295410 2872167.500000
2.000000 8.100000 -0.016667 -984.983521 243.664856 1029565.125000
2.000000 8.100000 -0.008333 225.409149 -213.848282 96540.375000
2.000000 8.100000 0.000000 -254.496689 400.221008 224945.421875
2.000000 8.100000 0.008333 -90.154526 290.680420 92622.945312
2.000000 8.100000 0.016667 -1002.197937 365.677856 1138121.000000
2.000000 8.200000 -0.016667 -110.479523 106.587265 23566.570312
2.000000 8.200000 -0.008333 -75.220535 -72.726814 10947.318359
2.000000 8.200000 0.000000 43.678432 -75.165352 7557.635742
2.000000 8.200000 0.008333 60.075867 7.565750 3666.350342
2.000000 8.200000 0.016667 55.425804 -20.599331 3496.352295
2.100000 7.800000 -0.016667 10.760108 -139.385910 19544.210938
2.100000 7.800000 -0.008333 139.613739 -29.433073 20358.302734
2.100000 7.800000 0.000000 -8.249680 87.610550 7743.665527
2.100000 7.800000 0.008333 37.206535 -96.102242 10619.966797
2.100000 7.800000 0.016667 123.172348 133.957413 33116.015625
2.100000 7.900000 -0.016667 60.168133 881.959229 781472.250000
2.100000 7.900000 -0.008333 -205.795959 -142.236908 62583.312500
2.100000 7.900000 0.000000 253.661255 203.262115 105659.515625
2.100000 7.900000 0.008333 235.076416 175.042419 85900.765625
2.100000 7.900000 0.016667 53.030720 788.413696 624408.437500
2.100000 8.000000 -0.016667 -1270.849609 150.672302 1637760.875000
2.100000 8.000000 -0.008333 271.447662 -388.055908 224271.218750
2.100000 8.000000 0.000000 -228.743744 456.910950 261091.312500
2.100000 8.000000 0.008333 -143.965454 279.209778 98684.156250
2.100000 8.000000 0.016667 -1003.138794 366.005737 1140247.625000
2.100000 8.100000 -0.016667 -183.886581 -702.995728 528017.250000
2.100000 8.100000 -0.008333 248.531143 145.111526 82825.085938
2.100000 8.100000 0.000000 -264.192993 -111.329460 82192.187500
2.100000 8.100000 0.008333 -141.497345 -3.375336 20032.890625
2.100000 8.100000 0.016667 -332.040710 -548.164734 410735.593750
2.100000 8.200000 -0.016667 -76.011871 0.720107 5778.323242
2.100000 8.200000 -0.008333 -23.495234 -38.314442 2020.022461
2.100000 8.200000 0.000000 34.648964 45.011402 3226.577148
2.100000 8.200000 0.008333 -73.246429 28.476460 6175.948242
2.100000 8.200000 0.016667 24.719849 7.559517 668.217224
2.200000 7.800000 -0.016667 95.104774 -30.896416 9999.506836
2.200000 7.800000 -0.008333 145.090042 58.684036 24494.937500
2.200000 7.800000 0.000000 -134.537109 85.561073 25420.931641
2.200000 7.800000 0.008333 79.102646 -127.217857 22441.611328
2.200000 7.800000 0.016667 1.886074 142.206329 20226.197266
2.200000 7.900000 -0.016667 -173.928040 29.212383 31104.326172
2.200000 7.900000 -0.008333 -17.012634 2.430404 295.336578
2.200000 7.900000 0.000000 -113.246925 -103.254868 23486.433594
2.200000 7.900000 0.008333 118.684319 -14.210468 14287.905273
2.200000 7.900000 0.016667 -98.098915 4.810841 9646.541992
2.200000 8.000000 -0.016667 26.853188 -257.985809 67277.773438
2.200000 8.000000 -0.008333 157.370728 -46.790611 26954.906250
2.200000 8.000000 0.000000 100.002007 -42.404381 11798.533203
2.200000 8.000000 0.008333 107.184601 66.326302 15887.716797
2.200000 8.000000 0.016667 39.651592 47.294388 3809.007812
2.200000 8.100000 -0.016667 139.874207 67.970139 24184.732422
2.200000 8.100000 -0.008333 64.109741 125.423164 19841.029297
2.200000 8.100000 0.000000 -20.514473 127.187569 16597.521484
2.200000 8.100000 0.008333 -50.906326 76.111115 8384.355469
2.200000 8.100000 0.016667 -96.432831 70.018929 14201.941406
2.200000 8.200000 -0.016667 -86.165497 -0.886074 7425.277832
2.200000 8.200000 -0.008333 5.224083 -5.743649 60.280540
2.200000 8.200000 0.000000 -118.379417 -12.276628 14164.402344
2.200000 8.200000 0.008333 6.883144 -103.681931 10797.320312
2.200000 8.200000 0.016667 -12.782936 -35.836819 1447.681030
