#kx 	ky 	kz 	real 	imag 	intensity
3.800000 5.800000 -4.200000 -3.011546 -37.598766 1422.736694
3.800000 5.800000 -4.160000 13.755358 -35.442581 1445.386353
3.800000 5.800000 -4.120000 22.759890 -23.232111 1057.743530
3.800000 5.800000 -4.080000 20.259338 -11.516729 543.075867
3.800000 5.800000 -4.040000 12.706242 -8.492086 233.564117
3.800000 5.800000 -4.000000 9.593321 -12.954910 259.861511
3.800000 5.800000 -3.960000 14.303970 -16.869265 489.175659
3.800000 5.800000 -3.920000 21.987759 -13.931631 677.551880
3.800000 5.800000 -3.880000 25.480652 -5.136122 675.643372
3.800000 5.800000 -3.840000 22.343637 3.565330 511.949707
3.800000 5.800000 -3.800000 15.912972 7.806347 314.161743
3.800000 5.840000 -4.200000 15.464884 -34.410645 1423.255005
3.800000 5.840000 -4.160000 28.183645 -29.094330 1640.797852
3.800000 5.840000 -4.120000 33.887505 -19.012743 1509.847290
3.800000 5.840000 -4.080000 33.448460 -10.767128 1234.730469
3.800000 5.840000 -4.040000 31.652853 -6.370554 1042.487061
3.800000 5.840000 -4.000000 31.357113 -3.271167 993.969116
3.800000 5.840000 -3.960000 31.394926 1.107528 986.867981
3.800000 5.840000 -3.920000 29.490301 6.234819 908.550842
3.800000 5.840000 -3.880000 25.648167 9.920900 756.252686
3.800000 5.840000 -3.840000 21.856506 11.594649 612.142761
3.800000 5.840000 -3.800000 19.054512 12.882855 529.042358
3.800000 5.880000 -4.200000 24.881569 -20.880108 1055.071411
3.800000 5.880000 -4.160000 35.094910 -16.389578 1500.270996
3.800000 5.880000 -4.120000 41.801044 -7.946515 1810.474365
3.800000 5.880000 -4.080000 44.447044 2.222387 1980.478760
3.800000 5.880000 -4.040000 42.778053 12.558540 1987.678711
3.800000 5.880000 -4.000000 36.777142 20.838766 1786.812256
3.800000 5.880000 -3.960000 28.391766 24.490730 1405.888184
3.800000 5.880000 -3.920000 21.616879 23.220633 1006.487183
3.800000 5.880000 -3.880000 19.345909 20.476402 793.547241
3.800000 5.880000 -3.840000 20.061852 20.789591 834.684937
3.800000 5.880000 -3.800000 18.848768 25.034683 982.011414
3.800000 5.920000 -4.200000 22.743473 -8.289134 585.975281
3.800000 5.920000 -4.160000 34.010223 -4.122140 1173.687378
3.800000 5.920000 -4.120000 42.147171 7.009812 1825.521484
3.800000 5.920000 -4.080000 42.701370 22.045895 2309.428467
3.800000 5.920000 -4.040000 34.313633 34.785706 2387.470703
3.800000 5.920000 -4.000000 21.084053 39.375675 1994.981201
3.800000 5.920000 -3.960000 10.678301 35.243008 1356.095703
3.800000 5.920000 -3.920000 8.260942 28.428776 876.438477
3.800000 5.920000 -3.880000 11.616920 26.636940 844.479370
3.800000 5.920000 -3.840000 12.991885 31.928940 1188.246338
3.800000 5.920000 -3.800000 6.744113 38.525894 1529.727539
3.800000 5.960000 -4.200000 16.450802 -3.234533 281.091095
3.800000 5.960000 -4.160000 28.630733 4.628740 841.144104
3.800000 5.960000 -4.120000 33.116650 20.380413 1512.073730
3.800000 5.960000 -4.080000 25.890644 35.850266 1955.567017
3.800000 5.960000 -4.040000 11.081968 42.232574 1906.400391
3.800000 5.960000 -4.000000 -1.467674 37.489819 1407.640503
3.800000 5.960000 -3.960000 -4.447564 28.587564 837.029663
3.800000 5.960000 -3.920000 0.246037 25.348164 642.589966
3.800000 5.960000 -3.880000 3.286234 31.127512 979.721313
3.800000 5.960000 -3.840000 -2.862177 39.477783 1566.687378
3.800000 5.960000 -3.800000 -16.267244 40.561821 1909.884521
3.800000 6.000000 -4.200000 13.410728 -2.371573 185.472000
3.800000 6.000000 -4.160000 21.163723 10.680503 561.976318
3.800000 6.000000 -4.120000 16.818714 25.991158 958.409424
3.800000 6.000000 -4.080000 3.321110 33.056625 1103.770264
3.800000 6.000000 -4.040000 -8.757727 28.407875 883.705139
3.800000 6.000000 -4.000000 -10.838852 19.153803 484.348877
3.800000 6.000000 -3.960000 -4.690486 16.268478 286.664062
3.800000 6.000000 -3.920000 -0.799606 23.625467 558.802063
3.800000 6.000000 -3.880000 -7.843949 33.800262 1203.985352
3.800000 6.000000 -3.840000 -23.632700 35.258087 1801.637207
3.800000 6.000000 -3.800000 -36.879059 23.900940 1931.319824
3.800000 6.040000 -4.200000 12.613006 1.081015 160.256500
3.800000 6.040000 -4.160000 10.719125 13.956114 309.672760
3.800000 6.040000 -4.120000 -0.410114 19.786243 391.663605
3.800000 6.040000 -4.080000 -10.159767 14.212820 305.225128
3.800000 6.040000 -4.040000 -9.219761 4.601273 106.175697
3.800000 6.040000 -4.000000 0.309035 3.136532 9.933334
3.800000 6.040000 -3.960000 6.091049 14.022373 233.727829
3.800000 6.040000 -3.920000 -2.196658 28.056465 791.990540
3.800000 6.040000 -3.880000 -21.762087 30.912998 1429.201904
3.800000 6.040000 -3.840000 -38.448700 17.214495 1774.641357
3.800000 6.040000 -3.800000 -40.009464 -3.903500 1615.994507
3.800000 6.080000 -4.200000 7.223008 7.399855 106.929703
3.800000 6.080000 -4.160000 -2.403310 10.913544 124.881332
3.800000 6.080000 -4.120000 -9.984575 3.009883 108.751137
3.800000 6.080000 -4.080000 -5.218962 -8.556539 100.451920
3.800000 6.080000 -4.040000 9.821212 -9.652018 189.617645
3.800000 6.080000 -4.000000 20.395575 5.462833 445.822021
3.800000 6.080000 -3.960000 12.825605 26.156933 848.681274
3.800000 6.080000 -3.920000 -11.004175 33.898968 1270.231934
3.800000 6.080000 -3.880000 -33.735641 19.802692 1530.240112
3.800000 6.080000 -3.840000 -38.133430 -6.391562 1495.010620
3.800000 6.080000 -3.800000 -22.839928 -25.287626 1161.126343
3.800000 6.120000 -4.200000 -5.303625 8.956057 108.339386
3.800000 6.120000 -4.160000 -12.718681 -1.497494 164.007355
3.800000 6.120000 -4.120000 -5.789745 -16.671928 311.474335
3.800000 6.120000 -4.080000 14.850509 -20.218777 629.336548
3.800000 6.120000 -4.040000 32.948421 -2.979706 1094.477173
3.800000 6.120000 -4.000000 30.150202 25.266029 1547.406982
3.800000 6.120000 -3.960000 4.358027 42.071205 1788.978760
3.800000 6.120000 -3.920000 -26.037302 32.392445 1727.211670
3.800000 6.120000 -3.880000 -37.794846 3.136838 1438.290039
3.800000 6.120000 -3.840000 -23.666363 -22.850773 1082.254639
3.800000 6.120000 -3.800000 2.035794 -27.667587 769.639832
3.800000 6.160000 -4.200000 -17.851316 -0.816064 319.335449
3.800000 6.160000 -4.160000 -12.345659 -19.757481 542.773315
3.800000 6.160000 -4.120000 10.949803 -28.578690 936.639709
3.800000 6.160000 -4.080000 36.664520 -13.697008 1531.895020
3.800000 6.160000 -4.040000 42.523979 19.202370 2177.019775
3.800000 6.160000 -4.000000 19.833561 46.648918 2569.491699
3.800000 6.160000 -3.960000 -16.318279 46.895687 2465.491699
3.800000 6.160000 -3.920000 -38.796516 19.843067 1898.916992
3.800000 6.160000 -3.880000 -32.102161 -12.421524 1184.843018
3.800000 6.160000 -3.840000 -5.328466 -25.534500 680.403259
3.800000 6.160000 -3.800000 17.916803 -13.854912 512.970459
3.800000 6.200000 -4.200000 -19.845051 -18.489511 735.688110
3.800000 6.200000 -4.160000 1.120814 -33.705681 1137.329102
3.800000 6.200000 -4.120000 31.081303 -25.889589 1636.318115
3.800000 6.200000 -4.080000 46.703247 5.575867 2212.283691
3.800000 6.200000 -4.040000 32.606518 40.534843 2706.258545
3.800000 6.200000 -4.000000 -3.494907 53.312466 2854.433350
3.800000 6.200000 -3.960000 -35.579720 34.880028 2482.532715
3.800000 6.200000 -3.920000 -41.185738 1.072375 1697.415039
3.800000 6.200000 -3.880000 -20.242203 -21.469721 870.695679
3.800000 6.200000 -3.840000 6.727968 -18.366018 382.576172
3.800000 6.200000 -3.800000 18.369686 2.284254 342.663177
3.840000 5.800000 -4.200000 36.212765 -22.477169 1816.587524
3.840000 5.800000 -4.160000 40.800308 -6.293738 1704.276245
3.840000 5.800000 -4.120000 32.931484 6.490874 1126.614136
3.840000 5.800000 -4.080000 21.414490 7.984304 522.329529
3.840000 5.800000 -4.040000 16.863438 1.727234 287.358856
3.840000 5.800000 -4.000000 21.037844 -2.054459 446.811676
3.840000 5.800000 -3.960000 26.215689 2.340590 692.740662
3.840000 5.800000 -3.920000 24.520079 10.681584 715.330505
3.840000 5.800000 -3.880000 16.446884 14.583658 483.183105
3.840000 5.800000 -3.840000 9.391525 11.172458 213.024567
3.840000 5.800000 -3.800000 8.670732 5.678492 107.426865
3.840000 5.840000 -4.200000 38.566109 -0.913563 1488.179321
3.840000 5.840000 -4.160000 39.729210 7.914914 1641.056030
3.840000 5.840000 -4.120000 37.963364 15.247225 1673.694824
3.840000 5.840000 -4.080000 35.400665 21.740189 1725.843018
3.840000 5.840000 -4.040000 30.921352 28.980770 1796.015015
3.840000 5.840000 -4.000000 21.836620 35.096153 1708.578003
3.840000 5.840000 -3.960000 9.091729 35.079563 1313.235352
3.840000 5.840000 -3.920000 -0.945793 26.595509 708.215637
3.840000 5.840000 -3.880000 -1.798138 14.518370 214.016342
3.840000 5.840000 -3.840000 5.913723 7.836848 96.388321
3.840000 5.840000 -3.800000 13.832125 11.051102 313.454529
3.840000 5.880000 -4.200000 24.646187 13.621155 792.970337
3.840000 5.880000 -4.160000 31.549606 17.502359 1301.710205
3.840000 5.880000 -4.120000 36.962273 29.890001 2259.621826
3.840000 5.880000 -4.080000 32.034744 48.258411 3355.099121
3.840000 5.880000 -4.040000 12.738445 61.716751 3971.225342
3.840000 5.880000 -4.000000 -13.375113 58.615471 3614.666992
3.840000 5.880000 -3.960000 -30.549065 37.856777 2366.380859
3.840000 5.880000 -3.920000 -27.583265 12.471134 916.365723
3.840000 5.880000 -3.880000 -8.577982 -0.073558 73.587181
3.840000 5.880000 -3.840000 9.708952 7.018921 143.528992
3.840000 5.880000 -3.800000 12.569798 23.909775 729.677124
3.840000 5.920000 -4.200000 7.746834 11.686275 196.582458
3.840000 5.920000 -4.160000 22.293530 20.549904 919.300049
3.840000 5.920000 -4.120000 24.989046 44.252289 2582.717529
3.840000 5.920000 -4.080000 4.868956 67.013634 4514.533691
3.840000 5.920000 -4.040000 -30.449146 68.275658 5588.715820
3.840000 5.920000 -4.000000 -57.548401 41.734829 5053.614258
3.840000 5.920000 -3.960000 -56.331394 3.840264 3187.973633
3.840000 5.920000 -3.920000 -28.552580 -18.530857 1158.642456
3.840000 5.920000 -3.880000 2.675387 -11.227673 133.218323
3.840000 5.920000 -3.840000 13.142042 14.980747 397.136047
3.840000 5.920000 -3.800000 -1.396377 35.200329 1241.012939
3.840000 5.960000 -4.200000 2.224571 -0.122200 4.963650
3.840000 5.960000 -4.160000 15.471596 20.684088 667.201782
3.840000 5.960000 -4.120000 3.620008 49.298344 2443.431152
3.840000 5.960000 -4.080000 -32.013420 59.530750 4568.769043
3.840000 5.960000 -4.040000 -66.671997 36.422096 5771.724609
3.840000 5.960000 -4.000000 -72.024132 -7.159266 5238.730469
3.840000 5.960000 -3.960000 -42.294746 -39.137619 3320.598633
3.840000 5.960000 -3.920000 -1.037224 -36.086716 1303.326904
3.840000 5.960000 -3.880000 19.353395 -4.168108 391.927063
3.840000 5.960000 -3.840000 6.350706 27.289852 785.067505
3.840000 5.960000 -3.800000 -23.339245 33.258831 1650.870117
3.840000 6.000000 -4.200000 8.970629 -6.782422 126.473427
3.840000 6.000000 -4.160000 8.950766 21.139494 526.994385
3.840000 6.000000 -4.120000 -18.555511 39.308464 1889.462402
3.840000 6.000000 -4.080000 -54.194462 26.028084 3614.500977
3.840000 6.000000 -4.040000 -66.741600 -14.050774 4651.865723
3.840000 6.000000 -4.000000 -41.958984 -50.561634 4317.035156
3.840000 6.000000 -3.960000 2.181488 -53.673004 2885.550049
3.840000 6.000000 -3.920000 30.414623 -21.648745 1393.717529
3.840000 6.000000 -3.880000 21.918705 17.461061 785.318298
3.840000 6.000000 -3.840000 -11.789624 31.977470 1161.553833
3.840000 6.000000 -3.800000 -39.794281 14.841632 1803.858887
3.840000 6.040000 -4.200000 15.452229 -1.200891 240.213501
3.840000 6.040000 -4.160000 -0.617318 19.642893 386.224304
3.840000 6.040000 -4.120000 -30.520821 16.523520 1204.547241
3.840000 6.040000 -4.080000 -46.542522 -13.765232 2355.687988
3.840000 6.040000 -4.040000 -29.653999 -47.802650 3164.453125
3.840000 6.040000 -4.000000 10.225080 -55.135021 3144.422852
3.840000 6.040000 -3.960000 40.928726 -27.053883 2407.073242
3.840000 6.040000 -3.920000 37.045639 13.985903 1567.984863
3.840000 6.040000 -3.880000 3.265553 34.634880 1210.238770
3.840000 6.040000 -3.840000 -30.941586 20.956541 1396.558350
3.840000 6.040000 -3.800000 -39.493340 -10.837005 1677.164551
3.840000 6.080000 -4.200000 10.187742 8.379691 174.009308
3.840000 6.080000 -4.160000 -11.088840 10.836834 240.399338
3.840000 6.080000 -4.120000 -25.599007 -9.176286 739.513367
3.840000 6.080000 -4.080000 -14.834120 -36.088478 1522.429443
3.840000 6.080000 -4.040000 17.515156 -43.697456 2216.248291
3.840000 6.080000 -4.000000 45.584137 -20.183907 2485.303711
3.840000 6.080000 -3.960000 44.082436 18.433058 2283.038818
3.840000 6.080000 -3.920000 12.381672 41.376053 1865.283569
3.840000 6.080000 -3.880000 -24.247097 31.012421 1549.691895
3.840000 6.080000 -3.840000 -37.902058 -1.737463 1439.584717
3.840000 6.080000 -3.800000 -22.741699 -29.247681 1372.611694
3.840000 6.120000 -4.200000 -4.176282 7.904630 79.924500
3.840000 6.120000 -4.160000 -14.489747 -5.926095 245.071381
3.840000 6.120000 -4.120000 -5.997885 -25.673466 695.101440
3.840000 6.120000 -4.080000 20.048267 -30.866705 1354.686523
3.840000 6.120000 -4.040000 43.651768 -10.254972 2010.641235
3.840000 6.120000 -4.000000 42.458046 24.740906 2414.798096
3.840000 6.120000 -3.960000 13.161496 47.547710 2434.009766
3.840000 6.120000 -3.920000 -23.517746 39.726433 2131.273926
3.840000 6.120000 -3.880000 -40.517853 7.780811 1702.237427
3.840000 6.120000 -3.840000 -28.053858 -23.101332 1320.690430
3.840000 6.120000 -3.800000 -0.451909 -32.056053 1027.794800
3.840000 6.160000 -4.200000 -13.450144 -6.645813 225.073196
3.840000 6.160000 -4.160000 -4.759001 -22.637493 535.104187
3.840000 6.160000 -4.120000 18.128101 -25.835009 996.075745
3.840000 6.160000 -4.080000 38.818367 -6.875224 1554.134277
3.840000 6.160000 -4.040000 38.051956 25.331408 2089.631592
3.840000 6.160000 -4.000000 11.410114 48.005791 2434.746582
3.840000 6.160000 -3.960000 -24.356899 43.129223 2453.388428
3.840000 6.160000 -3.920000 -44.160465 13.607374 2135.307373
3.840000 6.160000 -3.880000 -35.583225 -18.790329 1619.242432
3.840000 6.160000 -3.840000 -8.465979 -32.192558 1108.033691
3.840000 6.160000 -3.800000 15.555122 -22.220047 735.692322
3.840000 6.200000 -4.200000 -7.105507 -24.383041 645.020935
3.840000 6.200000 -4.160000 14.502381 -28.269260 1009.470093
3.840000 6.200000 -4.120000 34.780800 -11.807446 1349.119751
3.840000 6.200000 -4.080000 36.489243 17.949203 1653.638794
3.840000 6.200000 -4.040000 14.119360 41.425228 1915.405884
3.840000 6.200000 -4.000000 -19.525497 41.200951 2078.763428
3.840000 6.200000 -3.960000 -42.126675 16.620768 2050.906738
3.840000 6.200000 -3.920000 -39.428062 -15.089792 1782.273926
3.840000 6.200000 -3.880000 -16.132885 -32.800587 1336.148560
3.840000 6.200000 -3.840000 9.433231 -27.931843 869.173706
3.840000 6.200000 -3.800000 21.179207 -8.879900 527.411438
3.880000 5.800000 -4.200000 51.202110 25.115326 3252.435547
3.880000 5.800000 -4.160000 34.069244 40.925343 2835.597168
3.880000 5.800000 -4.120000 12.539668 39.238232 1696.882080
3.880000 5.800000 -4.080000 2.419411 24.733051 617.577393
3.880000 5.800000 -4.040000 7.540062 13.000027 225.853241
3.880000 5.800000 -4.000000 16.639160 14.346016 482.669830
3.880000 5.800000 -3.960000 16.224792 23.669106 823.470459
3.880000 5.800000 -3.920000 5.201598 27.252430 769.751587
3.880000 5.800000 -3.880000 -4.761065 18.552881 366.877136
3.880000 5.800000 -3.840000 -2.959822 5.296502 36.813480
3.880000 5.800000 -3.800000 8.249340 0.312590 68.149323
3.880000 5.840000 -4.200000 23.478474 44.225960 2507.174316
3.880000 5.840000 -4.160000 13.866920 45.264008 2241.121826
3.880000 5.840000 -4.120000 8.826846 44.558331 2063.358154
3.880000 5.840000 -4.080000 4.868404 47.656967 2294.887939
3.880000 5.840000 -4.040000 -5.249958 52.629242 2797.399170
3.880000 5.840000 -4.000000 -22.639494 50.176994 3030.277344
3.880000 5.840000 -3.960000 -37.631508 33.688316 2551.033203
3.880000 5.840000 -3.920000 -37.449486 8.946884 1482.510742
3.880000 5.840000 -3.880000 -19.645899 -8.329425 455.340637
3.880000 5.840000 -3.840000 3.161037 -6.515022 52.437672
3.880000 5.840000 -3.800000 13.790783 10.166932 293.552216
3.880000 5.880000 -4.200000 -8.414089 35.867058 1357.242676
3.880000 5.880000 -4.160000 -1.543122 37.301880 1393.811523
3.880000 5.880000 -4.120000 -1.168394 53.024837 2812.998535
3.880000 5.880000 -4.080000 -21.195602 70.191528 5376.104004
3.880000 5.880000 -4.040000 -57.187908 66.986084 7757.591797
3.880000 5.880000 -4.000000 -85.334549 33.889343 8430.472656
3.880000 5.880000 -3.960000 -81.775269 -13.324997 6864.750000
3.880000 5.880000 -3.920000 -45.410526 -43.920258 3991.104980
3.880000 5.880000 -3.880000 -1.405422 -38.382717 1475.208252
3.880000 5.880000 -3.840000 19.787251 -5.873533 426.033661
3.880000 5.880000 -3.800000 8.681876 24.376446 669.586121
3.880000 5.920000 -4.200000 -20.820183 8.103285 499.143250
3.880000 5.920000 -4.160000 -6.456930 25.988392 717.088440
3.880000 5.920000 -4.120000 -20.861944 56.019165 3573.367676
3.880000 5.920000 -4.080000 -65.866508 64.303864 8473.383789
3.880000 5.920000 -4.040000 -110.336319 28.581553 12991.008789
3.880000 5.920000 -4.000000 -114.776497 -36.268394 14489.041016
3.880000 5.920000 -3.960000 -68.168365 -86.373436 12107.296875
3.880000 5.920000 -3.920000 -1.105640 -86.110916 7416.312500
3.880000 5.920000 -3.880000 39.461914 -39.848892 3145.176758
3.880000 5.920000 -3.840000 30.826927 12.603409 1109.145386
3.880000 5.920000 -3.800000 -8.067223 32.444157 1117.703369
3.880000 5.960000 -4.200000 -7.512259 -14.984074 280.956482
3.880000 5.960000 -4.160000 -5.100015 19.944572 423.796143
3.880000 5.960000 -4.120000 -43.741798 44.396568 3884.400391
3.880000 5.960000 -4.080000 -97.791794 21.963663 10045.637695
3.880000 5.960000 -4.040000 -117.919724 -45.251488 15952.758789
3.880000 5.960000 -4.000000 -76.320175 -111.522400 18262.015625
3.880000 5.960000 -3.960000 3.864807 -125.345764 15726.497070
3.880000 5.960000 -3.920000 65.830833 -76.000580 10109.787109
3.880000 5.960000 -3.880000 68.579987 -3.581669 4716.042480
3.880000 5.960000 -3.840000 21.445065 37.583858 1872.437256
3.880000 5.960000 -3.800000 -28.698925 26.479076 1524.769775
3.880000 6.000000 -4.200000 15.034893 -15.790465 475.386780
3.880000 6.000000 -4.160000 -6.086296 19.194874 405.486176
3.880000 6.000000 -4.120000 -56.806511 17.739628 3541.674072
3.880000 6.000000 -4.080000 -90.816124 -34.868507 9463.380859
3.880000 6.000000 -4.040000 -66.907036 -104.557770 15408.878906
3.880000 6.000000 -4.000000 8.967338 -134.111694 18066.361328
3.880000 6.000000 -3.960000 83.751198 -94.916122 16023.333984
3.880000 6.000000 -3.920000 102.766487 -14.860098 10781.773438
3.880000 6.000000 -3.880000 57.949966 45.998344 5474.046387
3.880000 6.000000 -3.840000 -7.636889 48.834766 2443.156494
3.880000 6.000000 -3.800000 -41.871765 6.887646 1800.684448
3.880000 6.040000 -4.200000 24.359535 0.956532 594.301941
3.880000 6.040000 -4.160000 -12.447334 16.135925 415.304199
3.880000 6.040000 -4.120000 -50.536324 -13.280838 2730.300537
3.880000 6.040000 -4.080000 -46.830154 -71.547897 7312.165039
3.880000 6.040000 -4.040000 9.803621 -109.508659 12088.257812
3.880000 6.040000 -4.000000 81.973404 -87.986229 14461.215820
3.880000 6.040000 -3.960000 113.743729 -16.343216 13204.736328
3.880000 6.040000 -3.920000 80.718063 53.106178 9335.671875
3.880000 6.040000 -3.880000 11.747649 71.197174 5207.044922
3.880000 6.040000 -3.840000 -38.763725 34.182549 2671.072998
3.880000 6.040000 -3.800000 -39.953823 -17.968426 1919.172363
3.880000 6.080000 -4.200000 13.723270 14.665211 403.396545
3.880000 6.080000 -4.160000 -17.847071 4.886092 342.391846
3.880000 6.080000 -4.120000 -26.691841 -33.839149 1857.542480
3.880000 6.080000 -4.080000 6.339239 -68.914764 4789.430664
3.880000 6.080000 -4.040000 62.521980 -62.962151 7873.230469
3.880000 6.080000 -4.000000 97.037460 -10.427696 9525.005859
3.880000 6.080000 -3.960000 78.502625 52.967716 8968.241211
3.880000 6.080000 -3.920000 18.743185 80.037712 6757.342285
3.880000 6.080000 -3.880000 -37.105179 53.718075 4262.425781
3.880000 6.080000 -3.840000 -50.937191 0.348056 2594.718506
3.880000 6.080000 -3.800000 -23.143099 -37.122154 1913.657349
3.880000 6.120000 -4.200000 -2.946686 10.348366 115.771637
3.880000 6.120000 -4.160000 -13.267612 -10.906923 294.990509
3.880000 6.120000 -4.120000 2.668556 -35.294029 1252.789673
3.880000 6.120000 -4.080000 38.677040 -36.379440 2819.376953
3.880000 6.120000 -4.040000 66.126839 -3.482624 4384.887695
3.880000 6.120000 -4.000000 57.659515 44.046394 5264.704590
3.880000 6.120000 -3.960000 13.529905 70.462921 5148.081543
3.880000 6.120000 -3.920000 -35.931725 54.616241 4274.022461
3.880000 6.120000 -3.880000 -55.840828 8.912569 3197.631836
3.880000 6.120000 -3.840000 -36.369389 -32.237343 2361.978516
3.880000 6.120000 -3.800000 1.565859 -42.909981 1843.718384
3.880000 6.160000 -4.200000 -6.880009 -7.154501 98.521408
3.880000 6.160000 -4.160000 2.728702 -20.411377 424.070099
3.880000 6.160000 -4.120000 23.737041 -20.438700 981.187622
3.880000 6.160000 -4.080000 40.372841 -0.064621 1629.970459
3.880000 6.160000 -4.040000 35.156990 30.870270 2188.987549
3.880000 6.160000 -4.000000 5.295940 50.032864 2531.334229
3.880000 6.160000 -3.960000 -31.611736 40.450005 2635.504883
3.880000 6.160000 -3.920000 -50.211250 6.058659 2557.876953
3.880000 6.160000 -3.880000 -38.054676 -30.313290 2367.053711
3.880000 6.160000 -3.840000 -5.415318 -45.481907 2097.929443
3.880000 6.160000 -3.800000 24.632326 -33.925240 1757.673340
3.880000 6.200000 -4.200000 6.353237 -19.967400 439.060669
3.880000 6.200000 -4.160000 21.088417 -16.024895 701.518555
3.880000 6.200000 -4.120000 29.795317 -0.151412 887.783875
3.880000 6.200000 -4.080000 23.833677 20.081451 971.308838
3.880000 6.200000 -4.040000 2.932228 31.609056 1007.730408
3.880000 6.200000 -4.000000 -22.255856 24.513115 1096.215942
3.880000 6.200000 -3.960000 -36.016296 0.350746 1297.296631
3.880000 6.200000 -3.920000 -28.656919 -27.374552 1570.585205
3.880000 6.200000 -3.880000 -4.008450 -42.137970 1791.676147
3.880000 6.200000 -3.840000 23.235373 -36.018234 1837.195801
3.880000 6.200000 -3.800000 38.204865 -14.449327 1668.394775
3.920000 5.800000 -4.200000 22.006058 73.109299 5829.236328
3.920000 5.800000 -4.160000 -11.556263 70.633865 5122.690430
3.920000 5.800000 -4.120000 -32.142017 46.204605 3167.974609
3.920000 5.800000 -4.080000 -28.379906 19.417133 1182.444092
3.920000 5.800000 -4.040000 -10.730835 9.765934 210.524292
3.920000 5.800000 -4.000000 -0.134415 17.861256 319.042511
3.920000 5.800000 -3.960000 -6.180166 26.632805 747.500732
3.920000 5.800000 -3.920000 -18.268368 20.980957 773.933838
3.920000 5.800000 -3.880000 -18.888618 4.186893 374.309967
3.920000 5.800000 -3.840000 -3.799273 -6.656612 58.744961
3.920000 5.800000 -3.800000 13.398615 -0.421717 179.700729
3.920000 5.840000 -4.200000 -26.301392 63.740532 4754.618652
3.920000 5.840000 -4.160000 -37.258247 50.165329 3904.737305
3.920000 5.840000 -4.120000 -38.592308 40.362350 3118.485596
3.920000 5.840000 -4.080000 -40.934471 38.246902 3138.456543
3.920000 5.840000 -4.040000 -51.943775 34.935165 3918.621582
3.920000 5.840000 -4.000000 -65.346062 18.596130 4615.923828
3.920000 5.840000 -3.960000 -65.154091 -10.186707 4348.824707
3.920000 5.840000 -3.920000 -42.560474 -34.738186 3018.135498
3.920000 5.840000 -3.880000 -8.120750 -36.553421 1402.099121
3.920000 5.840000 -3.840000 15.253521 -14.068220 430.584717
3.920000 5.840000 -3.800000 13.110651 13.926738 365.843201
3.920000 5.880000 -4.200000 -51.189407 21.871017 3098.696777
3.920000 5.880000 -4.160000 -41.748573 22.500336 2249.208496
3.920000 5.880000 -4.120000 -48.637951 36.603931 3705.498047
3.920000 5.880000 -4.080000 -79.075592 38.714989 7751.799805
3.920000 5.880000 -4.040000 -111.581902 7.369671 12504.833008
3.920000 5.880000 -4.000000 -112.484871 -49.419930 15095.174805
3.920000 5.880000 -3.960000 -68.470024 -95.534927 13815.066406
3.920000 5.880000 -3.920000 -3.221664 -97.056091 9430.263672
3.920000 5.880000 -3.880000 40.425385 -53.620926 4509.415039
3.920000 5.880000 -3.840000 37.453487 0.123615 1402.778931
3.920000 5.880000 -3.800000 1.544573 25.322407 643.609985
3.920000 5.920000 -4.200000 -36.486118 -21.462790 1791.888184
3.920000 5.920000 -4.160000 -29.843763 5.020418 915.854797
3.920000 5.920000 -4.120000 -63.726601 25.596075 4716.238770
3.920000 5.920000 -4.080000 -115.274361 0.316936 13288.279297
3.920000 5.920000 -4.040000 -132.860489 -72.172104 22860.722656
3.920000 5.920000 -4.000000 -84.277023 -144.928192 28106.798828
3.920000 5.920000 -3.960000 8.242535 -161.046265 26003.837891
3.920000 5.920000 -3.920000 83.002266 -105.568077 18033.996094
3.920000 5.920000 -3.880000 91.989746 -20.429897 8879.494141
3.920000 5.920000 -3.840000 41.790188 32.877449 2827.346436
3.920000 5.920000 -3.800000 -16.440763 26.885899 993.150269
3.920000 5.960000 -4.200000 1.995720 -35.617085 1272.559570
3.920000 5.960000 -4.160000 -16.875956 2.981842 293.689270
3.920000 5.960000 -4.120000 -74.038185 1.197714 5483.087402
3.920000 5.960000 -4.080000 -113.922707 -63.564720 17018.855469
3.920000 5.960000 -4.040000 -82.539604 -152.307678 30010.414062
3.920000 5.960000 -4.000000 16.928259 -192.703461 37421.191406
3.920000 5.960000 -3.960000 119.394279 -144.421432 35112.546875
3.920000 5.960000 -3.920000 152.791046 -38.561821 24832.117188
3.920000 5.960000 -3.880000 101.353653 48.666782 12641.018555
3.920000 5.960000 -3.840000 16.476536 63.201500 4265.905762
3.920000 5.960000 -3.800000 -33.587723 16.465326 1399.242065
3.920000 6.000000 -4.200000 31.528025 -16.442816 1264.382568
3.920000 6.000000 -4.160000 -13.806509 7.339251 244.484283
3.920000 6.000000 -4.120000 -67.109467 -30.224688 5417.212402
3.920000 6.000000 -4.080000 -65.040230 -113.433548 17097.402344
3.920000 6.000000 -4.040000 15.302688 -173.883179 30469.531250
3.920000 6.000000 -4.000000 125.987274 -150.118851 38408.460938
3.920000 6.000000 -3.960000 185.244446 -47.291870 36552.023438
3.920000 6.000000 -3.920000 149.795044 63.198708 26432.630859
3.920000 6.000000 -3.880000 52.907768 106.032997 14042.228516
3.920000 6.000000 -3.840000 -28.309118 66.461159 5218.491699
3.920000 6.000000 -3.800000 -42.865852 -4.145476 1854.666260
3.920000 6.040000 -4.200000 32.024136 12.785269 1189.008423
3.920000 6.040000 -4.160000 -18.174082 5.858913 364.624115
3.920000 6.040000 -4.120000 -40.612236 -52.936432 4451.619629
3.920000 6.040000 -4.080000 4.651156 -117.127975 13740.595703
3.920000 6.040000 -4.040000 98.285553 -121.765930 24486.992188
3.920000 6.040000 -4.000000 170.375031 -45.289009 31078.744141
3.920000 6.040000 -3.960000 160.722214 64.550919 29998.453125
3.920000 6.040000 -3.920000 74.173157 129.647369 22310.097656
3.920000 6.040000 -3.880000 -23.482248 109.761307 12598.960938
3.920000 6.040000 -3.840000 -65.025383 34.530067 5420.625977
3.920000 6.040000 -3.800000 -38.362541 -29.566290 2345.850098
3.920000 6.080000 -4.200000 11.603199 25.195847 769.464905
3.920000 6.080000 -4.160000 -18.916897 -4.240764 375.833069
3.920000 6.080000 -4.120000 -6.232244 -54.723076 3033.455811
3.920000 6.080000 -4.080000 54.242958 -76.748169 8832.580078
3.920000 6.080000 -4.040000 119.114761 -35.952789 15480.929688
3.920000 6.080000 -4.000000 131.149170 49.408493 19641.304688
3.920000 6.080000 -3.960000 71.875130 118.692307 19253.898438
3.920000 6.080000 -3.920000 -18.782633 120.756493 14934.917969
3.920000 6.080000 -3.880000 -76.650970 58.653221 9315.571289
3.920000 6.080000 -3.840000 -68.824951 -15.744083 4984.750000
3.920000 6.080000 -3.800000 -17.425861 -50.341721 2837.949463
3.920000 6.120000 -4.200000 -5.233049 14.571253 239.706223
3.920000 6.120000 -4.160000 -9.034401 -14.422483 289.628418
3.920000 6.120000 -4.120000 19.265749 -36.975662 1738.368652
3.920000 6.120000 -4.080000 62.390629 -23.975937 4467.436035
3.920000 6.120000 -4.040000 81.989441 26.514313 7425.277344
3.920000 6.120000 -4.000000 52.414505 80.775948 9272.034180
3.920000 6.120000 -3.960000 -12.556862 95.570641 9291.421875
3.920000 6.120000 -3.920000 -68.092834 56.421715 7820.043945
3.920000 6.120000 -3.880000 -76.052628 -8.732523 5860.258789
3.920000 6.120000 -3.840000 -36.665478 -54.136860 4275.156738
3.920000 6.120000 -3.800000 15.368196 -55.139923 3276.592529
3.920000 6.160000 -4.200000 -2.786955 -2.803524 15.626864
3.920000 6.160000 -4.160000 7.081561 -14.528169 261.216187
3.920000 6.160000 -4.120000 26.957401 -12.610508 885.726379
3.920000 6.160000 -4.080000 40.459488 9.338339 1724.174805
3.920000 6.160000 -4.040000 30.076595 39.573433 2470.658203
3.920000 6.160000 -4.000000 -4.888374 53.778236 2915.994873
3.920000 6.160000 -3.960000 -43.025330 35.310242 3097.992188
3.920000 6.160000 -3.920000 -56.194382 -8.081818 3223.124268
3.920000 6.160000 -3.880000 -33.121498 -48.289829 3428.941406
3.920000 6.160000 -3.840000 10.803193 -59.273365 3630.040771
3.920000 6.160000 -3.800000 46.825752 -37.431168 3593.743408
3.920000 6.200000 -4.200000 12.861166 -7.658820 224.067123
3.920000 6.200000 -4.160000 18.432930 -3.308790 350.721008
3.920000 6.200000 -4.120000 20.688232 5.204295 455.087646
3.920000 6.200000 -4.080000 15.731529 15.601149 490.876862
3.920000 6.200000 -4.040000 1.792862 21.078308 447.509430
3.920000 6.200000 -4.000000 -15.623440 13.657551 430.620575
3.920000 6.200000 -3.960000 -24.240299 -7.784794 648.195129
3.920000 6.200000 -3.920000 -13.634076 -32.787258 1260.892334
3.920000 6.200000 -3.880000 14.633906 -44.619385 2205.040771
3.920000 6.200000 -3.840000 45.579792 -32.871620 3158.060791
3.920000 6.200000 -3.800000 60.887123 -2.408710 3713.043701
3.960000 5.800000 -4.200000 -36.312729 85.169815 8572.511719
3.960000 5.800000 -4.160000 -68.495758 56.201233 7850.247559
3.960000 5.800000 -4.120000 -71.182266 14.475584 5276.457520
3.960000 5.800000 -4.080000 -46.825817 -12.347231 2345.111328
3.960000 5.800000 -4.040000 -19.242172 -11.671734 506.490570
3.960000 5.800000 -4.000000 -9.999928 3.546066 112.573135
3.960000 5.800000 -3.960000 -18.149555 10.344543 436.415924
3.960000 5.800000 -3.920000 -24.416676 0.353893 596.299316
3.960000 5.800000 -3.880000 -14.307289 -13.018991 374.192657
3.960000 5.800000 -3.840000 5.746390 -11.620815 168.064362
3.960000 5.800000 -3.800000 16.567215 6.096570 311.640808
3.960000 5.840000 -4.200000 -77.180748 38.376572 7429.628906
3.960000 5.840000 -4.160000 -78.025696 12.765305 6250.962402
3.960000 5.840000 -4.120000 -69.392090 -1.993200 4819.234863
3.960000 5.840000 -4.080000 -64.895111 -7.877529 4273.431152
3.960000 5.840000 -4.040000 -67.375717 -17.662605 4851.455078
3.960000 5.840000 -4.000000 -64.807632 -38.587185 5689.000000
3.960000 5.840000 -3.960000 -43.873756 -60.795601 5621.011719
3.960000 5.840000 -3.920000 -7.552223 -64.752289 4249.895020
3.960000 5.840000 -3.880000 23.214811 -41.665703 2274.958252
3.960000 5.840000 -3.840000 27.827713 -5.457161 804.162170
3.960000 5.840000 -3.800000 6.512293 17.898798 362.776917
3.960000 5.880000 -4.200000 -69.951363 -22.718153 5409.307617
3.960000 5.880000 -4.160000 -58.066689 -20.403257 3788.033203
3.960000 5.880000 -4.120000 -68.734207 -13.753308 4913.544434
3.960000 5.880000 -4.080000 -93.508698 -31.250996 9720.501953
3.960000 5.880000 -4.040000 -99.269646 -79.337067 16148.833008
3.960000 5.880000 -4.000000 -60.593727 -129.130646 20346.324219
3.960000 5.880000 -3.960000 10.753654 -139.287720 19516.708984
3.960000 5.880000 -3.920000 70.711761 -95.124962 14048.912109
3.960000 5.880000 -3.880000 80.445312 -25.364483 7114.805176
3.960000 5.880000 -3.840000 41.069736 21.651039 2155.490723
3.960000 5.880000 -3.800000 -8.360468 20.237991 479.473724
3.960000 5.920000 -4.200000 -22.350990 -55.704403 3602.547363
3.960000 5.920000 -4.160000 -28.594173 -28.145073 1609.771973
3.960000 5.920000 -4.120000 -69.543716 -30.054493 5739.601074
3.960000 5.920000 -4.080000 -98.520081 -85.308327 16983.716797
3.960000 5.920000 -4.040000 -65.954704 -162.369751 30713.958984
3.960000 5.920000 -4.000000 27.988239 -196.372177 39345.371094
3.960000 5.920000 -3.960000 125.208847 -148.655151 37775.609375
3.960000 5.920000 -3.920000 158.173203 -46.073875 27141.564453
3.960000 5.920000 -3.880000 109.992096 40.273895 13720.247070
3.960000 5.920000 -3.840000 27.916311 57.467941 4081.884766
3.960000 5.920000 -3.800000 -22.000053 14.265855 687.516968
3.960000 5.960000 -4.200000 27.877510 -42.482719 2581.937012
3.960000 5.960000 -4.160000 -10.787012 -17.129656 409.784729
3.960000 5.960000 -4.120000 -61.574371 -53.411591 6644.201172
3.960000 5.960000 -4.080000 -56.785782 -138.653961 22449.546875
3.960000 5.960000 -4.040000 30.888519 -201.376755 41506.699219
3.960000 5.960000 -4.000000 152.349243 -174.253845 53574.695312
3.960000 5.960000 -3.960000 219.366455 -60.390221 51768.621094
3.960000 5.960000 -3.920000 182.962769 64.016731 37573.515625
3.960000 5.960000 -3.880000 77.241302 115.883270 19395.152344
3.960000 5.960000 -3.840000 -13.775114 76.774872 6084.134766
3.960000 5.960000 -3.800000 -32.444061 1.722858 1055.585327
3.960000 6.000000 -4.200000 46.300682 -2.067617 2148.028320
3.960000 6.000000 -4.160000 -9.828112 -5.597330 127.921890
3.960000 6.000000 -4.120000 -36.953094 -73.183121 6721.300293
3.960000 6.000000 -4.080000 17.383015 -151.041962 23115.843750
3.960000 6.000000 -4.040000 133.619171 -158.292725 42910.667969
3.960000 6.000000 -4.000000 226.973328 -64.449722 55670.656250
3.960000 6.000000 -3.960000 220.663437 74.824898 54291.117188
3.960000 6.000000 -3.920000 116.552391 162.871765 40111.671875
3.960000 6.000000 -3.880000 -6.259926 146.593201 21528.753906
3.960000 6.000000 -3.840000 -63.389694 59.132904 7514.954102
3.960000 6.000000 -3.800000 -36.794228 -18.134089 1682.660400
3.960000 6.040000 -4.200000 29.285261 29.846651 1748.449097
3.960000 6.040000 -4.160000 -14.827526 -5.006016 244.915726
3.960000 6.040000 -4.120000 -1.841705 -74.789169 5596.812012
3.960000 6.040000 -4.080000 81.043228 -110.239532 18720.759766
3.960000 6.040000 -4.040000 176.714874 -58.033043 34595.980469
3.960000 6.040000 -4.000000 202.884125 62.366814 45051.589844
3.960000 6.040000 -3.960000 127.407547 168.040298 44470.222656
3.960000 6.040000 -3.920000 0.715748 183.734695 33758.949219
3.960000 6.040000 -3.880000 -88.034798 107.411995 19287.462891
3.960000 6.040000 -3.840000 -88.808174 7.442816 7942.287109
3.960000 6.040000 -3.800000 -27.634041 -43.033981 2615.563721
3.960000 6.080000 -4.200000 1.448349 33.077091 1096.191650
3.960000 6.080000 -4.160000 -13.114004 -11.681843 308.442566
3.960000 6.080000 -4.120000 26.611509 -54.740078 3704.648438
3.960000 6.080000 -4.080000 99.182877 -43.569523 11735.546875
3.960000 6.080000 -4.040000 142.309799 33.623672 21382.628906
3.960000 6.080000 -4.000000 107.483574 127.741035 27870.492188
3.960000 6.080000 -3.960000 8.150707 167.050125 27972.177734
3.960000 6.080000 -3.920000 -87.733505 120.392159 22191.439453
3.960000 6.080000 -3.880000 -116.042747 24.650393 14073.560547
3.960000 6.080000 -3.840000 -70.064949 -49.907196 7399.825195
3.960000 6.080000 -3.800000 0.761663 -61.358349 3765.427002
3.960000 6.120000 -4.200000 -11.064697 16.411062 391.750488
3.960000 6.120000 -4.160000 -2.958019 -14.393972 215.936325
3.960000 6.120000 -4.120000 35.213055 -25.149349 1872.448975
3.960000 6.120000 -4.080000 73.193863 7.009167 5406.470215
3.960000 6.120000 -4.040000 70.310059 67.461601 9494.572266
3.960000 6.120000 -4.000000 14.652725 109.812057 12273.389648
3.960000 6.120000 -3.960000 -60.239998 94.940948 12642.641602
3.960000 6.120000 -3.920000 -100.896667 27.505405 10936.684570
3.960000 6.120000 -3.880000 -79.457397 -46.205624 8448.437500
3.960000 6.120000 -3.840000 -16.214170 -77.912445 6333.248535
3.960000 6.120000 -3.800000 41.363403 -56.477165 4900.601562
3.960000 6.160000 -4.200000 -3.483013 2.885406 20.456951
3.960000 6.160000 -4.160000 7.079725 -7.537756 106.940277
3.960000 6.160000 -4.120000 25.894258 -2.951303 679.222839
3.960000 6.160000 -4.080000 34.536251 20.779743 1624.550415
3.960000 6.160000 -4.040000 16.829327 47.558395 2545.027344
3.960000 6.160000 -4.000000 -22.122833 51.258141 3116.816650
3.960000 6.160000 -3.960000 -54.859650 19.727577 3398.758301
3.960000 6.160000 -3.920000 -53.116058 -30.539265 3753.962402
3.960000 6.160000 -3.880000 -13.086627 -65.327240 4438.908203
3.960000 6.160000 -3.840000 39.949978 -60.630375 5272.042969
3.960000 6.160000 -3.800000 72.553963 -21.721624 5735.906738
3.960000 6.200000 -4.200000 8.939999 5.308125 108.099777
3.960000 6.200000 -4.160000 8.914997 4.045828 95.845894
3.960000 6.200000 -4.120000 11.949579 4.641909 164.339767
3.960000 6.200000 -4.080000 12.730305 10.321157 268.586914
3.960000 6.200000 -4.040000 5.021301 15.634441 269.649231
3.960000 6.200000 -4.000000 -8.092037 10.057495 166.634277
3.960000 6.200000 -3.960000 -12.977021 -9.598724 260.538574
3.960000 6.200000 -3.920000 2.629673 -31.421946 994.253845
3.960000 6.200000 -3.880000 35.507523 -35.728527 2537.311768
3.960000 6.200000 -3.840000 65.862595 -12.369504 4490.885742
3.960000 6.200000 -3.800000 72.297211 28.550701 6042.029297
4.000000 5.800000 -4.200000 -85.259109 51.900764 9962.804688
4.000000 5.800000 -4.160000 -97.755997 4.267599 9574.447266
4.000000 5.800000 -4.120000 -74.623596 -38.276199 7033.748535
4.000000 5.800000 -4.080000 -33.510563 -51.062881 3730.375977
4.000000 5.800000 -4.040000 -3.664420 -34.748520 1220.887573
4.000000 5.800000 -4.000000 0.871872 -12.346741 153.202164
4.000000 5.800000 -3.960000 -8.473801 -4.921135 96.022865
4.000000 5.800000 -3.920000 -10.712296 -11.831997 254.749420
4.000000 5.800000 -3.880000 1.013321 -15.619041 244.981277
4.000000 5.800000 -3.840000 13.736710 -4.338898 207.523224
4.000000 5.800000 -3.800000 11.724911 14.426706 345.603394
4.000000 5.840000 -4.200000 -93.823013 -15.827820 9053.277344
4.000000 5.840000 -4.160000 -78.730545 -43.485100 8089.452148
4.000000 5.840000 -4.120000 -58.082653 -55.432419 6446.347656
4.000000 5.840000 -4.080000 -43.646832 -58.462994 5322.967773
4.000000 5.840000 -4.040000 -33.724525 -63.977470 5230.460449
4.000000 5.840000 -4.000000 -17.250015 -72.916145 5614.327148
4.000000 5.840000 -3.960000 10.321136 -73.032997 5440.344727
4.000000 5.840000 -3.920000 37.318119 -52.874008 4188.302734
4.000000 5.840000 -3.880000 44.767349 -17.720787 2318.141846
4.000000 5.840000 -3.840000 26.084272 11.106255 803.738159
4.000000 5.840000 -3.800000 -3.576253 15.073302 239.994019
4.000000 5.880000 -4.200000 -50.001591 -67.122284 7005.560059
4.000000 5.880000 -4.160000 -37.303955 -62.227169 5263.805664
4.000000 5.880000 -4.120000 -43.943008 -63.583233 5973.815430
4.000000 5.880000 -4.080000 -49.007050 -89.339722 10383.277344
4.000000 5.880000 -4.040000 -23.656807 -127.012978 16691.941406
4.000000 5.880000 -4.000000 35.645882 -140.578812 21033.031250
4.000000 5.880000 -3.960000 96.440315 -105.074440 20341.371094
4.000000 5.880000 -3.920000 116.317902 -34.763622 14738.364258
4.000000 5.880000 -3.880000 82.164619 25.264149 7389.302246
4.000000 5.880000 -3.840000 23.679398 38.065979 2009.732666
4.000000 5.880000 -3.800000 -13.115335 7.097624 222.388290
4.000000 5.920000 -4.200000 13.298180 -68.829269 4914.310059
4.000000 5.920000 -4.160000 -2.773193 -49.817486 2489.472656
4.000000 5.920000 -4.120000 -31.760435 -72.359543 6244.628418
4.000000 5.920000 -4.080000 -22.555941 -131.015594 17673.855469
4.000000 5.920000 -4.040000 47.933472 -172.901794 32192.648438
4.000000 5.920000 -4.000000 143.321213 -145.386185 41678.113281
4.000000 5.920000 -3.960000 194.472641 -50.006851 40320.292969
4.000000 5.920000 -3.920000 161.880814 52.664627 28978.960938
4.000000 5.920000 -3.880000 72.985977 95.014137 14354.638672
4.000000 5.920000 -3.840000 -2.839458 61.577339 3799.831299
4.000000 5.920000 -3.800000 -16.965399 -1.558197 290.252747
4.000000 5.960000 -4.200000 51.918388 -27.601931 3457.385742
4.000000 5.960000 -4.160000 8.487904 -25.965328 746.242737
4.000000 5.960000 -4.120000 -12.571711 -81.913666 6867.896484
4.000000 5.960000 -4.080000 38.855553 -148.364822 23521.875000
4.000000 5.960000 -4.040000 146.667633 -150.489319 44158.429688
4.000000 5.960000 -4.000000 232.592957 -59.003746 57580.925781
4.000000 5.960000 -3.960000 224.506454 74.382996 55935.976562
4.000000 5.960000 -3.920000 124.126366 158.471207 40520.476562
4.000000 5.960000 -3.880000 6.791832 143.011810 20498.505859
4.000000 5.960000 -3.840000 -46.870499 60.259308 5828.027832
4.000000 5.960000 -3.800000 -20.213659 -10.967052 528.868225
4.000000 6.000000 -4.200000 46.928276 19.924898 2599.264648
4.000000 6.000000 -4.160000 2.476713 -11.158632 130.649185
4.000000 6.000000 -4.120000 16.015953 -81.264709 6860.463867
4.000000 6.000000 -4.080000 103.957626 -116.670197 24419.123047
4.000000 6.000000 -4.040000 206.360565 -58.749889 46036.234375
4.000000 6.000000 -4.000000 234.402710 72.833527 60249.351562
4.000000 6.000000 -3.960000 152.662964 188.967194 59014.582031
4.000000 6.000000 -3.920000 15.273566 208.143768 43557.109375
4.000000 6.000000 -3.880000 -81.366577 128.180771 23050.830078
4.000000 6.000000 -3.840000 -83.514664 23.414801 7522.952148
4.000000 6.000000 -3.800000 -20.493874 -27.112011 1155.060059
4.000000 6.040000 -4.200000 15.302845 41.108910 1924.119629
4.000000 6.040000 -4.160000 -4.389027 -9.839569 116.080681
4.000000 6.040000 -4.120000 42.524830 -61.826298 5630.852539
4.000000 6.040000 -4.080000 131.791748 -48.290108 19701.000000
4.000000 6.040000 -4.040000 186.434113 47.526009 37016.402344
4.000000 6.040000 -4.000000 145.184143 166.042374 48648.507812
4.000000 6.040000 -3.960000 23.321856 218.546295 48306.394531
4.000000 6.040000 -3.920000 -96.122833 165.975189 36787.363281
4.000000 6.040000 -3.880000 -134.688049 53.033531 20953.425781
4.000000 6.040000 -3.840000 -84.601715 -34.923595 8377.107422
4.000000 6.040000 -3.800000 -6.480618 -48.196892 2364.938721
4.000000 6.080000 -4.200000 -11.461720 32.313789 1175.552002
4.000000 6.080000 -4.160000 -3.160670 -12.366631 162.923386
4.000000 6.080000 -4.120000 51.399902 -29.938343 3538.254395
4.000000 6.080000 -4.080000 108.330200 15.525846 11976.484375
4.000000 6.080000 -4.040000 107.186821 104.277161 22362.742188
4.000000 6.080000 -4.000000 29.199024 169.446533 29564.710938
4.000000 6.080000 -3.960000 -78.656693 154.348373 30010.294922
4.000000 6.080000 -3.920000 -141.076172 64.737587 24093.441406
4.000000 6.080000 -3.880000 -119.351097 -35.394241 15497.436523
4.000000 6.080000 -3.840000 -41.785294 -80.584686 8239.902344
4.000000 6.080000 -3.800000 27.589128 -57.741585 4095.250488
4.000000 6.120000 -4.200000 -16.707773 14.101646 478.006104
4.000000 6.120000 -4.160000 1.979332 -9.433195 92.902924
4.000000 6.120000 -4.120000 39.139084 -3.285301 1542.661133
4.000000 6.120000 -4.080000 58.190163 40.612099 5035.437500
4.000000 6.120000 -4.040000 28.859352 91.920105 9282.167969
4.000000 6.120000 -4.000000 -39.484581 103.839470 12341.667969
4.000000 6.120000 -3.960000 -99.514732 55.836147 13020.857422
4.000000 6.120000 -3.920000 -104.954941 -24.287960 11605.445312
4.000000 6.120000 -3.880000 -51.003784 -82.217896 9361.167969
4.000000 6.120000 -3.840000 22.556828 -82.935715 7387.143555
4.000000 6.120000 -3.800000 67.488373 -37.077675 5929.434570
4.000000 6.160000 -4.200000 -8.105593 6.566768 108.823067
4.000000 6.160000 -4.160000 2.753609 -1.808397 10.852661
4.000000 6.160000 -4.120000 18.460377 5.487364 370.896698
4.000000 6.160000 -4.080000 20.061363 27.808903 1175.793335
4.000000 6.160000 -4.040000 -3.174507 45.137512 2047.472534
4.000000 6.160000 -4.000000 -38.102348 34.461647 2639.394043
4.000000 6.160000 -3.960000 -54.712708 -6.267822 3032.766113
4.000000 6.160000 -3.920000 -32.262905 -51.303104 3672.903564
4.000000 6.160000 -3.880000 20.087379 -66.750839 4859.177246
4.000000 6.160000 -3.840000 69.004242 -39.337486 6309.023438
4.000000 6.160000 -3.800000 84.311722 12.900414 7274.887207
4.000000 6.200000 -4.200000 -2.767460 11.579648 141.747070
4.000000 6.200000 -4.160000 -2.426928 3.418216 17.574177
4.000000 6.200000 -4.120000 5.641779 0.096010 31.838888
4.000000 6.200000 -4.080000 11.657299 6.081018 172.871414
4.000000 6.200000 -4.040000 7.166885 13.125488 223.642685
4.000000 6.200000 -4.000000 -2.844384 8.660370 83.092529
4.000000 6.200000 -3.960000 -2.516861 -8.418583 77.207123
4.000000 6.200000 -3.920000 18.313976 -22.394848 836.930908
4.000000 6.200000 -3.880000 50.455219 -13.727575 2734.175537
4.000000 6.200000 -3.840000 70.125961 21.397684 5375.511230
4.000000 6.200000 -3.800000 59.050735 64.827194 7689.554199
4.040000 5.800000 -4.200000 -95.181877 -2.074440 9063.893555
4.040000 5.800000 -4.160000 -81.496964 -49.998756 9141.630859
4.040000 5.800000 -4.120000 -38.834862 -76.373405 7341.043457
4.040000 5.800000 -4.080000 6.386136 -67.467438 4592.637695
4.040000 5.800000 -4.040000 28.459396 -36.177219 2118.728516
4.040000 5.800000 -4.000000 23.674423 -8.586964 634.214294
4.040000 5.800000 -3.960000 9.435341 0.313046 89.123657
4.040000 5.800000 -3.920000 3.809319 -2.931252 23.103144
4.040000 5.800000 -3.880000 8.090822 -2.499966 71.711227
4.040000 5.800000 -3.840000 9.838644 7.192071 148.524811
4.040000 5.800000 -3.800000 0.555948 16.501726 272.616058
4.040000 5.840000 -4.200000 -68.630173 -62.063164 8561.936523
4.040000 5.840000 -4.160000 -40.569317 -81.088730 8221.251953
4.040000 5.840000 -4.120000 -11.870686 -82.625275 6967.849121
4.040000 5.840000 -4.080000 8.665535 -74.665955 5650.096191
4.040000 5.840000 -4.040000 23.087429 -65.616608 4838.568359
4.040000 5.840000 -4.000000 37.312531 -55.123482 4430.823242
4.040000 5.840000 -3.960000 50.206116 -36.968262 3887.306396
4.040000 5.840000 -3.920000 52.281044 -10.591011 2845.477051
4.040000 5.840000 -3.880000 36.657608 12.885460 1509.815308
4.040000 5.840000 -3.840000 10.183668 18.895851 460.760284
4.040000 5.840000 -3.800000 -9.160204 4.557592 104.680984
4.040000 5.880000 -4.200000 -7.393757 -82.614166 6879.768066
4.040000 5.880000 -4.160000 5.160032 -75.611717 5743.757812
4.040000 5.880000 -4.120000 7.848296 -78.310791 6194.175781
4.040000 5.880000 -4.080000 21.310759 -93.772072 9247.349609
4.040000 5.880000 -4.040000 57.952866 -101.489639 13658.681641
4.040000 5.880000 -4.000000 102.927422 -77.287079 16567.345703
4.040000 5.880000 -3.960000 123.281532 -21.406029 15656.553711
4.040000 5.880000 -3.920000 98.929703 35.345032 11036.357422
4.040000 5.880000 -3.880000 44.742977 56.613396 5207.010742
4.040000 5.880000 -3.840000 -0.046349 33.593483 1128.524292
4.040000 5.880000 -3.800000 -6.339225 -6.707087 85.170784
4.040000 5.920000 -4.200000 45.402679 -53.535103 4927.410645
4.040000 5.920000 -4.160000 29.308771 -46.563217 3027.137451
4.040000 5.920000 -4.120000 22.530102 -73.440872 5901.166992
4.040000 5.920000 -4.080000 58.330948 -107.012665 14854.208984
4.040000 5.920000 -4.040000 127.921120 -99.506104 26265.277344
4.040000 5.920000 -4.000000 180.450882 -31.681492 33566.238281
4.040000 5.920000 -3.960000 168.158722 61.355598 32041.865234
4.040000 5.920000 -3.920000 93.472977 117.202011 22473.507812
4.040000 5.920000 -3.880000 10.042271 101.937927 10492.188477
4.040000 5.920000 -3.840000 -24.951511 40.224300 2240.572266
4.040000 5.920000 -3.800000 -0.862350 -9.723921 95.298279
4.040000 5.960000 -4.200000 58.052509 -1.817425 3373.396729
4.040000 5.960000 -4.160000 27.826975 -18.777807 1126.946533
4.040000 5.960000 -4.120000 39.645573 -66.865395 6042.752441
4.040000 5.960000 -4.080000 108.361191 -88.663849 19603.425781
4.040000 5.960000 -4.040000 187.119751 -37.182076 36396.308594
4.040000 5.960000 -4.000000 204.853668 71.662247 47100.500000
4.040000 5.960000 -3.960000 133.785461 165.329285 45232.320312
4.040000 5.960000 -3.920000 19.570484 177.926666 32040.902344
4.040000 5.960000 -3.880000 -57.909431 109.721832 15392.382812
4.040000 5.960000 -3.840000 -55.626423 24.455078 3692.349609
4.040000 5.960000 -3.800000 -1.117706 -11.646936 136.900391
4.040000 6.000000 -4.200000 33.410995 34.989243 2340.541748
4.040000 6.000000 -4.160000 15.447048 -6.208735 277.159668
4.040000 6.000000 -4.120000 57.568249 -50.010342 5815.137695
4.040000 6.000000 -4.080000 138.529633 -34.023777 20348.076172
4.040000 6.000000 -4.040000 186.628052 57.820923 38173.289062
4.040000 6.000000 -4.000000 144.727371 169.442871 49656.898438
4.040000 6.000000 -3.960000 28.265797 217.589172 48144.003906
4.040000 6.000000 -3.920000 -83.659302 166.939697 34867.742188
4.040000 6.000000 -3.880000 -117.912117 61.878517 17732.218750
4.040000 6.000000 -3.840000 -70.092880 -16.166357 5174.362793
4.040000 6.000000 -3.800000 -0.572111 -22.396019 501.908966
4.040000 6.040000 -4.200000 -0.500853 40.021729 1601.989624
4.040000 6.040000 -4.160000 6.939848 -4.886499 72.039368
4.040000 6.040000 -4.120000 64.289734 -21.577887 4598.774902
4.040000 6.040000 -4.080000 123.984184 29.516811 16243.320312
4.040000 6.040000 -4.040000 120.392471 126.651863 30535.041016
4.040000 6.040000 -4.000000 34.087753 197.044128 39988.363281
4.040000 6.040000 -3.960000 -82.905914 180.410583 39421.367188
4.040000 6.040000 -3.920000 -149.662415 85.173615 29653.382812
4.040000 6.040000 -3.880000 -127.196404 -18.550667 16523.052734
4.040000 6.040000 -3.840000 -49.149948 -62.372932 6306.100098
4.040000 6.040000 -3.800000 15.322454 -36.871758 1594.304077
4.040000 6.080000 -4.200000 -18.995556 24.661942 969.042480
4.040000 6.080000 -4.160000 4.406382 -4.282981 37.760124
4.040000 6.080000 -4.120000 51.278099 5.781979 2662.874756
4.040000 6.080000 -4.080000 73.355011 64.026871 9480.397461
4.040000 6.080000 -4.040000 32.993031 129.813721 17940.140625
4.040000 6.080000 -4.000000 -55.336151 144.042038 23810.199219
4.040000 6.080000 -3.960000 -131.003860 83.778107 24180.783203
4.040000 6.080000 -3.920000 -138.736389 -13.532764 19430.919922
4.040000 6.080000 -3.880000 -76.938400 -81.623306 12581.881836
4.040000 6.080000 -3.840000 3.687324 -82.559998 6829.749512
4.040000 6.080000 -3.800000 48.028973 -34.572220 3502.020508
4.040000 6.120000 -4.200000 -19.287136 10.328262 478.666626
4.040000 6.120000 -4.160000 1.395229 -0.997910 2.942490
4.040000 6.120000 -4.120000 25.723705 16.214449 924.617310
4.040000 6.120000 -4.080000 22.598568 54.903992 3525.143555
4.040000 6.120000 -4.040000 -19.685349 80.298859 6835.419922
4.040000 6.120000 -4.000000 -75.558350 60.114922 9322.867188
4.040000 6.120000 -3.960000 -100.244682 -2.451752 10055.006836
4.040000 6.120000 -3.920000 -69.214577 -66.934784 9270.922852
4.040000 6.120000 -3.880000 -1.107714 -88.981979 7919.019531
4.040000 6.120000 -3.840000 58.389271 -57.597458 6726.773926
4.040000 6.120000 -3.800000 75.700378 -1.072552 5731.697754
4.040000 6.160000 -4.200000 -14.618109 6.735472 259.055695
4.040000 6.160000 -4.160000 -5.125837 0.137678 26.293163
4.040000 6.160000 -4.120000 5.743488 7.197063 84.785385
4.040000 6.160000 -4.080000 2.326939 22.682550 519.912781
4.040000 6.160000 -4.040000 -18.377542 27.438801 1090.621826
4.040000 6.160000 -4.000000 -38.726952 7.349594 1553.793213
4.040000 6.160000 -3.960000 -34.346062 -29.016224 2021.593262
4.040000 6.160000 -3.920000 1.958954 -53.813038 2899.680420
4.040000 6.160000 -3.880000 50.261150 -43.405441 4410.215820
4.040000 6.160000 -3.840000 78.651077 0.227314 6186.043945
4.040000 6.160000 -3.800000 69.521103 50.833778 7417.256836
4.040000 6.200000 -4.200000 -15.518701 7.803218 301.720276
4.040000 6.200000 -4.160000 -10.493673 -4.434366 129.780792
4.040000 6.200000 -4.120000 2.783298 -7.312764 61.223270
4.040000 6.200000 -4.080000 11.662248 0.923958 136.861725
4.040000 6.200000 -4.040000 9.334639 9.344032 174.446411
4.040000 6.200000 -4.000000 3.553473 6.999512 61.620331
4.040000 6.200000 -3.960000 8.735916 -3.030872 85.502419
4.040000 6.200000 -3.920000 28.907906 -4.398283 855.011902
4.040000 6.200000 -3.880000 49.996834 16.188711 2761.757812
4.040000 6.200000 -3.840000 50.881233 53.527039 5454.043945
4.040000 6.200000 -3.800000 22.958477 85.744995 7879.295898
4.080000 5.800000 -4.200000 -68.047150 -40.691292 6286.195801
4.080000 5.800000 -4.160000 -36.728241 -72.619827 6622.603027
4.080000 5.800000 -4.120000 9.641024 -75.814316 5840.759766
4.080000 5.800000 -4.080000 44.764217 -48.327423 4339.375000
4.080000 5.800000 -4.040000 51.329842 -9.399491 2723.103027
4.080000 5.800000 -4.000000 33.827084 17.319069 1444.221680
4.080000 5.800000 -3.960000 11.374428 22.741550 646.555725
4.080000 5.800000 -3.920000 -0.888576 15.752045 248.916473
4.080000 5.800000 -3.880000 -2.904285 10.063238 109.703636
4.080000 5.800000 -3.840000 -3.977757 9.981909 115.461060
4.080000 5.800000 -3.800000 -9.244707 9.481289 175.359436
4.080000 5.840000 -4.200000 -25.213970 -74.361755 6165.415039
4.080000 5.840000 -4.160000 6.803038 -79.648972 6390.239746
4.080000 5.840000 -4.120000 35.045395 -67.840393 5830.498535
4.080000 5.840000 -4.080000 51.658737 -46.422813 4823.703125
4.080000 5.840000 -4.040000 56.525997 -23.762135 3759.827637
4.080000 5.840000 -4.000000 53.104858 -3.779472 2834.410400
4.080000 5.840000 -3.960000 43.159676 12.585815 2021.160278
4.080000 5.840000 -3.920000 26.947191 22.786617 1245.381104
4.080000 5.840000 -3.880000 7.916506 22.275009 558.847107
4.080000 5.840000 -3.840000 -5.496825 10.021864 130.652847
4.080000 5.840000 -3.800000 -5.411392 -6.747147 74.807144
4.080000 5.880000 -4.200000 27.442875 -65.999184 5109.003418
4.080000 5.880000 -4.160000 39.755821 -57.011971 4830.890137
4.080000 5.880000 -4.120000 49.061768 -52.616692 5175.573242
4.080000 5.880000 -4.080000 65.383751 -48.329063 6610.733398
4.080000 5.880000 -4.040000 86.862129 -30.933975 8501.940430
4.080000 5.880000 -4.000000 97.043739 4.491573 9437.661133
4.080000 5.880000 -3.960000 80.298630 43.556931 8345.076172
4.080000 5.880000 -3.920000 40.438599 61.771927 5451.051270
4.080000 5.880000 -3.880000 1.999836 47.067207 2219.321289
4.080000 5.880000 -3.840000 -9.749043 13.192123 269.075958
4.080000 5.880000 -3.800000 8.390960 -10.934103 189.962814
4.080000 5.920000 -4.200000 55.358566 -25.378929 3708.660889
4.080000 5.920000 -4.160000 47.591782 -24.684790 2874.316650
4.080000 5.920000 -4.120000 56.390633 -38.676598 4675.782715
4.080000 5.920000 -4.080000 90.573662 -39.758556 9784.331055
4.080000 5.920000 -4.040000 126.583717 -4.193993 16041.027344
4.080000 5.920000 -4.000000 127.393608 58.522789 19654.048828
4.080000 5.920000 -3.960000 79.778992 108.067032 18043.171875
4.080000 5.920000 -3.920000 11.745956 108.668015 11946.705078
4.080000 5.920000 -3.880000 -29.962362 63.446907 4923.252930
4.080000 5.920000 -3.840000 -21.861687 12.681894 638.763794
4.080000 5.920000 -3.800000 16.078566 -3.249126 269.077087
4.080000 5.960000 -4.200000 46.924595 16.684650 2480.295410
4.080000 5.960000 -4.160000 36.734074 -2.062939 1353.647949
4.080000 5.960000 -4.120000 62.666004 -23.696091 4488.532715
4.080000 5.960000 -4.080000 112.325745 -7.659472 12675.741211
4.080000 5.960000 -4.040000 138.867783 56.777569 22507.953125
4.080000 5.960000 -4.000000 104.713219 131.698547 28309.367188
4.080000 5.960000 -3.960000 21.837578 160.824524 26341.406250
4.080000 5.960000 -3.920000 -54.198875 121.717133 17752.578125
4.080000 5.960000 -3.880000 -73.353851 47.904716 7675.649414
4.080000 5.960000 -3.840000 -35.633896 -2.053143 1273.989990
4.080000 5.960000 -3.800000 12.571903 1.924996 161.758362
4.080000 6.000000 -4.200000 17.880947 36.014854 1616.797974
4.080000 6.000000 -4.160000 22.117510 6.539164 531.944885
4.080000 6.000000 -4.120000 64.004509 -2.694158 4103.835449
4.080000 6.000000 -4.080000 107.262993 39.806965 13089.944336
4.080000 6.000000 -4.040000 100.427856 117.137321 23806.906250
4.080000 6.000000 -4.000000 28.748842 171.537720 30251.685547
4.080000 6.000000 -3.960000 -65.224045 155.757446 28514.558594
4.080000 6.000000 -3.920000 -116.570526 78.601166 19766.830078
4.080000 6.000000 -3.880000 -96.067467 -1.717016 9231.906250
4.080000 6.000000 -3.840000 -34.405746 -30.698208 2126.135254
4.080000 6.000000 -3.800000 10.340206 -4.655911 128.597366
4.080000 6.040000 -4.200000 -7.820080 31.531483 1055.388062
4.080000 6.040000 -4.160000 11.441601 8.229952 198.642334
4.080000 6.040000 -4.120000 51.714462 19.721922 3063.339600
4.080000 6.040000 -4.080000 68.664154 74.470482 10260.619141
4.080000 6.040000 -4.040000 28.134382 134.561569 18898.359375
4.080000 6.040000 -4.000000 -55.162640 145.752792 24286.792969
4.080000 6.040000 -3.960000 -124.474632 88.765121 23373.179688
4.080000 6.040000 -3.920000 -130.286377 0.442471 16974.734375
4.080000 6.040000 -3.880000 -74.642166 -58.009300 8936.532227
4.080000 6.040000 -3.840000 -6.912037 -55.128319 3086.907959
4.080000 6.040000 -3.800000 23.568604 -12.821972 719.882019
4.080000 6.080000 -4.200000 -18.967295 18.182301 690.354309
4.080000 6.080000 -4.160000 2.550055 8.447124 77.856689
4.080000 6.080000 -4.120000 26.175100 29.998220 1585.029053
4.080000 6.080000 -4.080000 18.053986 72.904137 5640.959473
4.080000 6.080000 -4.040000 -31.945328 98.159821 10655.854492
4.080000 6.080000 -4.000000 -93.376083 72.821037 14021.996094
4.080000 6.080000 -3.960000 -118.438354 4.252380 14045.726562
4.080000 6.080000 -3.920000 -85.008774 -62.350716 11114.103516
4.080000 6.080000 -3.880000 -17.267313 -82.784866 7151.494141
4.080000 6.080000 -3.840000 36.649017 -51.542736 3999.804199
4.080000 6.080000 -3.800000 47.335194 -2.256231 2245.711182
4.080000 6.120000 -4.200000 -20.533527 8.445851 492.958130
4.080000 6.120000 -4.160000 -7.189432 5.199990 78.727829
4.080000 6.120000 -4.120000 1.681040 20.003950 402.983917
4.080000 6.120000 -4.080000 -11.847042 39.894958 1731.960083
4.080000 6.120000 -4.040000 -44.718922 39.329292 3546.575195
4.080000 6.120000 -4.000000 -70.222069 6.101105 4968.362793
4.080000 6.120000 -3.960000 -60.776466 -42.420753 5493.299316
4.080000 6.120000 -3.920000 -14.880707 -71.332245 5309.724609
4.080000 6.120000 -3.880000 39.130768 -58.414589 4943.481445
4.080000 6.120000 -3.840000 67.039932 -13.287277 4670.904297
4.080000 6.120000 -3.800000 57.069443 32.740654 4328.872070
4.080000 6.160000 -4.200000 -21.252743 2.799551 459.516571
4.080000 6.160000 -4.160000 -13.860530 -4.423785 211.684158
4.080000 6.160000 -4.120000 -5.679933 -1.677053 35.074142
4.080000 6.160000 -4.080000 -7.027739 5.046249 74.853745
4.080000 6.160000 -4.040000 -16.197731 2.633430 269.301453
4.080000 6.160000 -4.000000 -18.687675 -13.560135 533.106445
4.080000 6.160000 -3.960000 -1.702454 -31.312456 983.368286
4.080000 6.160000 -3.920000 30.575264 -30.829660 1885.314697
4.080000 6.160000 -3.880000 57.502155 -3.621857 3319.615723
4.080000 6.160000 -3.840000 58.959980 38.018810 4921.708984
4.080000 6.160000 -3.800000 32.435242 70.563095 6031.195312
4.080000 6.200000 -4.200000 -22.295403 -4.064647 513.606323
4.080000 6.200000 -4.160000 -11.444589 -16.252579 395.124908
4.080000 6.200000 -4.120000 5.334549 -16.173252 290.031494
4.080000 6.200000 -4.080000 15.857687 -5.310219 279.664642
4.080000 6.200000 -4.040000 16.078636 5.662209 290.583160
4.080000 6.200000 -4.000000 13.528667 9.318859 269.865967
4.080000 6.200000 -3.960000 17.592129 10.105661 411.607391
4.080000 6.200000 -3.920000 27.283737 19.295244 1116.708740
4.080000 6.200000 -3.880000 30.240168 41.431908 2631.070801
4.080000 6.200000 -3.840000 14.604053 66.861893 4683.791016
4.080000 6.200000 -3.800000 -18.314531 78.621994 6516.839844
4.120000 5.800000 -4.200000 -31.122871 -46.101601 3093.990723
4.120000 5.800000 -4.160000 1.628280 -57.702065 3332.179688
4.120000 5.800000 -4.120000 36.891991 -43.729462 3273.284668
4.120000 5.800000 -4.080000 54.233719 -9.186247 3025.683350
4.120000 5.800000 -4.040000 44.303818 26.408726 2660.249023
4.120000 5.800000 -4.000000 16.079355 43.871376 2183.243164
4.120000 5.800000 -3.960000 -11.283285 38.438110 1604.800781
4.120000 5.800000 -3.920000 -23.976128 20.808977 1007.868164
4.120000 5.800000 -3.880000 -22.191498 5.591356 523.725830
4.120000 5.800000 -3.840000 -15.447459 -0.795438 239.256714
4.120000 5.800000 -3.800000 -11.361433 -1.970218 132.963913
4.120000 5.840000 -4.200000 5.075707 -56.341442 3200.120850
4.120000 5.840000 -4.160000 31.872616 -50.348606 3550.845703
4.120000 5.840000 -4.120000 51.357391 -29.255825 3493.484863
4.120000 5.840000 -4.080000 55.245354 -1.236916 3053.579102
4.120000 5.840000 -4.040000 43.247631 22.362133 2370.422607
4.120000 5.840000 -4.000000 22.328028 33.593147 1627.040283
4.120000 5.840000 -3.960000 1.834413 31.155121 974.006592
4.120000 5.840000 -3.920000 -11.195078 19.236979 495.391113
4.120000 5.840000 -3.880000 -13.927460 4.325010 212.679840
4.120000 5.840000 -3.840000 -7.441482 -7.324978 109.030960
4.120000 5.840000 -3.800000 4.132186 -11.282439 144.368393
4.120000 5.880000 -4.200000 36.664642 -38.027939 2790.420166
4.120000 5.880000 -4.160000 48.003815 -26.576366 3010.669434
4.120000 5.880000 -4.120000 55.317162 -12.824951 3224.467773
4.120000 5.880000 -4.080000 58.877251 3.810543 3481.051025
4.120000 5.880000 -4.040000 55.274078 23.509262 3607.909180
4.120000 5.880000 -4.000000 40.343952 41.054356 3313.094727
4.120000 5.880000 -3.960000 16.266640 46.887978 2463.085938
4.120000 5.880000 -3.920000 -5.690819 35.514008 1293.630127
4.120000 5.880000 -3.880000 -12.258082 13.259759 326.081787
4.120000 5.880000 -3.840000 0.036664 -4.007847 16.064180
4.120000 5.880000 -3.800000 20.028828 -3.259643 411.779205
4.120000 5.920000 -4.200000 45.744804 -5.839527 2126.687256
4.120000 5.920000 -4.160000 46.144539 -1.988283 2133.271729
4.120000 5.920000 -4.120000 54.151321 1.061095 2933.491699
4.120000 5.920000 -4.080000 66.477051 15.613230 4662.971191
4.120000 5.920000 -4.040000 67.471375 44.273537 6512.532227
4.120000 5.920000 -4.000000 45.025372 71.932724 7201.601074
4.120000 5.920000 -3.960000 6.532598 77.211746 6004.328613
4.120000 5.920000 -3.920000 -23.586020 53.769180 3447.425049
4.120000 5.920000 -3.880000 -25.102245 19.416790 1007.134521
4.120000 5.920000 -3.840000 -1.619790 1.705116 5.531141
4.120000 5.920000 -3.800000 21.794975 12.797648 638.800720
4.120000 5.960000 -4.200000 32.952835 20.012650 1486.395386
4.120000 5.960000 -4.160000 33.942513 13.855719 1344.075073
4.120000 5.960000 -4.120000 50.194130 15.170340 2749.589844
4.120000 5.960000 -4.080000 66.164917 39.230099 5916.796875
4.120000 5.960000 -4.040000 57.276936 78.415672 9429.665039
4.120000 5.960000 -4.000000 16.507486 103.968018 11081.845703
4.120000 5.960000 -3.960000 -33.490662 92.104637 9604.888672
4.120000 5.960000 -3.920000 -58.187500 48.980980 5784.921875
4.120000 5.960000 -3.880000 -43.194283 7.709330 1925.179810
4.120000 5.960000 -3.840000 -8.301106 -1.639995 71.597954
4.120000 5.960000 -3.800000 11.484913 20.293325 543.722290
4.120000 6.000000 -4.200000 11.634898 29.772163 1021.752563
4.120000 6.000000 -4.160000 19.304636 21.050018 815.772217
4.120000 6.000000 -4.120000 38.876072 29.991495 2410.838867
4.120000 6.000000 -4.080000 45.403645 63.257614 6063.016602
4.120000 6.000000 -4.040000 17.876841 99.250412 10170.225586
4.120000 6.000000 -4.000000 -35.318489 104.860992 12243.223633
4.120000 6.000000 -3.960000 -78.819000 68.061203 10844.761719
4.120000 6.000000 -3.920000 -81.462494 12.805058 6800.107422
4.120000 6.000000 -3.880000 -45.902634 -21.149120 2554.336914
4.120000 6.000000 -3.840000 -6.191655 -14.621237 252.117157
4.120000 6.000000 -3.800000 4.892843 14.635038 238.124252
4.120000 6.040000 -4.200000 -6.313630 26.741064 754.946472
4.120000 6.040000 -4.160000 4.350101 22.215899 512.469543
4.120000 6.040000 -4.120000 17.247913 37.528458 1705.875610
4.120000 6.040000 -4.080000 8.708288 67.299637 4605.075684
4.120000 6.040000 -4.040000 -29.207146 84.262146 7953.166992
4.120000 6.040000 -4.000000 -74.783806 64.558136 9760.371094
4.120000 6.040000 -3.960000 -93.137093 13.890553 8867.464844
4.120000 6.040000 -3.920000 -68.803123 -33.874733 5881.367188
4.120000 6.040000 -3.880000 -21.429741 -46.567459 2627.762207
4.120000 6.040000 -3.840000 12.242357 -22.754574 667.645935
4.120000 6.040000 -3.800000 12.391607 9.144117 237.166809
4.120000 6.080000 -4.200000 -17.786251 18.197107 647.485474
4.120000 6.080000 -4.160000 -10.408175 16.389648 376.950684
4.120000 6.080000 -4.120000 -6.619095 28.321365 845.912170
4.120000 6.080000 -4.080000 -21.200583 43.190796 2314.909424
4.120000 6.080000 -4.040000 -50.789795 39.641846 4151.079102
4.120000 6.080000 -4.000000 -72.115280 8.611185 5274.766113
4.120000 6.080000 -3.960000 -62.718746 -33.414677 5050.181641
4.120000 6.080000 -3.920000 -23.924421 -56.603146 3776.293945
4.120000 6.080000 -3.880000 18.225151 -44.766647 2336.208984
4.120000 6.080000 -3.840000 36.125969 -10.016748 1405.420776
4.120000 6.080000 -3.800000 24.790176 19.722626 1003.534790
4.120000 6.120000 -4.200000 -24.396364 7.315204 648.694824
4.120000 6.120000 -4.160000 -20.132252 2.048132 409.502411
4.120000 6.120000 -4.120000 -17.227318 4.465452 316.720764
4.120000 6.120000 -4.080000 -23.303080 6.826241 589.631042
4.120000 6.120000 -4.040000 -33.182674 -2.289261 1106.330566
4.120000 6.120000 -4.000000 -31.996708 -23.178576 1561.035645
4.120000 6.120000 -3.960000 -10.858334 -40.920689 1792.406250
4.120000 6.120000 -3.920000 21.469894 -38.071564 1910.400391
4.120000 6.120000 -3.880000 44.254715 -11.804596 2097.828125
4.120000 6.120000 -3.840000 42.920815 22.371452 2342.678223
4.120000 6.120000 -3.800000 21.376083 44.381271 2426.634277
4.120000 6.160000 -4.200000 -25.668762 -5.739947 691.832397
4.120000 6.160000 -4.160000 -17.933216 -15.979654 576.949585
4.120000 6.160000 -4.120000 -6.766098 -17.919365 366.883728
4.120000 6.160000 -4.080000 0.514114 -14.454069 209.184433
4.120000 6.160000 -4.040000 4.095525 -12.335320 168.933441
4.120000 6.160000 -4.000000 10.312872 -12.839674 271.212555
4.120000 6.160000 -3.960000 22.473503 -9.269985 590.990967
4.120000 6.160000 -3.920000 34.589905 5.518731 1226.917969
4.120000 6.160000 -3.880000 35.589050 29.778416 2153.334473
4.120000 6.160000 -3.840000 19.876148 52.233215 3123.370117
4.120000 6.160000 -3.800000 -6.832101 61.076569 3777.024658
4.120000 6.200000 -4.200000 -19.060520 -18.032394 688.470703
4.120000 6.200000 -4.160000 -3.616153 -26.760784 729.216125
4.120000 6.200000 -4.120000 14.890188 -22.347336 721.121094
4.120000 6.200000 -4.080000 26.193535 -7.590819 743.721802
4.120000 6.200000 -4.040000 27.067089 8.762039 809.400635
4.120000 6.200000 -4.000000 21.989933 20.715031 912.669678
4.120000 6.200000 -3.960000 16.311359 29.291336 1124.042847
4.120000 6.200000 -3.920000 9.972212 38.576340 1587.579102
4.120000 6.200000 -3.880000 -1.557688 48.787838 2382.679688
4.120000 6.200000 -3.840000 -20.776276 54.293922 3379.483643
4.120000 6.200000 -3.800000 -43.537418 48.555473 4253.140625
4.160000 5.800000 -4.200000 -10.809338 -28.460144 926.821594
4.160000 5.800000 -4.160000 10.872139 -27.816845 891.980286
4.160000 5.800000 -4.120000 29.848536 -10.026147 991.458679
4.160000 5.800000 -4.080000 31.881092 18.986244 1376.881592
4.160000 5.800000 -4.040000 12.262215 42.587326 1964.042236
4.160000 5.800000 -4.000000 -18.291443 45.767929 2429.280273
4.160000 5.800000 -3.960000 -41.040916 27.527832 2442.138428
4.160000 5.800000 -3.920000 -43.968990 1.600946 1935.835083
4.160000 5.800000 -3.880000 -30.456367 -15.394941 1164.594482
4.160000 5.800000 -3.840000 -14.225102 -17.248943 499.879578
4.160000 5.800000 -3.800000 -6.087099 -10.750910 152.634842
4.160000 5.840000 -4.200000 9.260469 -32.000134 1109.764893
4.160000 5.840000 -4.160000 26.479622 -22.197403 1193.895020
4.160000 5.840000 -4.120000 34.549675 -0.726152 1194.207397
4.160000 5.840000 -4.080000 25.910059 22.410528 1173.562988
4.160000 5.840000 -4.040000 3.614499 33.921116 1163.706665
4.160000 5.840000 -4.000000 -19.771420 27.250074 1133.475586
4.160000 5.840000 -3.960000 -31.118340 7.632563 1026.607056
4.160000 5.840000 -3.920000 -26.024792 -12.169072 825.376099
4.160000 5.840000 -3.880000 -10.717039 -21.464203 575.566956
4.160000 5.840000 -3.840000 4.158327 -18.322947 353.022064
4.160000 5.840000 -3.800000 11.682013 -8.441594 207.729935
4.160000 5.880000 -4.200000 26.605949 -21.340715 1163.302734
4.160000 5.880000 -4.160000 35.216709 -8.052464 1305.058716
4.160000 5.880000 -4.120000 34.335617 8.949837 1259.034180
4.160000 5.880000 -4.080000 23.438608 22.235607 1043.790527
4.160000 5.880000 -4.040000 7.363277 26.048853 732.760559
4.160000 5.880000 -4.000000 -6.486355 19.422251 419.296631
4.160000 5.880000 -3.960000 -11.999042 6.478253 185.944763
4.160000 5.880000 -3.920000 -7.249199 -5.709440 85.148590
4.160000 5.880000 -3.880000 4.546161 -10.473244 130.356415
4.160000 5.880000 -3.840000 16.399364 -4.931787 293.261688
4.160000 5.880000 -3.800000 21.048548 8.156695 509.573029
4.160000 5.920000 -4.200000 33.422073 -2.648267 1124.048340
4.160000 5.920000 -4.160000 34.613029 8.591124 1271.869141
4.160000 5.920000 -4.120000 30.946554 18.591900 1303.347900
4.160000 5.920000 -4.080000 24.008255 26.217373 1263.746948
4.160000 5.920000 -4.040000 14.284795 30.614128 1141.280273
4.160000 5.920000 -4.000000 3.066916 29.552473 882.754700
4.160000 5.920000 -3.960000 -5.227970 21.736973 499.827637
4.160000 5.920000 -3.920000 -5.153997 10.838804 144.043365
4.160000 5.920000 -3.880000 3.764010 5.207922 41.290222
4.160000 5.920000 -3.840000 13.804707 11.141464 314.702148
4.160000 5.920000 -3.800000 14.022306 25.587296 851.334778
4.160000 5.960000 -4.200000 28.206945 15.997946 1051.566040
4.160000 5.960000 -4.160000 25.175970 23.046124 1164.953247
4.160000 5.960000 -4.120000 22.417347 28.509949 1315.354614
4.160000 5.960000 -4.080000 18.533165 35.798141 1624.985107
4.160000 5.960000 -4.040000 8.890984 43.162735 1942.071289
4.160000 5.960000 -4.000000 -6.336232 43.498940 1932.305542
4.160000 5.960000 -3.960000 -18.763239 32.728355 1423.204346
4.160000 5.960000 -3.920000 -19.036591 17.153675 656.640381
4.160000 5.960000 -3.880000 -7.865166 9.643647 154.860764
4.160000 5.960000 -3.840000 2.160638 16.753996 285.364746
4.160000 5.960000 -3.800000 -1.929596 30.364891 925.749939
4.160000 6.000000 -4.200000 13.615601 28.400486 991.972168
4.160000 6.000000 -4.160000 8.273386 31.032495 1031.464600
4.160000 6.000000 -4.120000 6.014373 33.895733 1185.093384
4.160000 6.000000 -4.080000 1.415383 40.696198 1658.183838
4.160000 6.000000 -4.040000 -11.311202 45.922703 2236.837891
4.160000 6.000000 -4.000000 -28.316896 40.173546 2415.760498
4.160000 6.000000 -3.960000 -37.296715 22.428268 1894.072144
4.160000 6.000000 -3.920000 -30.254253 4.405107 934.724792
4.160000 6.000000 -3.880000 -13.885314 0.146811 192.823502
4.160000 6.000000 -3.840000 -4.605228 10.935200 140.786713
4.160000 6.000000 -3.800000 -11.925592 22.571068 651.672852
4.160000 6.040000 -4.200000 -5.683636 30.515661 963.509277
4.160000 6.040000 -4.160000 -12.088469 27.719978 914.528320
4.160000 6.040000 -4.120000 -14.069105 26.616156 906.359436
4.160000 6.040000 -4.080000 -18.772799 28.988121 1192.729126
4.160000 6.040000 -4.040000 -29.674828 27.521368 1638.021118
4.160000 6.040000 -4.000000 -39.662682 15.374314 1809.497803
4.160000 6.040000 -3.960000 -37.652634 -3.141225 1427.588135
4.160000 6.040000 -3.920000 -21.914606 -14.447229 688.972412
4.160000 6.040000 -3.880000 -4.406976 -9.467113 109.047668
4.160000 6.040000 -3.840000 0.303503 5.696028 32.536846
4.160000 6.040000 -3.800000 -9.680294 15.036504 319.804535
4.160000 6.080000 -4.200000 -23.067585 20.665821 959.189636
4.160000 6.080000 -4.160000 -27.285595 11.219784 870.387207
4.160000 6.080000 -4.120000 -25.439068 4.968285 671.830017
4.160000 6.080000 -4.080000 -24.521370 2.607390 608.096069
4.160000 6.080000 -4.040000 -26.270136 -1.810640 693.398499
4.160000 6.080000 -4.000000 -24.606800 -11.198227 730.894897
4.160000 6.080000 -3.960000 -13.860153 -19.505369 572.563293
4.160000 6.080000 -3.920000 2.224357 -17.398636 307.660278
4.160000 6.080000 -3.880000 12.214856 -3.446285 161.079590
4.160000 6.080000 -3.840000 8.499294 12.487716 228.181046
4.160000 6.080000 -3.800000 -4.162805 18.549639 361.418060
4.160000 6.120000 -4.200000 -30.776999 1.716787 950.171021
4.160000 6.120000 -4.160000 -27.815388 -12.316315 925.387390
4.160000 6.120000 -4.120000 -17.529095 -19.882839 702.596436
4.160000 6.120000 -4.080000 -7.278383 -20.243620 462.778992
4.160000 6.120000 -4.040000 0.112930 -17.779720 316.131226
4.160000 6.120000 -4.000000 6.979853 -14.754549 266.415070
4.160000 6.120000 -3.960000 14.792180 -8.603334 292.825958
4.160000 6.120000 -3.920000 19.911852 3.334428 407.600250
4.160000 6.120000 -3.880000 16.810551 18.132954 611.398621
4.160000 6.120000 -3.840000 4.965356 28.304152 825.779785
4.160000 6.120000 -3.800000 -9.230542 28.965885 924.225464
4.160000 6.160000 -4.200000 -24.151117 -17.639721 894.436279
4.160000 6.160000 -4.160000 -11.738544 -29.629436 1015.696899
4.160000 6.160000 -4.120000 6.293828 -30.716972 983.144653
4.160000 6.160000 -4.080000 21.163944 -21.057621 891.335938
4.160000 6.160000 -4.040000 28.173441 -6.094050 830.880249
4.160000 6.160000 -4.000000 27.733910 8.949989 849.272034
4.160000 6.160000 -3.960000 22.028185 21.796724 960.338135
4.160000 6.160000 -3.920000 12.263696 31.665142 1153.079468
4.160000 6.160000 -3.880000 -0.772468 37.174091 1382.509766
4.160000 6.160000 -3.840000 -14.923227 36.780357 1575.497437
4.160000 6.160000 -3.800000 -26.964069 30.789692 1675.066162
4.160000 6.200000 -4.200000 -6.613761 -26.719769 757.687866
4.160000 6.200000 -4.160000 10.855531 -29.755154 1003.211670
4.160000 6.200000 -4.120000 28.705303 -19.843613 1217.763428
4.160000 6.200000 -4.080000 37.828602 0.178664 1431.035034
4.160000 6.200000 -4.040000 34.039330 22.234516 1653.049561
4.160000 6.200000 -4.000000 19.636452 38.354347 1856.646118
4.160000 6.200000 -3.960000 0.739262 44.703415 1998.941772
4.160000 6.200000 -3.920000 -16.722958 42.169239 2057.902100
4.160000 6.200000 -3.880000 -29.619459 34.268532 2051.644531
4.160000 6.200000 -3.840000 -37.896790 24.428312 2032.909058
4.160000 6.200000 -3.800000 -43.086617 14.184182 2057.647461
4.200000 5.800000 -4.200000 -12.790443 -10.677739 277.609558
4.200000 5.800000 -4.160000 -4.067937 -10.644604 129.855698
4.200000 5.800000 -4.120000 4.230527 -0.295143 17.984467
4.200000 5.800000 -4.080000 0.744735 16.930460 287.195099
4.200000 5.800000 -4.040000 -17.953201 27.374701 1071.691650
4.200000 5.800000 -4.000000 -40.973648 19.309311 2051.689453
4.200000 5.800000 -3.960000 -51.161503 -4.622027 2638.862305
4.200000 5.800000 -3.920000 -40.687382 -28.204483 2450.955811
4.200000 5.800000 -3.880000 -18.473469 -35.972313 1635.276367
4.200000 5.800000 -3.840000 -1.452268 -26.921417 726.871765
4.200000 5.800000 -3.800000 1.481030 -13.758709 191.495529
4.200000 5.840000 -4.200000 -2.141894 -21.404160 462.725739
4.200000 5.840000 -4.160000 7.619759 -15.486858 297.903503
4.200000 5.840000 -4.120000 9.331027 -1.324773 88.823082
4.200000 5.840000 -4.080000 -2.356387 10.540495 116.654594
4.200000 5.840000 -4.040000 -20.913347 8.695017 512.971436
4.200000 5.840000 -4.000000 -32.199860 -8.039220 1101.459961
4.200000 5.840000 -3.960000 -26.711559 -28.361612 1517.888428
4.200000 5.840000 -3.920000 -8.104954 -37.910152 1502.869995
4.200000 5.840000 -3.880000 10.331932 -31.477406 1097.575928
4.200000 5.840000 -3.840000 17.594215 -16.333828 576.350342
4.200000 5.840000 -3.800000 13.589395 -4.111074 201.572571
4.200000 5.880000 -4.200000 15.846690 -21.422018 710.020447
4.200000 5.880000 -4.160000 21.068413 -9.042082 525.637268
4.200000 5.880000 -4.120000 14.363598 3.112450 216.000290
4.200000 5.880000 -4.080000 0.671101 5.003331 25.483694
4.200000 5.880000 -4.040000 -8.742371 -5.018066 101.610039
4.200000 5.880000 -4.000000 -6.046005 -18.747581 388.025970
4.200000 5.880000 -3.960000 6.819666 -25.347206 688.988647
4.200000 5.880000 -3.920000 20.602457 -20.131496 829.738403
4.200000 5.880000 -3.880000 26.798523 -7.101234 768.588379
4.200000 5.880000 -3.840000 23.491716 5.842860 585.999756
4.200000 5.880000 -3.800000 14.622545 13.419532 393.902649
4.200000 5.920000 -4.200000 30.708832 -6.673442 987.567200
4.200000 5.920000 -4.160000 26.366211 7.844517 756.713501
4.200000 5.920000 -4.120000 13.975726 12.453017 350.398560
4.200000 5.920000 -4.080000 5.201715 5.770020 60.350967
4.200000 5.920000 -4.040000 6.995757 -3.707810 62.688469
4.200000 5.920000 -4.000000 16.262764 -6.438378 305.930176
4.200000 5.920000 -3.960000 24.433235 -0.044064 596.984924
4.200000 5.920000 -3.920000 25.736795 10.673746 776.311462
4.200000 5.920000 -3.880000 20.516972 19.862787 815.476440
4.200000 5.920000 -3.840000 11.954155 25.216791 778.788330
4.200000 5.920000 -3.800000 1.893538 26.882610 726.260254
4.200000 5.960000 -4.200000 30.918531 16.982521 1244.361572
4.200000 5.960000 -4.160000 16.463495 26.010262 947.580322
4.200000 5.960000 -4.120000 4.032966 20.573746 439.543823
4.200000 5.960000 -4.080000 3.580447 10.216924 117.205124
4.200000 5.960000 -4.040000 12.096901 7.102787 196.784592
4.200000 5.960000 -4.000000 18.805965 14.236572 556.344360
4.200000 5.960000 -3.960000 16.855253 24.737062 896.021790
4.200000 5.960000 -3.920000 8.467805 30.904415 1026.786621
4.200000 5.960000 -3.880000 -0.453487 31.565952 996.614990
4.200000 5.960000 -3.840000 -7.928008 30.014822 963.742859
4.200000 5.960000 -3.800000 -16.133360 27.029902 990.900879
4.200000 6.000000 -4.200000 12.868982 35.478909 1424.363647
4.200000 6.000000 -4.160000 -6.151903 32.472511 1092.309937
4.200000 6.000000 -4.120000 -12.520795 18.363590 493.991760
4.200000 6.000000 -4.080000 -4.789243 8.945724 102.962814
4.200000 6.000000 -4.040000 5.315755 12.422958 182.587158
4.200000 6.000000 -4.000000 6.415447 23.233513 580.954102
4.200000 6.000000 -3.960000 -1.921813 30.482906 932.900940
4.200000 6.000000 -3.920000 -11.894211 29.768042 1027.608521
4.200000 6.000000 -3.880000 -18.015999 25.134583 956.323486
4.200000 6.000000 -3.840000 -22.036396 20.995529 926.415039
4.200000 6.000000 -3.800000 -27.260891 15.623701 987.256226
4.200000 6.040000 -4.200000 -14.366996 35.758690 1485.094482
4.200000 6.040000 -4.160000 -28.653515 19.820566 1213.878784
4.200000 6.040000 -4.120000 -24.573313 1.865299 607.327087
4.200000 6.040000 -4.080000 -10.097915 -3.363507 113.281059
4.200000 6.040000 -4.040000 -0.154920 4.932851 24.357021
4.200000 6.040000 -4.000000 -1.920144 16.024065 260.457611
4.200000 6.040000 -3.960000 -10.633865 20.341839 526.869507
4.200000 6.040000 -3.920000 -17.982609 17.661612 635.306763
4.200000 6.040000 -3.880000 -21.448341 13.294024 636.762390
4.200000 6.040000 -3.840000 -24.005514 9.422382 665.046021
4.200000 6.040000 -3.800000 -26.624771 3.225146 719.279968
4.200000 6.080000 -4.200000 -33.928467 16.177511 1412.852783
4.200000 6.080000 -4.160000 -35.786758 -6.491299 1322.829102
4.200000 6.080000 -4.120000 -20.460138 -21.296192 872.145020
4.200000 6.080000 -4.080000 -1.388302 -19.341827 376.033661
4.200000 6.080000 -4.040000 8.165442 -5.893286 101.405273
4.200000 6.080000 -4.000000 5.455245 7.354784 83.852547
4.200000 6.080000 -3.960000 -3.173999 13.360475 188.576538
4.200000 6.080000 -3.920000 -11.026539 13.019333 291.087585
4.200000 6.080000 -3.880000 -16.327999 9.918728 364.984711
4.200000 6.080000 -3.840000 -19.791536 5.174802 418.483490
4.200000 6.080000 -3.800000 -20.248745 -1.411555 412.004150
4.200000 6.120000 -4.200000 -33.270237 -10.936156 1226.508179
4.200000 6.120000 -4.160000 -21.623150 -30.242901 1382.193604
4.200000 6.120000 -4.120000 0.912310 -35.352417 1250.625610
4.200000 6.120000 -4.080000 20.297270 -23.726349 974.918823
4.200000 6.120000 -4.040000 26.681480 -3.642593 725.169861
4.200000 6.120000 -4.000000 19.838089 13.836870 585.008789
4.200000 6.120000 -3.960000 6.214420 22.407276 540.705017
4.200000 6.120000 -3.920000 -7.241051 21.959602 534.656921
4.200000 6.120000 -3.880000 -16.394548 15.628596 513.034241
4.200000 6.120000 -3.840000 -19.711441 7.192842 440.277893
4.200000 6.120000 -3.800000 -17.622667 0.509504 310.817993
4.200000 6.160000 -4.200000 -13.983269 -27.833973 970.261841
4.200000 6.160000 -4.160000 4.672111 -36.010445 1318.580688
4.200000 6.160000 -4.120000 26.475098 -29.004745 1542.206055
4.200000 6.160000 -4.080000 39.763027 -8.499906 1653.346802
4.200000 6.160000 -4.040000 37.743023 16.281057 1689.608643
4.200000 6.160000 -4.000000 21.841326 34.530216 1669.379395
4.200000 6.160000 -3.960000 -0.096251 39.708965 1576.811157
4.200000 6.160000 -3.920000 -18.584244 32.205158 1382.546387
4.200000 6.160000 -3.880000 -27.402237 18.244915 1083.759521
4.200000 6.160000 -3.840000 -26.466980 5.959952 736.022095
4.200000 6.160000 -3.800000 -21.228655 0.522959 450.929291
4.200000 6.200000 -4.200000 9.264091 -24.770411 699.396606
4.200000 6.200000 -4.160000 25.101675 -21.349503 1085.895386
4.200000 6.200000 -4.120000 38.455906 -6.229305 1517.660889
4.200000 6.200000 -4.080000 40.787491 17.194309 1959.263672
4.200000 6.200000 -4.040000 27.833164 39.677681 2349.003418
4.200000 6.200000 -4.000000 3.174912 50.785610 2589.258301
4.200000 6.200000 -3.960000 -22.770725 45.301708 2570.750732
4.200000 6.200000 -3.920000 -38.754070 27.138620 2238.382568
4.200000 6.200000 -3.880000 -40.117668 7.089824 1659.692871
4.200000 6.200000 -3.840000 -31.864120 -4.825593 1038.608521
4.200000 6.200000 -3.800000 -24.170336 -6.692950 629.000732
