#kx 	ky 	kz 	real 	imag 	intensity
2.800000 -1.200000 -9.200000 -41.195892 4.934690 1721.452759
2.800000 -1.200000 -9.160000 -30.980053 -28.610933 1778.349121
2.800000 -1.200000 -9.120000 2.473223 -37.591301 1419.222778
2.800000 -1.200000 -9.080000 26.682648 -14.600791 925.146790
2.800000 -1.200000 -9.040000 19.513554 16.341499 647.823364
2.800000 -1.200000 -9.000000 -9.412937 25.068474 717.031799
2.800000 -1.200000 -8.960000 -30.413719 5.451178 954.709656
2.800000 -1.200000 -8.920000 -24.856972 -20.770704 1049.291138
2.800000 -1.200000 -8.880000 -2.425138 -28.699409 829.537415
2.800000 -1.200000 -8.840000 12.333220 -15.857677 403.574219
2.800000 -1.200000 -8.800000 7.580649 -1.650885 60.191658
2.800000 -1.160000 -9.200000 -31.972994 -25.486301 1671.823975
2.800000 -1.160000 -9.160000 -3.812256 -44.653259 2008.446899
2.800000 -1.160000 -9.120000 27.911259 -33.369526 1892.563721
2.800000 -1.160000 -9.080000 36.455246 -3.098811 1338.587646
2.800000 -1.160000 -9.040000 17.965401 18.062057 648.993530
2.800000 -1.160000 -9.000000 -6.267474 13.279922 215.637573
2.800000 -1.160000 -8.960000 -12.507851 -7.984000 220.190598
2.800000 -1.160000 -8.920000 2.272231 -22.173512 496.827637
2.800000 -1.160000 -8.880000 20.266111 -16.657675 688.193359
2.800000 -1.160000 -8.840000 23.855959 -0.755429 569.677429
2.800000 -1.160000 -8.800000 13.854536 7.344289 245.886749
2.800000 -1.120000 -9.200000 -5.640222 -35.164299 1268.340088
2.800000 -1.120000 -9.160000 23.278803 -33.428371 1659.358643
2.800000 -1.120000 -9.120000 40.152298 -10.887823 1730.751709
2.800000 -1.120000 -9.080000 34.108166 13.605646 1348.480591
2.800000 -1.120000 -9.040000 14.916833 21.636106 690.632996
2.800000 -1.120000 -9.000000 2.011619 12.113378 150.780533
2.800000 -1.120000 -8.960000 5.106404 -0.012060 26.075510
2.800000 -1.120000 -8.920000 16.415667 -0.577708 269.807861
2.800000 -1.120000 -8.880000 21.321228 9.843133 551.482056
2.800000 -1.120000 -8.840000 14.635283 18.943508 573.048035
2.800000 -1.120000 -8.800000 4.812105 17.714487 336.959412
2.800000 -1.080000 -9.200000 13.478736 -22.095156 669.872192
2.800000 -1.080000 -9.160000 29.669109 -8.361244 950.166443
2.800000 -1.080000 -9.120000 31.155098 11.534196 1103.677856
2.800000 -1.080000 -9.080000 19.977518 24.204712 984.969360
2.800000 -1.080000 -9.040000 7.557450 24.525105 658.595825
2.800000 -1.080000 -9.000000 3.005428 18.924816 367.181244
2.800000 -1.080000 -8.960000 5.032376 17.042023 315.755341
2.800000 -1.080000 -8.920000 5.404724 21.284958 482.260468
2.800000 -1.080000 -8.880000 -0.722970 25.382496 644.793823
2.800000 -1.080000 -8.840000 -9.352599 22.677130 601.723328
2.800000 -1.080000 -8.800000 -12.676507 14.251305 363.793518
2.800000 -1.040000 -9.200000 12.713989 -4.128585 178.690735
2.800000 -1.040000 -9.160000 15.869860 8.357002 321.691925
2.800000 -1.040000 -9.120000 10.681700 18.699308 463.762817
2.800000 -1.040000 -9.080000 2.347485 22.521214 512.715759
2.800000 -1.040000 -9.040000 -3.528007 21.716288 484.043976
2.800000 -1.040000 -9.000000 -6.397251 21.158730 488.616638
2.800000 -1.040000 -8.960000 -10.155907 22.528812 610.689819
2.800000 -1.040000 -8.920000 -17.397711 22.310368 800.432861
2.800000 -1.040000 -8.880000 -25.214985 16.269518 900.492676
2.800000 -1.040000 -8.840000 -27.588148 5.258067 788.753174
2.800000 -1.040000 -8.800000 -21.905624 -4.423345 499.422363
2.800000 -1.000000 -9.200000 0.339581 1.358690 1.961354
2.800000 -1.000000 -9.160000 -1.278705 7.183106 53.232105
2.800000 -1.000000 -9.120000 -5.768873 10.312960 139.637039
2.800000 -1.000000 -9.080000 -10.038416 10.341049 207.707092
2.800000 -1.000000 -9.040000 -12.678416 9.622107 253.327179
2.800000 -1.000000 -9.000000 -15.542534 9.893650 339.454651
2.800000 -1.000000 -8.960000 -21.002062 9.337243 528.270691
2.800000 -1.000000 -8.920000 -27.823717 4.116148 791.101929
2.800000 -1.000000 -8.880000 -30.823112 -6.771454 995.916870
2.800000 -1.000000 -8.840000 -25.523731 -18.707048 1001.414551
2.800000 -1.000000 -8.800000 -13.252083 -24.538025 777.732422
2.800000 -0.960000 -9.200000 -6.961227 -6.111954 85.814667
2.800000 -0.960000 -9.160000 -7.906159 -3.400605 74.071472
2.800000 -0.960000 -9.120000 -11.215517 -3.371696 137.156158
2.800000 -0.960000 -9.080000 -13.029938 -6.479468 211.762787
2.800000 -0.960000 -9.040000 -11.688051 -9.247643 222.129456
2.800000 -0.960000 -9.000000 -10.115013 -9.038489 184.007782
2.800000 -0.960000 -8.960000 -12.015141 -8.159641 210.943375
2.800000 -0.960000 -8.920000 -16.250486 -11.690594 400.748291
2.800000 -0.960000 -8.880000 -16.598967 -20.935305 713.812683
2.800000 -0.960000 -8.840000 -8.111946 -30.130819 973.669922
2.800000 -0.960000 -8.800000 6.576063 -30.965736 1002.121460
2.800000 -0.920000 -9.200000 -2.820867 -13.514670 190.603607
2.800000 -0.920000 -9.160000 -5.354751 -10.268205 134.109375
2.800000 -0.920000 -9.120000 -9.441132 -14.277038 292.968750
2.800000 -0.920000 -9.080000 -6.542126 -22.469486 547.677246
2.800000 -0.920000 -9.040000 3.730399 -25.356409 656.863403
2.800000 -0.920000 -9.000000 12.347325 -18.541851 496.256653
2.800000 -0.920000 -8.960000 11.115025 -8.756225 200.215240
2.800000 -0.920000 -8.920000 2.735648 -6.829185 54.121548
2.800000 -0.920000 -8.880000 -1.279419 -15.184108 232.194046
2.800000 -0.920000 -8.840000 6.825467 -24.124348 628.571106
2.800000 -0.920000 -8.800000 21.826056 -21.602444 943.042297
2.800000 -0.880000 -9.200000 4.042857 -11.261389 143.163574
2.800000 -0.880000 -9.160000 -4.006475 -10.829539 133.330765
2.800000 -0.880000 -9.120000 -5.905539 -22.723215 551.219849
2.800000 -0.880000 -9.080000 7.856890 -33.434433 1179.592041
2.800000 -0.880000 -9.040000 28.547779 -27.647125 1579.339233
2.800000 -0.880000 -9.000000 37.447639 -6.245538 1441.332397
2.800000 -0.880000 -8.960000 26.109631 13.122580 853.914917
2.800000 -0.880000 -8.920000 6.165869 14.197165 239.577454
2.800000 -0.880000 -8.880000 -2.498411 -0.652101 6.667294
2.800000 -0.880000 -8.840000 7.392683 -13.010278 223.919098
2.800000 -0.880000 -8.800000 23.187473 -8.064396 602.693420
2.800000 -0.840000 -9.200000 2.251546 -3.977030 20.886225
2.800000 -0.840000 -9.160000 -8.265380 -13.490189 250.301697
2.800000 -0.840000 -9.120000 0.089776 -32.033421 1026.148071
2.800000 -0.840000 -9.080000 27.143654 -35.534813 1999.500854
2.800000 -0.840000 -9.040000 49.890121 -12.287552 2640.008057
2.800000 -0.840000 -9.000000 45.650383 22.439127 2587.471924
2.800000 -0.840000 -8.960000 16.270075 40.421379 1898.603271
2.800000 -0.840000 -8.920000 -12.878717 28.766481 993.371826
2.800000 -0.840000 -8.880000 -18.303850 2.460585 341.085419
2.800000 -0.840000 -8.840000 -1.261762 -11.850338 142.022552
2.800000 -0.840000 -8.800000 15.631223 -3.096943 253.926178
2.800000 -0.800000 -9.200000 -7.958091 -4.087027 80.034996
2.800000 -0.800000 -9.160000 -10.679555 -24.809923 729.585205
2.800000 -0.800000 -9.120000 12.938240 -40.234634 1786.223877
2.800000 -0.800000 -9.080000 45.597359 -26.400629 2776.112305
2.800000 -0.800000 -9.040000 55.843422 13.061790 3289.098145
2.800000 -0.800000 -9.000000 30.093361 47.739532 3184.673340
2.800000 -0.800000 -8.960000 -12.405777 49.460464 2600.240967
2.800000 -0.800000 -8.920000 -37.770981 19.640650 1812.402100
2.800000 -0.800000 -8.880000 -29.978642 -13.236511 1073.924194
2.800000 -0.800000 -8.840000 -4.170515 -22.559269 526.313843
2.800000 -0.800000 -8.800000 11.590280 -8.280348 202.898743
2.840000 -1.200000 -9.200000 -22.739096 -26.009602 1193.565918
2.840000 -1.200000 -9.160000 7.190236 -37.896923 1487.876221
2.840000 -1.200000 -9.120000 34.083347 -17.997803 1485.595459
2.840000 -1.200000 -9.080000 31.889118 15.357353 1252.764160
2.840000 -1.200000 -9.040000 3.739086 30.780525 961.421509
2.840000 -1.200000 -9.000000 -22.135815 15.915712 743.304199
2.840000 -1.200000 -8.960000 -22.136700 -11.199975 615.472900
2.840000 -1.200000 -8.920000 -0.738735 -22.632042 512.755066
2.840000 -1.200000 -8.880000 16.650780 -9.984511 376.938934
2.840000 -1.200000 -8.840000 12.245434 8.708570 225.789825
2.840000 -1.200000 -8.800000 -5.692932 10.711755 147.151169
2.840000 -1.160000 -9.200000 -0.441740 -37.172844 1382.015503
2.840000 -1.160000 -9.160000 31.892607 -31.512058 2010.148193
2.840000 -1.160000 -9.120000 47.784813 -1.825926 2286.722412
2.840000 -1.160000 -9.080000 35.145424 27.628153 1998.515625
2.840000 -1.160000 -9.040000 7.860373 34.663513 1263.344604
2.840000 -1.160000 -9.000000 -9.467339 19.797773 481.582336
2.840000 -1.160000 -8.960000 -6.088823 2.888070 45.414719
2.840000 -1.160000 -8.920000 6.698387 0.879342 45.641632
2.840000 -1.160000 -8.880000 10.755175 11.224571 241.664780
2.840000 -1.160000 -8.840000 1.593776 17.796488 319.255096
2.840000 -1.160000 -8.800000 -8.276336 10.918756 187.716980
2.840000 -1.120000 -9.200000 19.685265 -26.576208 1093.804443
2.840000 -1.120000 -9.160000 42.708817 -8.225645 1891.704224
2.840000 -1.120000 -9.120000 45.780594 22.122610 2585.272705
2.840000 -1.120000 -9.080000 27.708420 44.860153 2780.189941
2.840000 -1.120000 -9.040000 2.816212 48.537807 2363.849854
2.840000 -1.120000 -9.000000 -13.373978 37.852417 1611.668701
2.840000 -1.120000 -8.960000 -17.133919 25.774910 957.917175
2.840000 -1.120000 -8.920000 -15.834874 19.804121 642.946472
2.840000 -1.120000 -8.880000 -16.687569 17.048664 569.131897
2.840000 -1.120000 -8.840000 -18.631275 11.626599 482.302246
2.840000 -1.120000 -8.800000 -15.890701 4.005748 268.560394
2.840000 -1.080000 -9.200000 21.755795 -7.525712 529.950928
2.840000 -1.080000 -9.160000 32.777412 13.416343 1254.357056
2.840000 -1.080000 -9.120000 27.306137 38.867264 2256.289307
2.840000 -1.080000 -9.080000 6.611783 56.036720 3183.829590
2.840000 -1.080000 -9.040000 -19.555424 57.565483 3696.199463
2.840000 -1.080000 -9.000000 -40.383514 45.084297 3663.422119
2.840000 -1.080000 -8.960000 -50.211746 25.838345 3188.839600
2.840000 -1.080000 -8.920000 -49.270496 7.064743 2477.492432
2.840000 -1.080000 -8.880000 -40.720779 -6.771843 1704.039795
2.840000 -1.080000 -8.840000 -28.367374 -13.483578 986.514832
2.840000 -1.080000 -8.800000 -16.496349 -12.533470 429.217407
2.840000 -1.040000 -9.200000 9.463292 1.195787 90.983803
2.840000 -1.040000 -9.160000 13.295697 18.925756 534.959839
2.840000 -1.040000 -9.120000 3.294250 39.184341 1546.264648
2.840000 -1.040000 -9.080000 -20.525988 50.710953 2992.916992
2.840000 -1.040000 -9.040000 -49.255882 44.919739 4443.924805
2.840000 -1.040000 -9.000000 -69.862144 22.046883 5366.784180
2.840000 -1.040000 -8.960000 -73.036026 -8.499751 5406.506836
2.840000 -1.040000 -8.920000 -58.570320 -33.725246 4567.874512
2.840000 -1.040000 -8.880000 -34.855286 -44.522758 3197.166992
2.840000 -1.040000 -8.840000 -13.353721 -40.159946 1791.143188
2.840000 -1.040000 -8.800000 -1.953786 -27.381992 753.590759
2.840000 -1.000000 -9.200000 -0.402349 -5.376825 29.072130
2.840000 -1.000000 -9.160000 0.490789 10.126178 102.780350
2.840000 -1.000000 -9.120000 -13.592881 25.626181 841.467529
2.840000 -1.000000 -9.080000 -39.662239 27.721699 2341.585938
2.840000 -1.000000 -9.040000 -64.112106 9.531287 4201.207520
2.840000 -1.000000 -9.000000 -71.917938 -22.814091 5692.672852
2.840000 -1.000000 -8.960000 -57.456161 -53.711601 6186.146484
2.840000 -1.000000 -8.920000 -28.227604 -68.705040 5517.179688
2.840000 -1.000000 -8.880000 0.974932 -63.613644 4047.645996
2.840000 -1.000000 -8.840000 18.178791 -45.581818 2408.170654
2.840000 -1.000000 -8.800000 20.765835 -26.458839 1131.290039
2.840000 -0.960000 -9.200000 3.012087 -15.438444 247.418213
2.840000 -0.960000 -9.160000 -0.158656 -0.095477 0.034288
2.840000 -0.960000 -9.120000 -18.282486 7.780199 394.780792
2.840000 -0.960000 -9.080000 -40.053150 -2.868348 1612.482300
2.840000 -0.960000 -9.040000 -49.030853 -29.531693 3276.145508
2.840000 -0.960000 -9.000000 -36.769676 -57.582050 4667.701660
2.840000 -0.960000 -8.960000 -8.900188 -71.489197 5189.918457
2.840000 -0.960000 -8.920000 20.157047 -65.640114 4714.931152
2.840000 -0.960000 -8.880000 38.016064 -46.209579 3580.546387
2.840000 -0.960000 -8.840000 41.296967 -24.442337 2302.867188
2.840000 -0.960000 -8.800000 34.549305 -8.577112 1267.221313
2.840000 -0.920000 -9.200000 13.976906 -15.257777 428.153656
2.840000 -0.920000 -9.160000 3.701704 -2.951460 22.413731
2.840000 -0.920000 -9.120000 -13.883851 -6.734987 238.121368
2.840000 -0.920000 -9.080000 -21.711584 -26.346857 1165.549805
2.840000 -0.920000 -9.040000 -10.493762 -47.552635 2371.372314
2.840000 -0.920000 -9.000000 13.758116 -55.104790 3225.823486
2.840000 -0.920000 -8.960000 36.411736 -45.086571 3358.613281
2.840000 -0.920000 -8.920000 46.965363 -25.593079 2860.750977
2.840000 -0.920000 -8.880000 45.364094 -7.404966 2112.734619
2.840000 -0.920000 -8.840000 37.791016 4.575588 1449.096924
2.840000 -0.920000 -8.800000 28.914101 11.539118 969.176453
2.840000 -0.880000 -9.200000 18.308880 -4.503563 355.497162
2.840000 -0.880000 -9.160000 2.903256 -1.846020 11.836686
2.840000 -0.880000 -9.120000 -5.382545 -16.311708 295.043640
2.840000 -0.880000 -9.080000 5.206102 -33.001968 1116.233398
2.840000 -0.880000 -9.040000 27.818546 -34.492374 1963.595459
2.840000 -0.880000 -9.000000 44.608723 -17.754652 2305.165771
2.840000 -0.880000 -8.960000 44.398354 4.449069 1991.007935
2.840000 -0.880000 -8.920000 31.729893 17.586277 1316.063232
2.840000 -0.880000 -8.880000 19.274986 18.780310 724.225098
2.840000 -0.880000 -8.840000 13.744766 16.125574 448.952759
2.840000 -0.880000 -8.800000 11.029821 16.849026 405.546631
2.840000 -0.840000 -9.200000 10.029235 4.278461 118.890785
2.840000 -0.840000 -9.160000 -1.870492 -5.721901 36.238892
2.840000 -0.840000 -9.120000 5.444100 -22.084435 517.360474
2.840000 -0.840000 -9.080000 27.915236 -23.259663 1320.272217
2.840000 -0.840000 -9.040000 44.298622 -2.410498 1968.178467
2.840000 -0.840000 -9.000000 38.016781 25.257994 2083.241943
2.840000 -0.840000 -8.960000 13.697819 38.069489 1636.916260
2.840000 -0.840000 -8.920000 -8.599024 29.223354 927.947693
2.840000 -0.840000 -8.880000 -14.124721 11.548626 332.878479
2.840000 -0.840000 -8.840000 -6.596180 2.106356 47.946323
2.840000 -0.840000 -8.800000 -0.849680 4.550913 21.432764
2.840000 -0.800000 -9.200000 -2.072396 0.308477 4.389985
2.840000 -0.800000 -9.160000 -1.459261 -16.613091 278.124237
2.840000 -0.800000 -9.120000 18.831738 -23.165436 891.271729
2.840000 -0.800000 -9.080000 38.872948 -5.182926 1537.968750
2.840000 -0.800000 -9.040000 35.593960 26.213917 1954.099365
2.840000 -0.800000 -9.000000 6.892622 44.604046 2037.029175
2.840000 -0.800000 -8.960000 -25.554295 34.284519 1828.450195
2.840000 -0.800000 -8.920000 -37.458565 5.133511 1429.496948
2.840000 -0.800000 -8.880000 -24.651947 -18.426558 947.256531
2.840000 -0.800000 -8.840000 -4.266745 -21.667473 487.684479
2.840000 -0.800000 -8.800000 4.956572 -11.435926 155.348007
2.880000 -1.200000 -9.200000 12.295680 -29.034042 994.159302
2.880000 -1.200000 -9.160000 38.033573 -10.759116 1562.311279
2.880000 -1.200000 -9.120000 36.709656 23.798601 1913.972290
2.880000 -1.200000 -9.080000 6.783727 42.874355 1884.229248
2.880000 -1.200000 -9.040000 -24.585339 29.491356 1474.178955
2.880000 -1.200000 -9.000000 -29.561987 -1.066744 875.049011
2.880000 -1.200000 -8.960000 -8.136574 -17.768532 381.924561
2.880000 -1.200000 -8.920000 13.186684 -6.453919 215.541702
2.880000 -1.200000 -8.880000 10.492036 16.366779 377.954285
2.880000 -1.200000 -8.840000 -12.305262 22.711233 667.219604
2.880000 -1.200000 -8.800000 -28.885475 3.772639 848.603455
2.880000 -1.160000 -9.200000 27.188450 -19.552469 1121.510864
2.880000 -1.160000 -9.160000 43.840065 6.466212 1963.763184
2.880000 -1.160000 -9.120000 34.014954 37.558842 2567.683594
2.880000 -1.160000 -9.080000 5.348683 50.160435 2544.677490
2.880000 -1.160000 -9.040000 -19.090284 38.799957 1869.875610
2.880000 -1.160000 -9.000000 -24.176880 19.334349 958.338623
2.880000 -1.160000 -8.960000 -16.002914 10.480415 365.932373
2.880000 -1.160000 -8.920000 -11.896659 14.464493 350.752045
2.880000 -1.160000 -8.880000 -19.659788 17.470440 691.723511
2.880000 -1.160000 -8.840000 -29.414457 7.850912 926.847168
2.880000 -1.160000 -8.800000 -26.409966 -9.270732 783.432739
2.880000 -1.120000 -9.200000 28.385870 -2.809470 813.650757
2.880000 -1.120000 -9.160000 36.117146 24.259096 1892.951904
2.880000 -1.120000 -9.120000 22.093874 51.983562 3190.430176
2.880000 -1.120000 -9.080000 -7.005926 64.342987 4189.103027
2.880000 -1.120000 -9.040000 -35.816921 56.887100 4518.994141
2.880000 -1.120000 -9.000000 -53.007072 37.317505 4202.345703
2.880000 -1.120000 -8.960000 -57.424850 16.175087 3559.247070
2.880000 -1.120000 -8.920000 -53.728989 -1.322536 2888.553223
2.880000 -1.120000 -8.880000 -45.135612 -14.868268 2258.288818
2.880000 -1.120000 -8.840000 -32.054150 -23.577263 1583.355835
2.880000 -1.120000 -8.800000 -16.622574 -24.186203 861.282349
2.880000 -1.080000 -9.200000 17.064144 5.898034 325.971832
2.880000 -1.080000 -9.160000 19.498116 31.932470 1399.859131
2.880000 -1.080000 -9.120000 0.769678 58.856018 3464.623047
2.880000 -1.080000 -9.080000 -36.018890 69.700615 6155.536133
2.880000 -1.080000 -9.040000 -75.315262 54.384529 8630.065430
2.880000 -1.080000 -9.000000 -98.390564 17.113586 9973.578125
2.880000 -1.080000 -8.960000 -94.907036 -25.922823 9679.338867
2.880000 -1.080000 -8.920000 -68.599014 -56.500637 7898.146484
2.880000 -1.080000 -8.880000 -33.883099 -64.655571 5328.407227
2.880000 -1.080000 -8.840000 -6.644814 -52.911388 2843.768555
2.880000 -1.080000 -8.800000 4.417937 -32.820992 1096.735718
2.880000 -1.040000 -9.200000 6.915451 0.693944 48.305023
2.880000 -1.040000 -9.160000 4.918865 27.521914 781.651001
2.880000 -1.040000 -9.120000 -22.749912 51.887230 3209.843262
2.880000 -1.040000 -9.080000 -69.085999 50.950638 7368.842773
2.880000 -1.040000 -9.040000 -108.967598 14.462936 12083.114258
2.880000 -1.040000 -9.000000 -116.198875 -43.954819 15434.205078
2.880000 -1.040000 -8.960000 -83.575813 -94.320953 15881.359375
2.880000 -1.040000 -8.920000 -28.923786 -111.356789 13236.918945
2.880000 -1.040000 -8.880000 18.103792 -91.877899 8769.295898
2.880000 -1.040000 -8.840000 37.238087 -54.685650 4377.195312
2.880000 -1.040000 -8.800000 29.524998 -24.416676 1467.899536
2.880000 -1.000000 -9.200000 9.065176 -9.223981 167.259247
2.880000 -1.000000 -9.160000 -0.778262 18.379726 338.420013
2.880000 -1.000000 -9.120000 -38.224854 32.400341 2510.921387
2.880000 -1.000000 -9.080000 -83.828613 10.237335 7132.039551
2.880000 -1.000000 -9.040000 -104.160561 -46.054966 12970.482422
2.880000 -1.000000 -9.000000 -78.499809 -106.772194 17562.521484
2.880000 -1.000000 -8.960000 -17.142570 -135.709198 18710.853516
2.880000 -1.000000 -8.920000 45.475006 -117.682175 15917.070312
2.880000 -1.000000 -8.880000 77.001923 -68.780464 10660.048828
2.880000 -1.000000 -8.840000 69.891464 -21.442686 5344.605469
2.880000 -1.000000 -8.800000 42.254368 1.093639 1786.627686
2.880000 -0.960000 -9.200000 20.394756 -10.154572 519.061401
2.880000 -0.960000 -9.160000 -0.091004 12.757708 162.767395
2.880000 -0.960000 -9.120000 -39.675430 8.884850 1653.080322
2.880000 -0.960000 -9.080000 -67.874161 -31.678226 5610.412109
2.880000 -0.960000 -9.040000 -56.126682 -88.406029 10965.830078
2.880000 -0.960000 -9.000000 -3.235127 -123.969269 15378.845703
2.880000 -0.960000 -8.960000 61.573154 -113.639954 16705.292969
2.880000 -0.960000 -8.920000 101.181137 -64.512016 14399.421875
2.880000 -0.960000 -8.880000 98.555588 -8.142922 9779.511719
2.880000 -0.960000 -8.840000 66.206741 25.314346 5024.148438
2.880000 -0.960000 -8.800000 31.472610 27.964657 1772.547241
2.880000 -0.920000 -9.200000 27.524416 1.215618 759.071167
2.880000 -0.920000 -9.160000 -0.122798 11.728646 137.576218
2.880000 -0.920000 -9.120000 -29.042299 -9.175785 927.650146
2.880000 -0.920000 -9.080000 -30.300304 -51.980850 3620.117188
2.880000 -0.920000 -9.040000 5.829147 -85.722168 7382.269043
2.880000 -0.920000 -9.000000 59.705513 -83.101692 10470.639648
2.880000 -0.920000 -8.960000 97.612732 -42.937622 11371.884766
2.880000 -0.920000 -8.920000 98.368210 9.916849 9774.648438
2.880000 -0.920000 -8.880000 67.627228 45.611351 6653.836914
2.880000 -0.920000 -8.840000 29.232180 51.335556 3489.859619
2.880000 -0.920000 -8.800000 4.303090 36.044605 1317.730225
2.880000 -0.880000 -9.200000 21.507130 14.626627 676.494873
2.880000 -0.880000 -9.160000 -3.757959 9.790695 109.979973
2.880000 -0.880000 -9.120000 -13.343102 -17.328209 478.305176
2.880000 -0.880000 -9.080000 6.312956 -44.057838 1980.946533
2.880000 -0.880000 -9.040000 43.859150 -45.654499 4007.958252
2.880000 -0.880000 -9.000000 72.404480 -16.912136 5528.429199
2.880000 -0.880000 -8.960000 72.209442 24.088442 5794.456543
2.880000 -0.880000 -8.920000 45.549412 52.210278 4800.662109
2.880000 -0.880000 -8.880000 11.598110 55.115082 3172.188232
2.880000 -0.880000 -8.840000 -11.125713 39.164307 1657.624390
2.880000 -0.880000 -8.800000 -17.379358 19.243576 672.357300
2.880000 -0.840000 -9.200000 7.155309 17.551540 359.255035
2.880000 -0.840000 -9.160000 -6.568335 2.734894 50.622665
2.880000 -0.840000 -9.120000 1.160590 -16.940620 288.331604
2.880000 -0.840000 -9.080000 24.748608 -20.274445 1023.546692
2.880000 -0.840000 -9.040000 43.152164 -0.659584 1862.544312
2.880000 -0.840000 -9.000000 39.516762 28.059414 2348.905273
2.880000 -0.840000 -8.960000 15.772791 44.943398 2268.689941
2.880000 -0.840000 -8.920000 -11.060217 40.320774 1748.093140
2.880000 -0.840000 -8.880000 -25.216671 21.551289 1100.338501
2.880000 -0.840000 -8.840000 -24.086500 2.970730 588.984741
2.880000 -0.840000 -8.800000 -15.642757 -7.482569 300.684692
2.880000 -0.800000 -9.200000 -2.538193 8.269368 74.824875
2.880000 -0.800000 -9.160000 -2.513633 -6.399734 47.274948
2.880000 -0.800000 -9.120000 11.972675 -11.404043 273.397156
2.880000 -0.800000 -9.080000 24.486439 1.590050 602.113953
2.880000 -0.800000 -9.040000 19.432711 22.247597 872.585815
2.880000 -0.800000 -9.000000 -2.291620 31.719780 1011.395996
2.880000 -0.800000 -8.960000 -24.394432 20.876165 1030.902588
2.880000 -0.800000 -8.920000 -31.030054 -1.935874 966.611877
2.880000 -0.800000 -8.880000 -20.570910 -20.354237 837.457275
2.880000 -0.800000 -8.840000 -4.159819 -25.379570 661.426636
2.880000 -0.800000 -8.800000 7.212468 -20.861626 487.227112
2.920000 -1.200000 -9.200000 34.139862 -2.868799 1173.760132
2.920000 -1.200000 -9.160000 33.552597 31.283701 2104.446777
2.920000 -1.200000 -9.120000 1.753738 53.160137 2829.075928
2.920000 -1.200000 -9.080000 -36.161743 40.223560 2925.606445
2.920000 -1.200000 -9.040000 -47.346298 3.473776 2253.739014
2.920000 -1.200000 -9.000000 -25.089676 -22.856773 1151.923828
2.920000 -1.200000 -8.960000 4.221569 -16.407507 287.027954
2.920000 -1.200000 -8.920000 8.907410 10.555878 190.768494
2.920000 -1.200000 -8.880000 -14.966091 24.939396 845.957336
2.920000 -1.200000 -8.840000 -40.314831 8.199995 1692.525391
2.920000 -1.200000 -8.800000 -38.441246 -24.461994 2076.118652
2.920000 -1.160000 -9.200000 29.101379 11.464323 978.320984
2.920000 -1.160000 -9.160000 20.845701 39.308517 1979.702881
2.920000 -1.160000 -9.120000 -7.722269 52.455254 2811.187256
2.920000 -1.160000 -9.080000 -35.777328 40.930794 2955.347168
2.920000 -1.160000 -9.040000 -44.947769 17.100826 2312.740234
2.920000 -1.160000 -9.000000 -36.951130 1.382355 1367.296875
2.920000 -1.160000 -8.960000 -28.990589 0.612335 840.829224
2.920000 -1.160000 -8.920000 -32.922096 2.817543 1091.802979
2.920000 -1.160000 -8.880000 -41.935276 -6.661232 1802.939453
2.920000 -1.160000 -8.840000 -39.434345 -26.587448 2261.959961
2.920000 -1.160000 -8.800000 -19.546436 -40.079704 1988.445801
2.920000 -1.120000 -9.200000 16.035492 16.255251 521.370178
2.920000 -1.120000 -9.160000 7.751068 40.062115 1665.052124
2.920000 -1.120000 -9.120000 -18.117266 54.730186 3323.628662
2.920000 -1.120000 -9.080000 -49.987869 49.997425 4998.529297
2.920000 -1.120000 -9.040000 -73.601357 27.603952 6179.137695
2.920000 -1.120000 -9.000000 -81.429695 -2.574997 6637.425781
2.920000 -1.120000 -8.960000 -74.225014 -30.691200 6451.302246
2.920000 -1.120000 -8.920000 -56.443951 -51.055397 5792.573242
2.920000 -1.120000 -8.880000 -32.759087 -60.698002 4757.405273
2.920000 -1.120000 -8.840000 -8.747633 -57.750557 3411.647705
2.920000 -1.120000 -8.800000 8.135784 -43.522762 1960.421875
2.920000 -1.080000 -9.200000 6.892521 9.122183 130.721069
2.920000 -1.080000 -9.160000 -1.822570 36.024895 1301.114868
2.920000 -1.080000 -9.120000 -35.462692 54.358669 4212.467773
2.920000 -1.080000 -9.080000 -81.909607 44.082664 8652.464844
2.920000 -1.080000 -9.040000 -115.553696 0.812305 13353.316406
2.920000 -1.080000 -9.000000 -114.620575 -58.230648 16528.683594
2.920000 -1.080000 -8.960000 -76.933655 -104.537010 16846.773438
2.920000 -1.080000 -8.920000 -21.694271 -117.179192 14201.604492
2.920000 -1.080000 -8.880000 23.895262 -95.825798 9753.567383
2.920000 -1.080000 -8.840000 42.408390 -58.638222 5236.912598
2.920000 -1.080000 -8.800000 35.232750 -28.115826 2031.846313
2.920000 -1.040000 -9.200000 9.915296 -0.538533 98.603104
2.920000 -1.040000 -9.160000 -7.369562 31.007427 1015.770996
2.920000 -1.040000 -9.120000 -55.878395 42.035202 4889.353516
2.920000 -1.040000 -9.080000 -109.307732 8.097548 12013.750977
2.920000 -1.040000 -9.040000 -127.682098 -64.168442 20420.306641
2.920000 -1.040000 -9.000000 -89.418198 -136.425583 26607.554688
2.920000 -1.040000 -8.960000 -11.096334 -165.834244 27624.125000
2.920000 -1.040000 -8.920000 63.602467 -137.646805 22991.916016
2.920000 -1.040000 -8.880000 96.770599 -75.130417 15009.128906
2.920000 -1.040000 -8.840000 82.703018 -19.138960 7206.088867
2.920000 -1.040000 -8.800000 46.632690 3.521242 2187.007080
2.920000 -1.000000 -9.200000 21.035057 -0.744898 443.028503
2.920000 -1.000000 -9.160000 -11.077451 26.987480 851.033997
2.920000 -1.000000 -9.120000 -67.276535 16.393337 4794.874023
2.920000 -1.000000 -9.080000 -104.973984 -45.145779 13057.678711
2.920000 -1.000000 -9.040000 -84.426056 -127.601913 23410.007812
2.920000 -1.000000 -9.000000 -5.197647 -177.098114 31390.757812
2.920000 -1.000000 -8.960000 88.932388 -158.532974 33041.671875
2.920000 -1.000000 -8.920000 143.082062 -84.238701 27568.634766
2.920000 -1.000000 -8.880000 133.491028 -2.966336 17828.654297
2.920000 -1.000000 -8.840000 81.966949 39.991955 8317.937500
2.920000 -1.000000 -8.800000 32.341454 35.397194 2298.930908
2.920000 -0.960000 -9.200000 27.823511 11.002787 895.209106
2.920000 -0.960000 -9.160000 -14.956010 23.071354 755.969604
2.920000 -0.960000 -9.120000 -60.782639 -12.146612 3842.069336
2.920000 -0.960000 -9.080000 -64.290527 -83.761292 11149.226562
2.920000 -0.960000 -9.040000 -5.786322 -143.863480 20730.183594
2.920000 -0.960000 -9.000000 86.317520 -144.634003 28369.708984
2.920000 -0.960000 -8.960000 154.803650 -79.114113 30223.212891
2.920000 -0.960000 -8.920000 158.970978 11.990110 25415.535156
2.920000 -0.960000 -8.880000 105.431229 73.724319 16551.019531
2.920000 -0.960000 -8.840000 38.034668 79.706680 7799.791016
2.920000 -0.960000 -8.800000 -0.965771 46.752766 2186.753662
2.920000 -0.920000 -9.200000 21.909679 25.353909 1122.854736
2.920000 -0.920000 -9.160000 -18.602880 17.308422 645.648682
2.920000 -0.920000 -9.120000 -39.646217 -29.711866 2454.617432
2.920000 -0.920000 -9.080000 -11.117002 -85.315689 7402.354492
2.920000 -0.920000 -9.040000 59.006721 -103.280075 14148.566406
2.920000 -0.920000 -9.000000 126.170036 -61.166050 19660.164062
2.920000 -0.920000 -8.960000 144.241714 18.529694 21149.021484
2.920000 -0.920000 -8.920000 102.836319 85.863350 17947.824219
2.920000 -0.920000 -8.880000 33.579170 103.597984 11860.102539
2.920000 -0.920000 -8.840000 -18.555754 73.721863 5779.229004
2.920000 -0.920000 -8.800000 -30.838797 28.916027 1787.167969
2.920000 -0.880000 -9.200000 6.917115 30.649069 987.211914
2.920000 -0.880000 -9.160000 -19.655510 9.447830 475.600586
2.920000 -0.880000 -9.120000 -16.389097 -30.669758 1209.236572
2.920000 -0.880000 -9.080000 23.711676 -55.883858 3685.249268
2.920000 -0.880000 -9.040000 75.144272 -39.075081 7173.523438
2.920000 -0.880000 -9.000000 99.131973 14.874901 10048.411133
2.920000 -0.880000 -8.960000 75.954926 71.339035 10858.408203
2.920000 -0.880000 -8.920000 20.929604 94.089561 9290.893555
2.920000 -0.880000 -8.880000 -29.704464 73.515450 6286.876465
2.920000 -0.880000 -8.840000 -48.565903 30.409439 3283.380859
2.920000 -0.880000 -8.800000 -35.352440 -4.975197 1274.547607
2.920000 -0.840000 -9.200000 -5.908127 24.135750 617.440369
2.920000 -0.840000 -9.160000 -16.387390 1.899941 272.156342
2.920000 -0.840000 -9.120000 -1.780466 -20.805826 436.052490
2.920000 -0.840000 -9.080000 28.507296 -21.349792 1268.479492
2.920000 -0.840000 -9.040000 49.242207 5.472637 2454.744629
2.920000 -0.840000 -9.000000 41.056675 41.465504 3405.038574
2.920000 -0.840000 -8.960000 7.310627 60.079086 3662.941895
2.920000 -0.840000 -8.920000 -29.187664 48.368652 3191.446289
2.920000 -0.840000 -8.880000 -45.528362 16.019276 2329.448975
2.920000 -0.840000 -8.840000 -35.769913 -15.033051 1505.479248
2.920000 -0.840000 -8.800000 -11.668482 -28.772881 964.032104
2.920000 -0.800000 -9.200000 -9.137381 13.439878 264.122040
2.920000 -0.800000 -9.160000 -9.928989 -2.043828 102.762070
2.920000 -0.800000 -9.120000 2.690837 -9.964218 106.526245
2.920000 -0.800000 -9.080000 15.767509 -2.257544 253.710846
2.920000 -0.800000 -9.040000 15.392693 14.261465 440.324371
2.920000 -0.800000 -9.000000 -0.252541 24.064339 579.156189
2.920000 -0.800000 -8.960000 -19.308960 16.995405 661.679749
2.920000 -0.800000 -8.920000 -26.940918 -3.186865 735.969177
2.920000 -0.800000 -8.880000 -17.596970 -23.008060 839.024170
2.920000 -0.800000 -8.840000 2.142613 -30.842484 955.849609
2.920000 -0.800000 -8.800000 20.810146 -24.654381 1040.900635
2.960000 -1.200000 -9.200000 25.527822 28.796158 1480.888428
2.960000 -1.200000 -9.160000 -3.445140 52.377430 2755.264160
2.960000 -1.200000 -9.120000 -45.085335 42.548164 3843.033691
2.960000 -1.200000 -9.080000 -63.857510 1.973263 4081.675293
2.960000 -1.200000 -9.040000 -43.466984 -35.907349 3178.716309
2.960000 -1.200000 -9.000000 -4.941891 -39.548080 1588.472900
2.960000 -1.200000 -8.960000 13.862617 -11.419514 322.577454
2.960000 -1.200000 -8.920000 -3.265383 14.642166 225.055756
2.960000 -1.200000 -8.880000 -34.795921 8.618008 1285.026123
2.960000 -1.200000 -8.840000 -44.635937 -24.933073 2614.024902
2.960000 -1.200000 -8.800000 -19.787350 -52.583481 3156.561768
2.960000 -1.160000 -9.200000 6.576959 29.445629 910.301453
2.960000 -1.160000 -9.160000 -18.022655 40.776016 1987.499512
2.960000 -1.160000 -9.120000 -45.923794 28.993975 2949.645508
2.960000 -1.160000 -9.080000 -56.501049 1.311438 3194.088623
2.960000 -1.160000 -9.040000 -45.863762 -21.204659 2553.122070
2.960000 -1.160000 -9.000000 -29.799192 -25.811977 1554.250000
2.960000 -1.160000 -8.960000 -25.416822 -20.536922 1067.780029
2.960000 -1.160000 -8.920000 -32.077694 -23.239462 1569.051025
2.960000 -1.160000 -8.880000 -33.019684 -39.866131 2679.607910
2.960000 -1.160000 -8.840000 -15.704380 -56.548187 3444.324951
2.960000 -1.160000 -8.800000 12.120441 -54.744400 3143.854248
2.960000 -1.120000 -9.200000 -3.500013 16.674812 290.299469
2.960000 -1.120000 -9.160000 -20.159527 29.230385 1260.821899
2.960000 -1.120000 -9.120000 -46.724579 27.100193 2917.606689
2.960000 -1.120000 -9.080000 -69.453308 6.518509 4866.252930
2.960000 -1.120000 -9.040000 -76.993507 -25.231514 6564.629395
2.960000 -1.120000 -9.000000 -66.666298 -56.423100 7627.961914
2.960000 -1.120000 -8.960000 -43.001053 -78.022186 7936.551758
2.960000 -1.120000 -8.920000 -13.117378 -85.743500 7524.013184
2.960000 -1.120000 -8.880000 15.606415 -78.743538 6444.104980
2.960000 -1.120000 -8.840000 35.624729 -59.505436 4810.018555
2.960000 -1.120000 -8.800000 41.093719 -35.287556 2933.905273
2.960000 -1.080000 -9.200000 2.072656 4.017433 20.435671
2.960000 -1.080000 -9.160000 -17.750912 25.873272 984.521118
2.960000 -1.080000 -9.120000 -58.854027 25.746159 4126.661133
2.960000 -1.080000 -9.080000 -96.561050 -10.550316 9435.345703
2.960000 -1.080000 -9.040000 -101.532417 -71.806664 15465.029297
2.960000 -1.080000 -9.000000 -62.595840 -126.412781 19898.429688
2.960000 -1.080000 -8.960000 3.342003 -144.273132 20825.906250
2.960000 -1.080000 -8.920000 62.813766 -118.048111 17880.925781
2.960000 -1.080000 -8.880000 89.223251 -66.888817 12434.902344
2.960000 -1.080000 -8.840000 79.413910 -20.852613 6741.400391
2.960000 -1.080000 -8.800000 51.638721 0.287718 2666.640381
2.960000 -1.040000 -9.200000 15.520809 4.330528 259.648987
2.960000 -1.040000 -9.160000 -20.306652 27.866779 1188.917480
2.960000 -1.040000 -9.120000 -75.727455 9.933239 5833.316895
2.960000 -1.040000 -9.080000 -106.850685 -56.956173 14661.075195
2.960000 -1.040000 -9.040000 -77.532455 -138.677780 25242.808594
2.960000 -1.040000 -9.000000 7.223251 -181.860703 33125.492188
2.960000 -1.040000 -8.960000 100.885017 -155.924103 34490.113281
2.960000 -1.040000 -8.920000 150.364685 -77.775986 28658.642578
2.960000 -1.040000 -8.880000 136.156769 2.613657 18545.498047
2.960000 -1.040000 -8.840000 83.140182 42.226257 8695.346680
2.960000 -1.040000 -8.800000 35.239716 34.997631 2466.671875
2.960000 -1.000000 -9.200000 22.171894 17.840181 809.864990
2.960000 -1.000000 -9.160000 -29.126457 26.341272 1542.213135
2.960000 -1.000000 -9.120000 -79.514854 -20.596317 6746.820801
2.960000 -1.000000 -9.080000 -77.021263 -106.618454 17299.769531
2.960000 -1.000000 -9.040000 -2.235070 -174.061646 30302.453125
2.960000 -1.000000 -9.000000 107.846367 -168.724915 40098.937500
2.960000 -1.000000 -8.960000 185.082596 -86.563560 41748.816406
2.960000 -1.000000 -8.920000 184.211990 21.133787 34380.695312
2.960000 -1.000000 -8.880000 117.362411 89.461929 21777.373047
2.960000 -1.000000 -8.840000 39.181160 90.553482 9735.096680
2.960000 -1.000000 -8.800000 -1.051970 48.601974 2363.258545
2.960000 -0.960000 -9.200000 14.396034 32.689392 1275.842163
2.960000 -0.960000 -9.160000 -37.047276 16.672915 1650.486694
2.960000 -0.960000 -9.120000 -60.641479 -49.073792 6085.625977
2.960000 -0.960000 -9.080000 -17.598269 -123.776001 15630.197266
2.960000 -0.960000 -9.040000 80.299133 -145.788422 27702.214844
2.960000 -0.960000 -9.000000 172.125748 -85.715096 36974.351562
2.960000 -0.960000 -8.960000 195.186905 24.490921 38697.734375
2.960000 -0.960000 -8.920000 136.570374 115.408920 31970.685547
2.960000 -0.960000 -8.880000 41.883072 136.244370 20316.718750
2.960000 -0.960000 -8.840000 -25.519659 92.217773 9155.371094
2.960000 -0.960000 -8.800000 -35.604683 31.786701 2278.087891
2.960000 -0.920000 -9.200000 -2.093691 36.929890 1368.200317
2.960000 -0.920000 -9.160000 -36.874626 3.158321 1369.713013
2.960000 -0.920000 -9.120000 -28.655371 -57.832806 4165.763672
2.960000 -0.920000 -9.080000 35.184341 -97.231766 10691.954102
2.960000 -0.920000 -9.040000 118.379692 -72.229240 19230.814453
2.960000 -0.920000 -9.000000 160.675964 12.902756 25983.246094
2.960000 -0.920000 -8.960000 127.993774 105.327927 27476.378906
2.960000 -0.920000 -8.920000 41.884724 145.651230 22968.611328
2.960000 -0.920000 -8.880000 -39.204132 115.581863 14896.130859
2.960000 -0.920000 -8.840000 -68.708542 48.357811 7059.341797
2.960000 -0.920000 -8.800000 -45.713802 -4.583385 2110.759033
2.960000 -0.880000 -9.200000 -15.282179 29.360062 1095.558228
2.960000 -0.880000 -9.160000 -28.945778 -6.002785 873.891479
2.960000 -0.880000 -9.120000 -3.265553 -45.151833 2049.351807
2.960000 -0.880000 -9.080000 52.670723 -49.793388 5253.586914
2.960000 -0.880000 -9.040000 98.267258 -4.035278 9672.737305
2.960000 -0.880000 -9.000000 94.167603 66.685318 13314.468750
2.960000 -0.880000 -8.960000 37.340057 113.646530 14309.814453
2.960000 -0.880000 -8.920000 -34.779625 104.912949 12216.348633
2.960000 -0.880000 -8.880000 -75.375191 50.774796 8259.499023
2.960000 -0.880000 -8.840000 -65.595230 -7.852877 4364.401855
2.960000 -0.880000 -8.800000 -24.849188 -35.117317 1850.708008
2.960000 -0.840000 -9.200000 -18.987446 18.637016 707.861450
2.960000 -0.840000 -9.160000 -20.222187 -7.207264 460.881500
2.960000 -0.840000 -9.120000 4.008449 -25.388983 660.668152
2.960000 -0.840000 -9.080000 37.399521 -14.824417 1618.487427
2.960000 -0.840000 -9.040000 50.827579 22.492123 3089.338379
2.960000 -0.840000 -9.000000 28.288376 59.780628 4373.955566
2.960000 -0.840000 -8.960000 -17.219776 67.233940 4816.923340
2.960000 -0.840000 -8.920000 -53.529713 37.644356 4282.527832
2.960000 -0.840000 -8.880000 -56.030762 -7.876530 3201.486084
2.960000 -0.840000 -8.840000 -26.622601 -38.492889 2190.465332
2.960000 -0.840000 -8.800000 11.103661 -38.420349 1599.414429
2.960000 -0.800000 -9.200000 -17.409914 12.807045 467.125488
2.960000 -0.800000 -9.160000 -16.806112 -4.404319 301.843414
2.960000 -0.800000 -9.120000 -1.747094 -13.911053 196.569717
2.960000 -0.800000 -9.080000 14.680969 -6.202339 253.999863
2.960000 -0.800000 -9.040000 16.684711 12.398973 432.114136
2.960000 -0.800000 -9.000000 0.925049 24.485588 600.399719
2.960000 -0.800000 -8.960000 -19.480768 17.299339 678.767456
2.960000 -0.800000 -8.920000 -26.245701 -5.418255 718.194275
2.960000 -0.800000 -8.880000 -11.841319 -26.523750 843.726196
2.960000 -0.800000 -8.840000 14.584457 -30.094330 1118.375122
2.960000 -0.800000 -8.800000 35.702980 -13.810791 1465.440674
3.000000 -1.200000 -9.200000 -3.599083 39.521919 1574.935425
3.000000 -1.200000 -9.160000 -41.457500 35.376785 2970.241211
3.000000 -1.200000 -9.120000 -65.528488 -1.535418 4296.340332
3.000000 -1.200000 -9.080000 -51.594460 -45.903404 4769.110840
3.000000 -1.200000 -9.040000 -9.274948 -61.896019 3917.141846
3.000000 -1.200000 -9.000000 24.750999 -38.816223 2119.311279
3.000000 -1.200000 -8.960000 22.301937 -2.827026 505.368469
3.000000 -1.200000 -8.920000 -8.280540 8.914356 148.033096
3.000000 -1.200000 -8.880000 -31.207874 -14.462405 1183.092529
3.000000 -1.200000 -8.840000 -20.166985 -47.482250 2661.271240
3.000000 -1.200000 -8.800000 15.396531 -55.575050 3325.639404
3.000000 -1.160000 -9.200000 -18.433479 21.695377 810.482544
3.000000 -1.160000 -9.160000 -40.720779 12.338675 1810.424805
3.000000 -1.160000 -9.120000 -50.954636 -14.052671 2793.852539
3.000000 -1.160000 -9.080000 -39.218052 -40.182343 3152.676270
3.000000 -1.160000 -9.040000 -15.790041 -48.585278 2609.854736
3.000000 -1.160000 -9.000000 -0.517981 -39.816288 1585.605103
3.000000 -1.160000 -8.960000 -1.559555 -31.090000 969.020325
3.000000 -1.160000 -8.920000 -7.111710 -36.499313 1382.776245
3.000000 -1.160000 -8.880000 0.410824 -50.781620 2578.941650
3.000000 -1.160000 -8.840000 23.361454 -55.016960 3572.623535
3.000000 -1.160000 -8.800000 44.724205 -38.269577 3464.814941
3.000000 -1.120000 -9.200000 -12.137560 2.674641 154.474060
3.000000 -1.120000 -9.160000 -27.604733 4.315145 780.641724
3.000000 -1.120000 -9.120000 -44.883339 -9.534353 2105.417969
3.000000 -1.120000 -9.080000 -50.692028 -36.093552 3872.426270
3.000000 -1.120000 -9.040000 -38.871159 -63.810131 5582.699707
3.000000 -1.120000 -9.000000 -13.232788 -81.343857 6791.929688
3.000000 -1.120000 -8.960000 17.226677 -83.681427 7299.339355
3.000000 -1.120000 -8.920000 44.065704 -71.838943 7102.620117
3.000000 -1.120000 -8.880000 61.329739 -49.984734 6259.810547
3.000000 -1.120000 -8.840000 65.345383 -24.347147 4862.802734
3.000000 -1.120000 -8.800000 56.076813 -3.192519 3154.801025
3.000000 -1.080000 -9.200000 5.692462 0.289936 32.488186
3.000000 -1.080000 -9.160000 -21.293997 11.593023 587.832520
3.000000 -1.080000 -9.120000 -56.177078 -8.627199 3230.292480
3.000000 -1.080000 -9.080000 -68.053650 -58.892365 8099.609863
3.000000 -1.080000 -9.040000 -37.572018 -111.766495 13903.405273
3.000000 -1.080000 -9.000000 25.744804 -133.145340 18390.476562
3.000000 -1.080000 -8.960000 89.023270 -108.058121 19601.699219
3.000000 -1.080000 -8.920000 120.000748 -51.424717 17044.681641
3.000000 -1.080000 -8.880000 109.284203 4.342522 11961.894531
3.000000 -1.080000 -8.840000 73.669403 33.325890 6537.795898
3.000000 -1.080000 -8.800000 40.196472 31.922672 2634.813477
3.000000 -1.040000 -9.200000 15.488477 15.509517 480.438019
3.000000 -1.040000 -9.160000 -30.220879 18.456301 1253.936523
3.000000 -1.040000 -9.120000 -69.397728 -27.597513 5577.666992
3.000000 -1.040000 -9.080000 -58.467537 -102.470184 13918.591797
3.000000 -1.040000 -9.040000 13.296928 -154.316864 23990.503906
3.000000 -1.040000 -9.000000 108.925507 -140.325531 31556.019531
3.000000 -1.040000 -8.960000 170.077942 -63.206276 32921.539062
3.000000 -1.040000 -8.920000 162.728180 29.847706 27371.345703
3.000000 -1.040000 -8.880000 102.060532 85.089371 17656.554688
3.000000 -1.040000 -8.840000 35.891441 82.919403 8163.823242
3.000000 -1.040000 -8.800000 3.993446 46.688957 2195.806152
3.000000 -1.000000 -9.200000 6.918256 32.785995 1122.783813
3.000000 -1.000000 -9.160000 -44.579212 11.176571 2112.221924
3.000000 -1.000000 -9.120000 -62.430275 -59.032173 7382.336914
3.000000 -1.000000 -9.080000 -11.032747 -132.208237 17600.738281
3.000000 -1.000000 -9.040000 91.792374 -146.627823 29925.558594
3.000000 -1.000000 -9.000000 181.491379 -77.864639 39002.023438
3.000000 -1.000000 -8.960000 197.254944 36.243225 40223.082031
3.000000 -1.000000 -8.920000 131.902939 124.350563 32861.445312
3.000000 -1.000000 -8.880000 35.827648 138.967957 20595.714844
3.000000 -1.000000 -8.840000 -27.404469 90.828407 9000.804688
3.000000 -1.000000 -8.800000 -31.742720 31.672529 2010.749390
3.000000 -0.960000 -9.200000 -12.343840 36.413128 1478.286255
3.000000 -0.960000 -9.160000 -48.330025 -7.592480 2393.437012
3.000000 -0.960000 -9.120000 -31.387959 -78.767593 7189.538086
3.000000 -0.960000 -9.080000 48.563835 -119.353867 16603.791016
3.000000 -0.960000 -9.040000 145.602051 -82.688751 28037.386719
3.000000 -0.960000 -9.000000 189.749741 21.251764 36456.601562
3.000000 -0.960000 -8.960000 145.447723 127.939812 37523.636719
3.000000 -0.960000 -8.920000 42.739571 169.605621 30592.738281
3.000000 -0.960000 -8.880000 -48.333557 129.778397 19178.564453
3.000000 -0.960000 -8.840000 -76.184845 51.755249 8482.736328
3.000000 -0.960000 -8.800000 -45.078480 -3.768269 2046.269165
3.000000 -0.920000 -9.200000 -26.312294 25.404167 1337.708496
3.000000 -0.920000 -9.160000 -36.760468 -22.761971 1869.439331
3.000000 -0.920000 -9.120000 4.197447 -70.924423 5047.892578
3.000000 -0.920000 -9.080000 81.423233 -70.216446 11560.091797
3.000000 -0.920000 -9.040000 140.220505 -2.960999 19670.556641
3.000000 -0.920000 -9.000000 130.119949 94.119133 25789.613281
3.000000 -0.920000 -8.960000 50.459999 155.573120 26749.207031
3.000000 -0.920000 -8.920000 -46.186554 141.061798 22031.628906
3.000000 -0.920000 -8.880000 -97.440414 67.976807 14115.480469
3.000000 -0.920000 -8.840000 -81.376938 -6.710098 6667.231445
3.000000 -0.920000 -8.800000 -28.194008 -36.414993 2120.953857
3.000000 -0.880000 -9.200000 -27.468599 11.966839 897.729126
3.000000 -0.880000 -9.160000 -20.779764 -23.562037 986.968140
3.000000 -0.880000 -9.120000 20.758411 -43.865128 2355.061035
3.000000 -0.880000 -9.080000 71.782532 -19.908070 5549.062988
3.000000 -0.880000 -9.040000 89.024933 43.154381 9787.739258
3.000000 -0.880000 -9.000000 49.703979 103.473122 13177.171875
3.000000 -0.880000 -8.960000 -24.582489 115.548843 13955.833984
3.000000 -0.880000 -8.920000 -83.319550 69.490074 11771.017578
3.000000 -0.880000 -8.880000 -88.899902 -0.492207 7903.435059
3.000000 -0.880000 -8.840000 -46.183079 -46.160057 4263.627930
3.000000 -0.880000 -8.800000 6.382635 -44.925930 2059.077148
3.000000 -0.840000 -9.200000 -22.703758 6.734750 560.817505
3.000000 -0.840000 -9.160000 -14.410324 -14.560152 419.655457
3.000000 -0.840000 -9.120000 13.269541 -20.952446 615.085693
3.000000 -0.840000 -9.080000 38.864204 1.373703 1512.313477
3.000000 -0.840000 -9.040000 36.280685 40.431961 2951.031738
3.000000 -0.840000 -9.000000 0.549858 65.179329 4248.646973
3.000000 -0.840000 -8.960000 -44.146854 52.468338 4701.871094
3.000000 -0.840000 -8.920000 -63.801491 8.866993 4149.253906
3.000000 -0.840000 -8.880000 -43.781563 -34.067768 3077.437988
3.000000 -0.840000 -8.840000 -0.504377 -46.728916 2183.845947
3.000000 -0.840000 -8.800000 34.448387 -25.116312 1817.520508
3.000000 -0.800000 -9.200000 -23.229671 7.534428 596.385193
3.000000 -0.800000 -9.160000 -19.857449 -9.737118 489.129730
3.000000 -0.800000 -9.120000 -2.266602 -17.271702 303.449158
3.000000 -0.800000 -9.080000 14.398176 -6.368357 247.863449
3.000000 -0.800000 -9.040000 14.007450 13.867332 388.511536
3.000000 -0.800000 -9.000000 -4.006783 24.005732 592.329468
3.000000 -0.800000 -8.960000 -22.757183 12.927391 685.006836
3.000000 -0.800000 -8.920000 -23.243528 -10.795868 656.812378
3.000000 -0.800000 -8.880000 -2.171188 -26.189777 690.618469
3.000000 -0.800000 -8.840000 24.968746 -18.735374 974.452515
3.000000 -0.800000 -8.800000 37.865952 7.394925 1488.515259
3.040000 -1.200000 -9.200000 -27.105906 23.662146 1294.627197
3.040000 -1.200000 -9.160000 -49.687260 -2.937946 2477.455322
3.040000 -1.200000 -9.120000 -43.785461 -43.355515 3796.867188
3.040000 -1.200000 -9.080000 -6.978703 -67.037552 4542.735352
3.040000 -1.200000 -9.040000 34.370155 -54.067265 4104.576660
3.040000 -1.200000 -9.000000 48.034981 -16.425335 2577.150879
3.040000 -1.200000 -8.960000 26.950531 11.833878 866.371765
3.040000 -1.200000 -8.920000 -3.719162 7.202748 65.711746
3.040000 -1.200000 -8.880000 -11.743191 -20.754782 568.663452
3.040000 -1.200000 -8.840000 10.230879 -40.267918 1726.176147
3.040000 -1.200000 -8.800000 38.689095 -30.230053 2410.702148
3.040000 -1.160000 -9.200000 -24.820578 -0.663595 616.501465
3.040000 -1.160000 -9.160000 -31.564327 -19.221954 1365.790283
3.040000 -1.160000 -9.120000 -21.953629 -41.863064 2234.478027
3.040000 -1.160000 -9.080000 2.159563 -52.238140 2733.487061
3.040000 -1.160000 -9.040000 24.708607 -43.247952 2480.900391
3.040000 -1.160000 -9.000000 31.219490 -25.404585 1620.049561
3.040000 -1.160000 -8.960000 23.879570 -16.179188 832.000000
3.040000 -1.160000 -8.920000 18.782024 -21.344940 808.370911
3.040000 -1.160000 -8.880000 27.755459 -28.969830 1609.616455
3.040000 -1.160000 -8.840000 44.712536 -23.178389 2536.448486
3.040000 -1.160000 -8.800000 52.017426 -2.747345 2713.360352
3.040000 -1.120000 -9.200000 -4.708427 -9.284910 108.378845
3.040000 -1.120000 -9.160000 -14.200745 -12.400532 355.434326
3.040000 -1.120000 -9.120000 -19.364296 -28.264679 1173.868042
3.040000 -1.120000 -9.080000 -10.116908 -48.542377 2458.714111
3.040000 -1.120000 -9.040000 12.725960 -60.464062 3817.852783
3.040000 -1.120000 -9.000000 39.419125 -57.122417 4816.837891
3.040000 -1.120000 -8.960000 59.745323 -40.750622 5230.116699
3.040000 -1.120000 -8.920000 68.922668 -18.368088 5087.720703
3.040000 -1.120000 -8.880000 67.141182 3.598476 4520.887695
3.040000 -1.120000 -8.840000 56.586250 20.587288 3625.840088
3.040000 -1.120000 -8.800000 40.890045 28.886292 2506.413574
3.040000 -1.080000 -9.200000 10.769143 4.475844 136.007629
3.040000 -1.080000 -9.160000 -16.330996 3.192051 276.890594
3.040000 -1.080000 -9.120000 -34.016319 -28.007664 1941.539185
3.040000 -1.080000 -9.080000 -18.153931 -70.819756 5345.002930
3.040000 -1.080000 -9.040000 31.021362 -93.070572 9624.457031
3.040000 -1.080000 -9.000000 87.080444 -74.402481 13118.732422
3.040000 -1.080000 -8.960000 117.356117 -22.567451 14281.748047
3.040000 -1.080000 -8.920000 107.318298 33.158100 12616.676758
3.040000 -1.080000 -8.880000 69.205070 64.615242 8964.470703
3.040000 -1.080000 -8.840000 29.666035 63.799057 4950.393066
3.040000 -1.080000 -8.800000 9.058784 44.080811 2025.179321
3.040000 -1.040000 -9.200000 5.305547 24.907368 648.525757
3.040000 -1.040000 -9.160000 -33.864742 5.210882 1173.974121
3.040000 -1.040000 -9.120000 -41.897766 -49.992889 4254.711914
3.040000 -1.040000 -9.080000 3.967918 -101.065643 10230.008789
3.040000 -1.040000 -9.040000 83.618454 -102.575089 17513.695312
3.040000 -1.040000 -9.000000 145.925110 -42.465721 23097.474609
3.040000 -1.040000 -8.960000 149.021286 45.372169 24265.976562
3.040000 -1.040000 -8.920000 93.798294 107.553238 20365.820312
3.040000 -1.040000 -8.880000 21.051439 113.248322 13268.345703
3.040000 -1.040000 -8.840000 -23.600027 74.916130 6169.388184
3.040000 -1.040000 -8.800000 -24.553631 31.854837 1617.611450
3.040000 -1.000000 -9.200000 -15.577078 31.104158 1210.114014
3.040000 -1.000000 -9.160000 -45.626526 -12.492559 2237.843750
3.040000 -1.000000 -9.120000 -24.019220 -75.953995 6345.932129
3.040000 -1.000000 -9.080000 51.975399 -105.578918 13848.350586
3.040000 -1.000000 -9.040000 136.216095 -64.136314 22668.291016
3.040000 -1.000000 -9.000000 167.286957 32.654079 29051.214844
3.040000 -1.000000 -8.960000 119.686867 124.330399 29782.994141
3.040000 -1.000000 -8.920000 25.979322 153.861298 24348.224609
3.040000 -1.000000 -8.880000 -50.899025 112.906448 15338.577148
3.040000 -1.000000 -8.840000 -69.481064 43.867943 6752.014648
3.040000 -1.000000 -8.800000 -38.765282 -0.419376 1502.922974
3.040000 -0.960000 -9.200000 -32.118980 18.223793 1363.735596
3.040000 -0.960000 -9.160000 -36.958157 -34.063808 2526.248535
3.040000 -0.960000 -9.120000 11.894679 -79.688828 6491.792480
3.040000 -0.960000 -9.080000 92.583969 -70.426216 13531.642578
3.040000 -0.960000 -9.040000 147.095917 5.388146 21666.240234
3.040000 -0.960000 -9.000000 128.014832 104.814102 27373.792969
3.040000 -0.960000 -8.960000 41.452209 161.299896 27735.941406
3.040000 -0.960000 -8.920000 -55.271782 139.262787 22449.093750
3.040000 -0.960000 -8.880000 -100.833282 62.540039 14078.607422
3.040000 -0.960000 -8.840000 -78.949203 -9.067555 6315.197266
3.040000 -0.960000 -8.800000 -25.244743 -31.735584 1644.444336
3.040000 -0.920000 -9.200000 -31.841631 0.422259 1014.067749
3.040000 -0.920000 -9.160000 -15.288646 -39.633137 1804.528198
3.040000 -0.920000 -9.120000 38.499397 -55.060921 4513.908691
3.040000 -0.920000 -9.080000 95.569588 -17.281195 9432.185547
3.040000 -0.920000 -9.040000 107.157661 60.982758 15201.661133
3.040000 -0.920000 -9.000000 53.070648 128.353790 19291.189453
3.040000 -0.920000 -8.960000 -35.789120 135.318497 19591.957031
3.040000 -0.920000 -8.920000 -100.043671 76.894981 15921.574219
3.040000 -0.920000 -8.880000 -100.784531 -2.920719 10166.051758
3.040000 -0.920000 -8.840000 -49.814423 -49.457909 4927.561523
3.040000 -0.920000 -8.800000 5.653358 -42.252548 1817.238281
3.040000 -0.880000 -9.200000 -21.435493 -6.273127 498.832489
3.040000 -0.880000 -9.160000 -1.294661 -26.895359 725.036499
3.040000 -0.880000 -9.120000 36.724548 -22.718224 1864.810181
3.040000 -0.880000 -9.080000 62.943321 16.982401 4250.263672
3.040000 -0.880000 -9.040000 47.853889 70.691803 7287.325684
3.040000 -0.880000 -9.000000 -7.826347 97.732948 9612.981445
3.040000 -0.880000 -8.960000 -68.182709 73.181717 10004.445312
3.040000 -0.880000 -8.920000 -90.351791 11.870567 8304.356445
3.040000 -0.880000 -8.880000 -60.919147 -42.767235 5540.178711
3.040000 -0.880000 -8.840000 -6.200613 -55.472172 3115.609375
3.040000 -0.880000 -8.800000 32.697922 -27.006395 1798.499512
3.040000 -0.840000 -9.200000 -17.052734 -1.534711 293.151093
3.040000 -0.840000 -9.160000 -6.140626 -12.937073 205.075150
3.040000 -0.840000 -9.120000 14.541106 -8.952961 291.599274
3.040000 -0.840000 -9.080000 25.366379 15.018732 869.015503
3.040000 -0.840000 -9.040000 10.246128 42.239204 1889.133545
3.040000 -0.840000 -9.000000 -24.610466 47.467140 2858.804443
3.040000 -0.840000 -8.960000 -52.552761 21.189739 3210.797852
3.040000 -0.840000 -8.920000 -49.428349 -18.965153 2802.838623
3.040000 -0.840000 -8.880000 -15.935755 -42.362278 2048.510986
3.040000 -0.840000 -8.840000 22.658371 -32.035633 1539.683594
3.040000 -0.840000 -8.800000 39.048767 1.639030 1527.492554
3.040000 -0.800000 -9.200000 -24.854729 0.297375 617.846008
3.040000 -0.800000 -9.160000 -19.706198 -15.160826 618.184875
3.040000 -0.800000 -9.120000 -2.527311 -19.796061 398.271301
3.040000 -0.800000 -9.080000 11.261677 -7.737788 186.698730
3.040000 -0.800000 -9.040000 8.447708 9.992380 171.211426
3.040000 -0.800000 -9.000000 -7.777718 15.888977 312.952484
3.040000 -0.800000 -8.960000 -20.137331 3.872616 420.509247
3.040000 -0.800000 -8.920000 -14.320356 -13.858843 397.140137
3.040000 -0.800000 -8.880000 6.510311 -18.335194 378.563477
3.040000 -0.800000 -8.840000 24.379013 -2.084755 598.682495
3.040000 -0.800000 -8.800000 23.311649 24.031433 1120.942749
3.080000 -1.200000 -9.200000 -27.610405 -1.007397 763.349304
3.080000 -1.200000 -9.160000 -25.853456 -29.005445 1509.717041
3.080000 -1.200000 -9.120000 -0.649203 -50.647911 2565.632324
3.080000 -1.200000 -9.080000 35.516022 -46.911423 3462.069336
3.080000 -1.200000 -9.040000 57.486969 -17.161331 3599.262939
3.080000 -1.200000 -9.000000 49.609467 17.053410 2751.917969
3.080000 -1.200000 -8.960000 21.201988 30.194527 1361.233643
3.080000 -1.200000 -8.920000 -1.505785 16.221775 265.413391
3.080000 -1.200000 -8.880000 -0.159651 -6.339298 40.212193
3.080000 -1.200000 -8.840000 18.807358 -13.395859 533.165771
3.080000 -1.200000 -8.800000 32.296364 0.797150 1043.690674
3.080000 -1.160000 -9.200000 -11.194975 -15.559373 367.421539
3.080000 -1.160000 -9.160000 -4.026885 -27.743137 785.897461
3.080000 -1.160000 -9.120000 13.357721 -35.174530 1415.676270
3.080000 -1.160000 -9.080000 34.120674 -28.785004 1992.796875
3.080000 -1.160000 -9.040000 45.192135 -9.904331 2140.424805
3.080000 -1.160000 -9.000000 40.322624 8.761336 1702.675049
3.080000 -1.160000 -8.960000 27.250500 15.041082 968.823853
3.080000 -1.160000 -8.920000 20.078976 9.615341 495.620056
3.080000 -1.160000 -8.880000 24.451368 4.822308 621.124023
3.080000 -1.160000 -8.840000 31.826702 10.653906 1126.444702
3.080000 -1.160000 -8.800000 29.638939 23.273598 1420.126953
3.080000 -1.120000 -9.200000 7.913867 -7.569592 119.928009
3.080000 -1.120000 -9.160000 2.765322 -9.679274 101.335342
3.080000 -1.120000 -9.120000 5.101146 -20.261429 436.547211
3.080000 -1.120000 -9.080000 19.714069 -27.976131 1171.308472
3.080000 -1.120000 -9.040000 39.501968 -22.957602 2087.457031
3.080000 -1.120000 -9.000000 52.775669 -5.546366 2816.033447
3.080000 -1.120000 -8.960000 53.439552 15.502518 3096.113770
3.080000 -1.120000 -8.920000 44.052200 31.514805 2933.779297
3.080000 -1.120000 -8.880000 30.855480 39.568859 2517.755371
3.080000 -1.120000 -8.840000 18.130842 41.017822 2011.189209
3.080000 -1.120000 -8.800000 7.762615 37.395164 1458.656494
3.080000 -1.080000 -9.200000 8.720628 13.075825 247.026535
3.080000 -1.080000 -9.160000 -11.693478 2.318766 142.114090
3.080000 -1.080000 -9.120000 -11.472664 -26.045420 809.985901
3.080000 -1.080000 -9.080000 17.412872 -46.718349 2485.812500
3.080000 -1.080000 -9.040000 58.416164 -37.702065 4833.894043
3.080000 -1.080000 -9.000000 83.509163 0.887356 6974.567871
3.080000 -1.080000 -8.960000 75.729843 46.992043 7943.261230
3.080000 -1.080000 -8.920000 41.464706 74.613319 7286.469238
3.080000 -1.080000 -8.880000 3.207935 73.058975 5347.904785
3.080000 -1.080000 -8.840000 -18.778244 51.810581 3036.958984
3.080000 -1.080000 -8.800000 -19.617779 29.652327 1264.117676
3.080000 -1.040000 -9.200000 -9.837284 23.711823 659.022705
3.080000 -1.040000 -9.160000 -29.852518 -7.478434 947.099792
3.080000 -1.040000 -9.120000 -11.599046 -48.662941 2502.619629
3.080000 -1.040000 -9.080000 40.949585 -62.022141 5523.614258
3.080000 -1.040000 -9.040000 92.621506 -27.152893 9316.022461
3.080000 -1.040000 -9.000000 104.293137 39.337006 12424.458984
3.080000 -1.040000 -8.960000 65.159706 95.573868 13380.151367
3.080000 -1.040000 -8.920000 1.372093 107.795647 11621.784180
3.080000 -1.040000 -8.880000 -46.217285 75.979309 7908.892578
3.080000 -1.040000 -8.840000 -54.540073 30.152943 3883.819580
3.080000 -1.040000 -8.800000 -32.763023 3.091400 1082.972412
3.080000 -1.000000 -9.200000 -28.795475 13.221098 1003.976807
3.080000 -1.000000 -9.160000 -29.855698 -30.447260 1818.398315
3.080000 -1.000000 -9.120000 12.557684 -63.379490 4174.655273
3.080000 -1.000000 -9.080000 75.225189 -49.469357 8106.046387
3.080000 -1.000000 -9.040000 111.284386 14.232039 12586.765625
3.080000 -1.000000 -9.000000 88.234207 89.727203 15836.246094
3.080000 -1.000000 -8.960000 16.974436 126.494652 16289.028320
3.080000 -1.000000 -8.920000 -55.650715 102.451675 13593.347656
3.080000 -1.000000 -8.880000 -85.058846 40.836525 8902.628906
3.080000 -1.000000 -8.840000 -63.676407 -11.674651 4190.982422
3.080000 -1.000000 -8.800000 -21.958900 -24.486837 1081.798584
3.080000 -0.960000 -9.200000 -30.324049 -7.120621 970.251221
3.080000 -0.960000 -9.160000 -9.588820 -43.224892 1960.336670
3.080000 -0.960000 -9.120000 41.981819 -51.133175 4377.074707
3.080000 -0.960000 -9.080000 89.711731 -10.426999 8156.916992
3.080000 -0.960000 -9.040000 92.120514 61.215103 12233.478516
3.080000 -0.960000 -9.000000 37.523277 116.270325 14926.784180
3.080000 -0.960000 -8.960000 -41.709908 114.805740 14920.075195
3.080000 -0.960000 -8.920000 -93.357216 58.498081 12137.594727
3.080000 -0.960000 -8.880000 -87.853363 -10.612137 7830.831055
3.080000 -0.960000 -8.840000 -40.713318 -46.081421 3781.071533
3.080000 -0.960000 -8.800000 4.814837 -34.635956 1222.832031
3.080000 -0.920000 -9.200000 -16.465797 -17.322933 571.206543
3.080000 -0.920000 -9.160000 11.076842 -33.410919 1238.985962
3.080000 -0.920000 -9.120000 50.072762 -19.777534 2898.432373
3.080000 -0.920000 -9.080000 69.412186 26.982937 5546.130859
3.080000 -0.920000 -9.040000 44.725910 80.114548 8418.748047
3.080000 -0.920000 -9.000000 -16.248295 100.076828 10279.377930
3.080000 -0.920000 -8.960000 -74.579147 68.070663 10195.664062
3.080000 -0.920000 -8.920000 -90.486435 4.652760 8209.443359
3.080000 -0.920000 -8.880000 -56.685242 -45.955589 5325.132812
3.080000 -0.920000 -8.840000 -3.547469 -52.799637 2800.386230
3.080000 -0.920000 -8.800000 28.798258 -22.272369 1325.398071
3.080000 -0.880000 -9.200000 -5.282207 -11.018598 149.311203
3.080000 -0.880000 -9.160000 12.170907 -13.135887 320.682495
3.080000 -0.880000 -9.120000 30.606644 3.197475 946.990540
3.080000 -0.880000 -9.080000 30.733238 34.869301 2160.400146
3.080000 -0.880000 -9.040000 2.587559 60.378403 3652.247070
3.080000 -0.880000 -9.000000 -40.085529 56.011135 4744.096680
3.080000 -0.880000 -8.960000 -67.056549 18.835907 4851.372070
3.080000 -0.880000 -8.920000 -56.882065 -26.882996 3958.264648
3.080000 -0.880000 -8.880000 -16.810286 -48.671276 2651.478760
3.080000 -0.880000 -8.840000 22.821537 -33.567371 1647.591064
3.080000 -0.880000 -8.800000 35.136868 1.857558 1238.050049
3.080000 -0.840000 -9.200000 -9.525394 -1.685267 93.573265
3.080000 -0.840000 -9.160000 -4.457513 -5.696669 52.321457
3.080000 -0.840000 -9.120000 4.466562 -1.161280 21.298748
3.080000 -0.840000 -9.080000 5.541183 12.541981 188.005997
3.080000 -0.840000 -9.040000 -8.029772 23.326038 608.581299
3.080000 -0.840000 -9.000000 -27.801128 17.493816 1078.936279
3.080000 -0.840000 -8.960000 -35.607243 -4.690128 1289.873047
3.080000 -0.840000 -8.920000 -21.087391 -26.227345 1132.551636
3.080000 -0.840000 -8.880000 6.640778 -28.034536 830.035156
3.080000 -0.840000 -8.840000 26.096315 -7.013976 730.213562
3.080000 -0.840000 -8.800000 22.799660 20.935806 958.132446
3.080000 -0.800000 -9.200000 -21.941654 -6.390696 522.277161
3.080000 -0.800000 -9.160000 -17.055164 -20.036232 692.329224
3.080000 -0.800000 -9.120000 -1.932499 -24.130379 586.009766
3.080000 -0.800000 -9.080000 10.334831 -14.291939 311.068268
3.080000 -0.800000 -9.040000 9.510706 0.135643 90.471931
3.080000 -0.800000 -9.000000 -1.135810 5.862110 35.654400
3.080000 -0.800000 -8.960000 -8.528112 -0.340246 72.844467
3.080000 -0.800000 -8.920000 -3.928679 -8.381670 85.686913
3.080000 -0.800000 -8.880000 7.640530 -5.803432 92.057510
3.080000 -0.800000 -8.840000 12.599562 8.902252 237.999054
3.080000 -0.800000 -8.800000 2.744917 24.605644 612.972290
3.120000 -1.200000 -9.200000 -10.728970 -12.396682 268.788513
3.120000 -1.200000 -9.160000 4.341811 -24.269728 607.870972
3.120000 -1.200000 -9.120000 26.982321 -23.286745 1270.318115
3.120000 -1.200000 -9.080000 45.114449 -5.337405 2063.801270
3.120000 -1.200000 -9.040000 46.028294 21.783386 2593.119629
3.120000 -1.200000 -9.000000 27.695181 41.753033 2510.338867
3.120000 -1.200000 -8.960000 2.430325 42.455017 1808.334961
3.120000 -1.200000 -8.920000 -12.641524 26.701267 872.765869
3.120000 -1.200000 -8.880000 -10.377314 9.686768 201.522095
3.120000 -1.200000 -8.840000 0.706284 4.715670 22.736376
3.120000 -1.200000 -8.800000 5.978316 10.969383 156.067627
3.120000 -1.160000 -9.200000 5.653134 -11.600441 166.528152
3.120000 -1.160000 -9.160000 14.490639 -11.095465 333.087952
3.120000 -1.160000 -9.120000 25.351900 -6.206613 681.240845
3.120000 -1.160000 -9.080000 33.719791 6.464670 1178.816284
3.120000 -1.160000 -9.040000 32.396519 23.728088 1612.556641
3.120000 -1.160000 -9.000000 19.888788 36.160881 1703.173340
3.120000 -1.160000 -8.960000 3.895888 36.639046 1357.597656
3.120000 -1.160000 -8.920000 -5.210466 27.796711 799.806152
3.120000 -1.160000 -8.880000 -4.463652 19.456306 398.472046
3.120000 -1.160000 -8.840000 -0.583908 18.250206 333.410950
3.120000 -1.160000 -8.800000 -1.565312 20.915733 439.918091
3.120000 -1.120000 -9.200000 11.487622 4.153758 149.219177
3.120000 -1.120000 -9.160000 6.418463 4.181231 58.679352
3.120000 -1.120000 -9.120000 9.268208 -0.352043 86.023605
3.120000 -1.120000 -9.080000 19.515625 1.386327 382.781525
3.120000 -1.120000 -9.040000 27.336060 13.796368 937.599915
3.120000 -1.120000 -9.000000 24.104992 30.504707 1511.587891
3.120000 -1.120000 -8.960000 10.634359 41.163490 1807.522583
3.120000 -1.120000 -8.920000 -4.767017 41.087646 1710.919189
3.120000 -1.120000 -8.880000 -14.765923 33.777660 1358.962769
3.120000 -1.120000 -8.840000 -18.245956 25.345078 975.287842
3.120000 -1.120000 -8.800000 -17.901081 18.645748 668.112610
3.120000 -1.080000 -9.200000 -0.987849 16.860111 285.239197
3.120000 -1.080000 -9.160000 -11.998278 3.258160 154.574265
3.120000 -1.080000 -9.120000 -2.924408 -13.522437 191.408478
3.120000 -1.080000 -9.080000 20.173889 -14.210276 608.917725
3.120000 -1.080000 -9.040000 37.702621 6.959400 1469.920898
3.120000 -1.080000 -9.000000 33.670547 37.253471 2521.526855
3.120000 -1.080000 -8.960000 8.858171 56.628063 3285.204834
3.120000 -1.080000 -8.920000 -21.066509 54.041275 3364.257324
3.120000 -1.080000 -8.880000 -39.095764 34.552410 2722.347656
3.120000 -1.080000 -8.840000 -39.168236 12.822481 1698.566650
3.120000 -1.080000 -8.800000 -27.667166 0.970106 766.413147
3.120000 -1.040000 -9.200000 -19.054279 11.612095 497.906311
3.120000 -1.040000 -9.160000 -20.170776 -14.913929 629.285522
3.120000 -1.040000 -9.120000 4.828705 -32.046494 1050.294189
3.120000 -1.040000 -9.080000 38.163845 -20.291309 1868.216309
3.120000 -1.040000 -9.040000 52.337097 17.368296 3040.829346
3.120000 -1.040000 -9.000000 32.782597 56.395805 4255.185547
3.120000 -1.040000 -8.960000 -9.773516 70.022919 4998.730469
3.120000 -1.040000 -8.920000 -47.994835 50.403419 4844.008789
3.120000 -1.040000 -8.880000 -59.775970 13.594076 3757.965576
3.120000 -1.040000 -8.840000 -44.286564 -14.867356 2182.337891
3.120000 -1.040000 -8.800000 -19.552948 -20.218645 791.111389
3.120000 -1.000000 -9.200000 -23.779787 -6.875830 612.755310
3.120000 -1.000000 -9.160000 -7.626470 -31.885971 1074.878174
3.120000 -1.000000 -9.120000 27.415184 -34.315735 1929.161987
3.120000 -1.000000 -9.080000 55.639782 -4.567891 3116.651123
3.120000 -1.000000 -9.040000 51.789207 41.569729 4410.164551
3.120000 -1.000000 -9.000000 12.674180 72.605347 5432.170898
3.120000 -1.000000 -8.960000 -37.996468 65.828545 5777.128906
3.120000 -1.000000 -8.920000 -67.387650 26.018951 5218.081055
3.120000 -1.000000 -8.880000 -59.469982 -18.398323 3875.177002
3.120000 -1.000000 -8.840000 -26.659023 -38.750813 2212.329102
3.120000 -1.000000 -8.800000 2.598139 -28.497213 818.841492
3.120000 -0.960000 -9.200000 -11.002721 -19.783869 512.461304
3.120000 -0.960000 -9.160000 13.650782 -29.556168 1059.910889
3.120000 -0.960000 -9.120000 42.292831 -14.592247 2001.617310
3.120000 -0.960000 -9.080000 51.982780 22.422054 3204.958008
3.120000 -0.960000 -9.040000 28.872932 59.276627 4347.364746
3.120000 -0.960000 -9.000000 -17.364292 68.805115 5035.662598
3.120000 -0.960000 -8.960000 -57.510818 41.138245 4999.849609
3.120000 -0.960000 -8.920000 -64.842186 -6.124746 4242.021973
3.120000 -0.960000 -8.880000 -37.057640 -40.834892 3040.757080
3.120000 -0.960000 -8.840000 1.984543 -42.382942 1800.252197
3.120000 -0.960000 -8.800000 23.078152 -17.755875 847.872192
3.120000 -0.920000 -9.200000 4.469543 -15.308898 254.339172
3.120000 -0.920000 -9.160000 21.704151 -10.441778 580.100952
3.120000 -0.920000 -9.120000 33.153282 9.226644 1184.271118
3.120000 -0.920000 -9.080000 26.262737 36.192467 1999.625977
3.120000 -0.920000 -9.040000 -1.697100 52.723751 2782.674072
3.120000 -0.920000 -9.000000 -36.547676 43.321808 3212.511719
3.120000 -0.920000 -8.960000 -54.767181 9.739614 3094.304199
3.120000 -0.920000 -8.920000 -42.338505 -26.755383 2508.399414
3.120000 -0.920000 -8.880000 -8.165729 -41.179211 1762.406494
3.120000 -0.920000 -8.840000 22.194599 -25.897926 1163.302734
3.120000 -0.920000 -8.800000 28.286507 3.026828 809.288147
3.120000 -0.880000 -9.200000 5.907875 -1.608253 37.489460
3.120000 -0.880000 -9.160000 8.703009 4.405045 95.146782
3.120000 -0.880000 -9.120000 8.226663 13.515474 250.346024
3.120000 -0.880000 -9.080000 0.119633 23.138496 535.404297
3.120000 -0.880000 -9.040000 -15.999043 25.197306 890.873596
3.120000 -0.880000 -9.000000 -31.351122 13.011892 1152.202148
3.120000 -0.880000 -8.960000 -32.869274 -9.249477 1165.942017
3.120000 -0.880000 -8.920000 -15.760656 -26.357695 943.126343
3.120000 -0.880000 -8.880000 9.275002 -24.316790 677.331909
3.120000 -0.880000 -8.840000 23.671787 -3.962261 576.053040
3.120000 -0.880000 -8.800000 17.574436 18.688528 658.121887
3.120000 -0.840000 -9.200000 -6.324533 2.808367 47.886642
3.120000 -0.840000 -9.160000 -9.865225 -1.852548 100.754593
3.120000 -0.840000 -9.120000 -7.181101 -5.983671 87.372528
3.120000 -0.840000 -9.080000 -3.183628 -4.673351 31.975700
3.120000 -0.840000 -9.040000 -3.835051 -0.925316 15.563823
3.120000 -0.840000 -9.000000 -7.990996 -1.441921 65.935158
3.120000 -0.840000 -8.960000 -8.333447 -7.317783 122.996307
3.120000 -0.840000 -8.920000 -0.685886 -11.289164 127.915657
3.120000 -0.840000 -8.880000 9.479855 -5.550785 120.678864
3.120000 -0.840000 -8.840000 11.675441 8.591976 210.137970
3.120000 -0.840000 -8.800000 1.513465 20.770781 433.715912
3.120000 -0.800000 -9.200000 -15.034369 -9.618853 318.554565
3.120000 -0.800000 -9.160000 -11.420073 -23.027941 660.704102
3.120000 -0.800000 -9.120000 3.231144 -28.852684 842.917664
3.120000 -0.800000 -9.080000 17.834745 -20.894020 754.638245
3.120000 -0.800000 -9.040000 21.477669 -5.259962 488.957458
3.120000 -0.800000 -9.000000 13.737082 6.258272 227.873383
3.120000 -0.800000 -8.960000 3.637079 7.946081 76.368546
3.120000 -0.800000 -8.920000 -0.688130 4.450912 20.284138
3.120000 -0.800000 -8.880000 0.030442 3.881398 15.066179
3.120000 -0.800000 -8.840000 -1.236683 8.314917 70.667221
3.120000 -0.800000 -8.800000 -8.806737 12.211646 226.682922
3.160000 -1.200000 -9.200000 3.696678 -4.748394 36.212673
3.160000 -1.200000 -9.160000 13.774850 -0.210000 189.790588
3.160000 -1.200000 -9.120000 20.383400 9.437386 504.547241
3.160000 -1.200000 -9.080000 21.139048 22.784889 966.010498
3.160000 -1.200000 -9.040000 13.259452 36.291786 1492.906860
3.160000 -1.200000 -9.000000 -3.016470 43.424713 1894.804810
3.160000 -1.200000 -8.960000 -21.464165 38.725315 1960.360352
3.160000 -1.200000 -8.920000 -32.717392 23.548256 1624.948120
3.160000 -1.200000 -8.880000 -31.755758 6.491449 1050.567139
3.160000 -1.200000 -8.840000 -22.461695 -3.506710 516.824768
3.160000 -1.200000 -8.800000 -13.622616 -4.964261 210.219559
3.160000 -1.160000 -9.200000 9.114043 3.077277 92.535416
3.160000 -1.160000 -9.160000 9.316166 10.019169 187.174683
3.160000 -1.160000 -9.120000 9.017801 15.543749 322.928864
3.160000 -1.160000 -9.080000 7.873655 23.005255 591.236206
3.160000 -1.160000 -9.040000 1.462351 31.944399 1022.583130
3.160000 -1.160000 -9.000000 -11.804201 36.334194 1459.512817
3.160000 -1.160000 -8.960000 -26.366499 30.722372 1639.056396
3.160000 -1.160000 -8.920000 -33.709930 17.036572 1426.604126
3.160000 -1.160000 -8.880000 -30.675943 3.635967 954.233765
3.160000 -1.160000 -8.840000 -22.283857 -2.771150 504.249573
3.160000 -1.160000 -8.800000 -15.701587 -3.119171 256.269043
3.160000 -1.120000 -9.200000 2.778618 12.625748 167.130219
3.160000 -1.120000 -9.160000 -4.298621 12.129705 165.607910
3.160000 -1.120000 -9.120000 -4.516718 9.409633 108.941925
3.160000 -1.120000 -9.080000 -1.351037 12.382202 155.144226
3.160000 -1.120000 -9.040000 -3.259923 20.900284 447.448975
3.160000 -1.120000 -9.000000 -13.741491 27.046637 920.349121
3.160000 -1.120000 -8.960000 -27.358973 23.811970 1315.523193
3.160000 -1.120000 -8.920000 -35.380783 12.185328 1400.281982
3.160000 -1.120000 -8.880000 -34.101398 -0.498985 1163.154419
3.160000 -1.120000 -8.840000 -26.931023 -8.048270 790.054626
3.160000 -1.120000 -8.800000 -19.249496 -9.926508 469.078674
3.160000 -1.080000 -9.200000 -10.363985 11.107936 230.798431
3.160000 -1.080000 -9.160000 -14.526755 0.548823 211.327835
3.160000 -1.080000 -9.120000 -7.282431 -6.041563 89.534271
3.160000 -1.080000 -9.080000 1.972860 -0.923616 4.745245
3.160000 -1.080000 -9.040000 1.936814 12.075799 149.576172
3.160000 -1.080000 -9.000000 -10.277968 21.582565 571.443787
3.160000 -1.080000 -8.960000 -27.119274 18.984774 1095.876709
3.160000 -1.080000 -8.920000 -37.664650 5.231915 1445.998779
3.160000 -1.080000 -8.880000 -36.338615 -11.108045 1443.883667
3.160000 -1.080000 -8.840000 -25.865578 -21.222126 1119.406738
3.160000 -1.080000 -8.800000 -13.549868 -21.747183 656.538879
3.160000 -1.040000 -9.200000 -15.982664 -2.254905 260.530151
3.160000 -1.040000 -9.160000 -9.790354 -15.047747 322.285706
3.160000 -1.040000 -9.120000 4.543290 -16.481054 292.266632
3.160000 -1.040000 -9.080000 14.374949 -4.240085 224.617462
3.160000 -1.040000 -9.040000 10.025525 12.904837 267.045959
3.160000 -1.040000 -9.000000 -7.570261 21.725372 529.300659
3.160000 -1.040000 -8.960000 -27.408211 14.584702 963.923584
3.160000 -1.040000 -8.920000 -36.588905 -4.860466 1362.372192
3.160000 -1.040000 -8.880000 -29.744867 -24.490183 1484.526123
3.160000 -1.040000 -8.840000 -12.591009 -32.693863 1227.422119
3.160000 -1.040000 -8.800000 2.736364 -26.574215 713.676575
3.160000 -1.000000 -9.200000 -6.891358 -14.363672 253.805908
3.160000 -1.000000 -9.160000 6.352555 -18.831043 394.963135
3.160000 -1.000000 -9.120000 19.196289 -10.937399 488.124207
3.160000 -1.000000 -9.080000 21.975172 5.566811 513.897583
3.160000 -1.000000 -9.040000 10.513017 20.359470 525.031555
3.160000 -1.000000 -9.000000 -10.016687 22.525360 607.725891
3.160000 -1.000000 -8.960000 -27.072294 8.415604 803.731506
3.160000 -1.000000 -8.920000 -28.962463 -14.339614 1044.448853
3.160000 -1.000000 -8.880000 -14.038657 -31.161240 1168.106689
3.160000 -1.000000 -8.840000 6.989962 -31.377960 1033.436035
3.160000 -1.000000 -8.800000 18.991680 -17.084877 652.576965
3.160000 -0.960000 -9.200000 8.129940 -12.598497 224.818054
3.160000 -0.960000 -9.160000 17.381174 -6.395851 343.012146
3.160000 -0.960000 -9.120000 20.467564 4.990354 443.824799
3.160000 -0.960000 -9.080000 14.937492 16.853132 507.156738
3.160000 -0.960000 -9.040000 1.363221 22.889591 525.791809
3.160000 -0.960000 -9.000000 -14.550781 17.491604 517.681458
3.160000 -0.960000 -8.960000 -22.904121 0.919587 525.444397
3.160000 -0.960000 -8.920000 -16.322523 -17.725439 580.615967
3.160000 -0.960000 -8.880000 2.276589 -25.511019 655.994934
3.160000 -0.960000 -8.840000 19.719601 -16.622515 665.170654
3.160000 -0.960000 -8.800000 23.064877 1.115158 533.232117
3.160000 -0.920000 -9.200000 13.635231 0.800039 186.559586
3.160000 -0.920000 -9.160000 11.250012 9.134647 210.004562
3.160000 -0.920000 -9.120000 5.612743 13.386132 210.691422
3.160000 -0.920000 -9.080000 -0.461622 14.522630 211.119858
3.160000 -0.920000 -9.040000 -7.051654 12.961616 217.729309
3.160000 -0.920000 -9.000000 -12.917215 6.790921 212.971054
3.160000 -0.920000 -8.960000 -13.227063 -3.808559 189.460327
3.160000 -0.920000 -8.920000 -4.322271 -12.650738 178.723206
3.160000 -0.920000 -8.880000 9.681767 -11.477167 225.461990
3.160000 -0.920000 -8.840000 17.998535 0.839976 324.652832
3.160000 -0.920000 -8.800000 13.278424 14.820709 395.969971
3.160000 -0.880000 -9.200000 4.734602 10.905706 141.350891
3.160000 -0.880000 -9.160000 -5.745255 10.447830 142.165115
3.160000 -0.880000 -9.120000 -10.012006 2.859106 108.414742
3.160000 -0.880000 -9.080000 -6.685726 -2.973239 53.539082
3.160000 -0.880000 -9.040000 -2.039587 -2.998048 13.148207
3.160000 -0.880000 -9.000000 -0.838058 -0.841664 1.410740
3.160000 -0.880000 -8.960000 -1.069567 -0.916967 1.984803
3.160000 -0.880000 -8.920000 1.514595 -1.801067 5.537842
3.160000 -0.880000 -8.880000 6.019807 1.457558 38.362553
3.160000 -0.880000 -8.840000 6.400844 9.483265 130.903122
3.160000 -0.880000 -8.800000 -0.678102 15.978589 255.775131
3.160000 -0.840000 -9.200000 -7.224911 6.706510 97.176605
3.160000 -0.840000 -9.160000 -14.725874 -4.962608 241.478851
3.160000 -0.840000 -9.120000 -8.162741 -17.996025 390.487274
3.160000 -0.840000 -9.080000 6.732388 -19.830954 438.591766
3.160000 -0.840000 -9.040000 16.925756 -9.246614 371.981079
3.160000 -0.840000 -9.000000 15.457704 4.001189 254.950119
3.160000 -0.840000 -8.960000 6.714942 10.377731 152.787750
3.160000 -0.840000 -8.920000 -0.571623 9.334236 87.454720
3.160000 -0.840000 -8.880000 -3.061033 6.940470 57.540047
3.160000 -0.840000 -8.840000 -4.296502 7.215861 70.528580
3.160000 -0.840000 -8.800000 -8.075832 8.126829 131.264420
3.160000 -0.800000 -9.200000 -7.171730 -6.307106 91.213303
3.160000 -0.800000 -9.160000 -4.282851 -21.005146 459.558960
3.160000 -0.800000 -9.120000 12.481919 -28.025337 941.217896
3.160000 -0.800000 -9.080000 30.605591 -18.016438 1261.294189
3.160000 -0.800000 -9.040000 35.326874 3.373164 1259.366333
3.160000 -0.800000 -9.000000 23.317596 21.080103 988.081055
3.160000 -0.800000 -8.960000 4.518554 24.640718 627.582275
3.160000 -0.800000 -8.920000 -8.353683 16.194431 332.043640
3.160000 -0.800000 -8.880000 -10.866511 5.785093 151.548370
3.160000 -0.800000 -8.840000 -8.058893 0.767543 65.534882
3.160000 -0.800000 -8.800000 -6.871224 0.570462 47.539154
3.200000 -1.200000 -9.200000 2.342392 8.913521 84.937653
3.200000 -1.200000 -9.160000 -1.078401 16.316370 267.386902
3.200000 -1.200000 -9.120000 -6.432067 18.502319 383.707306
3.200000 -1.200000 -9.080000 -9.510221 19.141603 456.845276
3.200000 -1.200000 -9.040000 -13.194656 22.193312 666.642029
3.200000 -1.200000 -9.000000 -22.512518 24.784533 1121.086548
3.200000 -1.200000 -8.960000 -36.076698 19.474678 1680.791260
3.200000 -1.200000 -8.920000 -44.938286 3.498617 2031.689941
3.200000 -1.200000 -8.880000 -41.034538 -16.113621 1943.482178
3.200000 -1.200000 -8.840000 -25.887074 -28.203510 1465.578613
3.200000 -1.200000 -8.800000 -9.387810 -28.004227 872.367676
3.200000 -1.160000 -9.200000 -1.707816 11.684217 139.437576
3.200000 -1.160000 -9.160000 -9.890549 14.432942 306.132782
3.200000 -1.160000 -9.120000 -14.766337 12.000073 362.046509
3.200000 -1.160000 -9.080000 -15.944012 11.058670 376.505676
3.200000 -1.160000 -9.040000 -19.318142 13.368111 551.896973
3.200000 -1.160000 -9.000000 -28.296663 13.224340 975.584351
3.200000 -1.160000 -8.960000 -38.140121 4.519197 1475.091919
3.200000 -1.160000 -8.920000 -40.188507 -11.158023 1739.617554
3.200000 -1.160000 -8.880000 -31.113993 -25.000431 1593.102051
3.200000 -1.160000 -8.840000 -16.497353 -29.505898 1142.760620
3.200000 -1.160000 -8.800000 -4.851133 -25.262836 661.744385
3.200000 -1.120000 -9.200000 -8.784324 9.359318 164.761169
3.200000 -1.120000 -9.160000 -16.252546 5.790973 297.680634
3.200000 -1.120000 -9.120000 -17.871202 0.742421 319.931061
3.200000 -1.120000 -9.080000 -17.125891 -0.551968 293.600800
3.200000 -1.120000 -9.040000 -19.571564 0.565852 383.366302
3.200000 -1.120000 -9.000000 -25.843214 -1.571752 670.342102
3.200000 -1.120000 -8.960000 -30.717602 -9.992514 1043.421387
3.200000 -1.120000 -8.920000 -28.761240 -21.388401 1284.672607
3.200000 -1.120000 -8.880000 -19.855886 -29.394377 1258.285645
3.200000 -1.120000 -8.840000 -8.787371 -30.539898 1009.903259
3.200000 -1.120000 -8.800000 -0.246270 -26.285976 691.013245
3.200000 -1.080000 -9.200000 -11.469664 0.453537 131.758881
3.200000 -1.080000 -9.160000 -13.901633 -5.451365 222.972794
3.200000 -1.080000 -9.120000 -12.454738 -9.625355 247.767944
3.200000 -1.080000 -9.080000 -10.706956 -10.579089 226.556030
3.200000 -1.080000 -9.040000 -11.344475 -10.394518 236.743118
3.200000 -1.080000 -9.000000 -13.910579 -12.167726 341.557739
3.200000 -1.080000 -8.960000 -15.622625 -17.137877 537.773254
3.200000 -1.080000 -8.920000 -13.785066 -23.816507 757.254028
3.200000 -1.080000 -8.880000 -7.654607 -29.149500 908.286377
3.200000 -1.080000 -8.840000 1.167045 -30.263725 917.255066
3.200000 -1.080000 -8.800000 9.372902 -25.909388 759.147705
3.200000 -1.040000 -9.200000 -4.647049 -7.772486 82.006599
3.200000 -1.040000 -9.160000 -3.480037 -10.188042 115.906860
3.200000 -1.040000 -9.120000 -2.243415 -11.969345 148.298141
3.200000 -1.040000 -9.080000 -0.555456 -13.282178 176.724777
3.200000 -1.040000 -9.040000 1.199235 -13.382679 180.534271
3.200000 -1.040000 -9.000000 1.477296 -12.652966 162.279968
3.200000 -1.040000 -8.960000 -0.054391 -13.444046 180.745331
3.200000 -1.040000 -8.920000 -0.652780 -17.547020 308.324036
3.200000 -1.040000 -8.880000 3.417974 -22.837519 533.234802
3.200000 -1.040000 -8.840000 12.145111 -23.914253 719.395203
3.200000 -1.040000 -8.800000 19.935188 -17.426907 701.108826
3.200000 -1.000000 -9.200000 7.034270 -6.480004 91.471413
3.200000 -1.000000 -9.160000 5.714461 -3.850790 47.483650
3.200000 -1.000000 -9.120000 3.620221 -5.757061 46.249756
3.200000 -1.000000 -9.080000 5.656808 -9.230610 117.203644
3.200000 -1.000000 -9.040000 10.340192 -8.915802 186.411102
3.200000 -1.000000 -9.000000 11.995305 -4.735713 166.314316
3.200000 -1.000000 -8.960000 8.729344 -2.398056 81.952126
3.200000 -1.000000 -8.920000 5.733034 -5.868036 67.301529
3.200000 -1.000000 -8.880000 9.132227 -11.336273 211.908661
3.200000 -1.000000 -8.840000 17.604961 -10.879633 428.301086
3.200000 -1.000000 -8.800000 22.501114 -2.244525 511.338043
3.200000 -0.960000 -9.200000 12.804628 4.463947 183.885330
3.200000 -0.960000 -9.160000 4.333488 7.287289 71.883698
3.200000 -0.960000 -9.120000 -0.254138 0.590591 0.413384
3.200000 -0.960000 -9.080000 4.804851 -5.971999 58.751366
3.200000 -0.960000 -9.040000 13.165819 -3.906418 188.598892
3.200000 -0.960000 -9.000000 15.076664 4.207780 245.011215
3.200000 -0.960000 -8.960000 9.416632 8.783030 165.814560
3.200000 -0.960000 -8.920000 4.436865 5.527439 50.238350
3.200000 -0.960000 -8.880000 6.846287 0.576806 47.204350
3.200000 -0.960000 -8.840000 13.101964 2.296336 176.934616
3.200000 -0.960000 -8.800000 13.888021 10.125115 295.395081
3.200000 -0.920000 -9.200000 7.164538 15.314546 285.865906
3.200000 -0.920000 -9.160000 -6.694248 11.351489 173.669266
3.200000 -0.920000 -9.120000 -8.599949 -2.321289 79.347504
3.200000 -0.920000 -9.080000 2.873363 -9.827266 104.831360
3.200000 -0.920000 -9.040000 14.865435 -3.352954 232.223450
3.200000 -0.920000 -9.000000 15.557978 9.536252 332.990784
3.200000 -0.920000 -8.960000 6.521987 16.088810 301.386108
3.200000 -0.920000 -8.920000 -1.266150 12.823208 166.037796
3.200000 -0.920000 -8.880000 -1.246861 7.485247 57.583580
3.200000 -0.920000 -8.840000 2.132380 7.796607 65.334129
3.200000 -0.920000 -8.800000 1.064791 11.891926 142.551666
3.200000 -0.880000 -9.200000 -3.837423 16.530256 287.975159
3.200000 -0.880000 -9.160000 -16.050850 3.220964 268.004395
3.200000 -0.880000 -9.120000 -9.760048 -14.133549 295.015747
3.200000 -0.880000 -9.080000 8.922701 -17.469748 384.806671
3.200000 -0.880000 -9.040000 21.986410 -3.555875 496.046478
3.200000 -0.880000 -9.000000 18.504448 14.347313 548.259949
3.200000 -0.880000 -8.960000 4.109387 21.634787 484.951050
3.200000 -0.880000 -8.920000 -7.600986 16.385197 326.249664
3.200000 -0.880000 -8.880000 -9.823175 7.942234 159.573853
3.200000 -0.880000 -8.840000 -6.935120 4.468877 68.066750
3.200000 -0.880000 -8.800000 -5.964489 5.165036 62.252728
3.200000 -0.840000 -9.200000 -9.018111 9.136116 164.794952
3.200000 -0.840000 -9.160000 -13.483572 -9.300549 268.306915
3.200000 -0.840000 -9.120000 1.866524 -23.454250 553.585754
3.200000 -0.840000 -9.080000 23.874533 -17.847065 888.510986
3.200000 -0.840000 -9.040000 32.822762 4.120838 1094.314941
3.200000 -0.840000 -9.000000 21.576077 24.591167 1070.252563
3.200000 -0.840000 -8.960000 0.642707 29.068041 845.364075
3.200000 -0.840000 -8.920000 -13.931609 18.494167 536.123962
3.200000 -0.840000 -8.880000 -15.432951 4.953148 262.709656
3.200000 -0.840000 -8.840000 -9.358628 -1.644217 90.287369
3.200000 -0.840000 -8.800000 -4.520073 -0.972897 21.377586
3.200000 -0.800000 -9.200000 -4.426741 3.593042 32.505989
3.200000 -0.800000 -9.160000 -1.079386 -13.022243 170.743896
3.200000 -0.800000 -9.120000 18.360268 -18.940840 695.854858
3.200000 -0.800000 -9.080000 36.917572 -4.106633 1379.771484
3.200000 -0.800000 -9.040000 36.902382 22.058613 1848.368164
3.200000 -0.800000 -9.000000 16.694283 39.714550 1855.944580
3.200000 -0.800000 -8.960000 -8.653601 36.966137 1441.380005
3.200000 -0.800000 -8.920000 -22.095001 19.163054 855.411743
3.200000 -0.800000 -8.880000 -18.953888 1.663095 362.015747
3.200000 -0.800000 -8.840000 -7.978374 -4.687678 85.628792
3.200000 -0.800000 -8.800000 -0.877116 -0.948357 1.668713
